Data from A2__Relative__6__17-48-14-906.txt Node

Date: Tue Jan 30 17:48:14 CET 2024
User: diatiterra
Spectrometer: HDX00911
Trigger mode: 0
Integration Time (sec): 6,000000E-3
Scans to average: 3
Nonlinearity correction enabled: true
Boxcar width: 0
Storing dark spectrum: false
XAxis mode: Wavelengths
Number of Pixels in Spectrum: 2068
>>>>>Begin Spectral Data<<<<<
194,468	53,94
195,025	51,76
195,581	53,15
196,138	53,59
196,694	59,23
197,251	46,34
197,807	48,11
198,363	50,73
198,919	52,18
199,474	52,86
200,03	48,64
200,586	51,91
201,141	47,77
201,696	47,1
202,251	46,02
202,806	49,89
203,361	52,85
203,916	42,56
204,471	46,39
205,025	45,34
205,58	52,32
206,134	49,37
206,688	49,59
207,242	38,1
207,796	52,03
208,35	45,08
208,904	45,93
209,457	49,71
210,011	48,94
210,564	47,32
211,117	51,84
211,67	51,98
212,223	50,2
212,776	48,95
213,329	51,72
213,881	48,63
214,434	48,79
214,986	44,75
215,538	46,74
216,09	51,11
216,642	48,55
217,194	47,11
217,746	52,09
218,297	38,84
218,849	49,57
219,4	47,14
219,951	49,58
220,502	50,93
221,053	40,57
221,604	43,13
222,155	50,3
222,705	50,52
223,256	44,39
223,806	49,19
224,356	41,84
224,906	41,82
225,456	46,62
226,006	46,38
226,556	45,3
227,106	47,44
227,655	46,15
228,204	48,42
228,754	48,11
229,303	48,78
229,852	54,13
230,401	47,71
230,949	51,03
231,498	44,05
232,047	43,23
232,595	46,04
233,143	49,79
233,691	40,94
234,239	50,09
234,787	40,89
235,335	44,28
235,883	47,12
236,43	43,68
236,978	43,9
237,525	45,99
238,072	45,39
238,619	52,17
239,166	43,56
239,713	47,05
240,26	43,47
240,806	48,56
241,353	46,38
241,899	49,21
242,445	49,26
242,991	41,88
243,537	50,1
244,083	44,21
244,629	48,88
245,174	46,62
245,72	39,01
246,265	44,43
246,81	49,01
247,355	41,03
247,9	48,64
248,445	44,17
248,99	47,39
249,534	45,31
250,079	51,1
250,623	43,88
251,168	46,9
251,712	39,7
252,256	37,59
252,8	50,3
253,343	52,63
253,887	45,84
254,43	45,61
254,974	46,02
255,517	48,1
256,06	50,57
256,603	49,68
257,146	49,89
257,689	43,71
258,232	47,83
258,774	47,64
259,317	50,94
259,859	45,24
260,401	53,25
260,943	50,64
261,485	50,88
262,027	46,89
262,569	46,84
263,11	47,43
263,652	45,96
264,193	46,02
264,734	48,61
265,275	52,32
265,816	45,02
266,357	45,62
266,898	48,92
267,438	51,12
267,979	53,3
268,519	52,21
269,059	49,67
269,6	50,67
270,14	43,97
270,68	45,34
271,219	46,48
271,759	50
272,298	45,35
272,838	47,49
273,377	45,08
273,916	50,42
274,455	45,62
274,994	49,01
275,533	42,67
276,072	47,15
276,61	49,55
277,149	42,67
277,687	49,13
278,225	51,45
278,763	43,37
279,301	46,78
279,839	43,18
280,377	45,99
280,914	47,24
281,452	48,18
281,989	45,08
282,526	43,58
283,064	50,32
283,601	42,55
284,137	46
284,674	45,78
285,211	47,74
285,747	49,68
286,284	46,58
286,82	44,66
287,356	46,14
287,892	49,06
288,428	46,69
288,964	40,45
289,5	45,02
290,035	47,31
290,571	47,87
291,106	46,07
291,641	50,23
292,176	44,07
292,711	46,22
293,246	45,74
293,781	45,19
294,315	42,82
294,85	51,16
295,384	44,84
295,918	43,87
296,453	45,08
296,987	45,82
297,52	45,7
298,054	42,1
298,588	45,08
299,121	43,9
299,655	48,93
300,188	44,76
300,721	40,09
301,254	50,55
301,787	46,18
302,32	47,54
302,853	44,75
303,385	47,78
303,918	46,9
304,45	40,17
304,982	46,82
305,514	45,62
306,046	45,26
306,578	46,34
307,11	46,14
307,641	47,29
308,173	48,36
308,704	46,43
309,236	45,71
309,767	45,53
310,298	41
310,829	43,95
311,359	53,73
311,89	42,92
312,421	48,53
312,951	44,27
313,481	44,5
314,012	48,42
314,542	44,64
315,072	46,7
315,601	37,65
316,131	47,54
316,661	39,39
317,19	44,27
317,72	38,46
318,249	45,2
318,778	40,95
319,307	42,6
319,836	42,73
320,365	43,23
320,893	49,01
321,422	40,43
321,95	39,06
322,479	47,56
323,007	44,44
323,535	39,4
324,063	45,54
324,591	46,59
325,118	42,7
325,646	44,86
326,173	51,92
326,701	44,66
327,228	46,89
327,755	41,32
328,282	38,03
328,809	43,42
329,336	50,91
329,862	41,96
330,389	46,55
330,915	46,79
331,441	39,53
331,968	40,08
332,494	40,2
333,02	39,14
333,545	45,14
334,071	43,56
334,597	39,66
335,122	49,89
335,648	38,95
336,173	43,54
336,698	47,43
337,223	43,03
337,748	46,49
338,272	42,98
338,797	40,44
339,322	44,67
339,846	41,48
340,37	39,91
340,894	44,02
341,419	43
341,942	36,71
342,466	43,33
342,99	45,12
343,514	40,48
344,037	41,62
344,56	46,13
345,084	35,82
345,607	43,02
346,13	37,42
346,653	35,91
347,175	38,01
347,698	44,39
348,221	37,69
348,743	39,45
349,265	40,5
349,787	38,66
350,309	41,41
350,831	40,16
351,353	34,85
351,875	38,81
352,397	36,04
352,918	37,69
353,439	40,63
353,961	38,14
354,482	35,54
355,003	33,51
355,524	36,85
356,044	34,29
356,565	38,24
357,086	40,03
357,606	35,65
358,126	39,11
358,646	37,37
359,167	36,1
359,687	38,45
360,206	34,43
360,726	39,58
361,246	37,48
361,765	34,81
362,285	35,76
362,804	36,22
363,323	37,52
363,842	36,38
364,361	35,77
364,88	39,5
365,398	34,93
365,917	36,52
366,435	36,18
366,954	35,44
367,472	37,11
367,99	40,39
368,508	36,67
369,026	35,08
369,544	34,93
370,061	36,26
370,579	35,98
371,096	35,92
371,613	40,12
372,131	35,49
372,648	36,77
373,165	33,18
373,681	35,65
374,198	36,72
374,715	33,14
375,231	38,17
375,747	38,53
376,264	32,71
376,78	34,55
377,296	35,73
377,812	38,22
378,327	35,9
378,843	32,82
379,359	34,38
379,874	36,71
380,389	33,31
380,905	37
381,42	34,24
381,935	35,77
382,449	33,25
382,964	32,77
383,479	32,62
383,993	33,96
384,508	30,11
385,022	33,13
385,536	33,39
386,05	31,34
386,564	31,68
387,078	32,38
387,592	30,98
388,105	30,39
388,619	31,02
389,132	28,64
389,645	29,35
390,158	28,65
390,671	28,43
391,184	26,99
391,697	27,06
392,21	27,4
392,722	28,34
393,235	28,1
393,747	27,49
394,259	26,8
394,771	27,75
395,283	26,61
395,795	27,47
396,307	27,37
396,818	26,79
397,33	26,43
397,841	26,17
398,353	24,52
398,864	25,94
399,375	24,38
399,886	23,15
400,397	21,87
400,907	22,94
401,418	22,87
401,928	22,46
402,439	21,8
402,949	21,41
403,459	20,55
403,969	20,83
404,479	19,66
404,989	19,06
405,498	19,12
406,008	18,94
406,517	18,62
407,027	17,94
407,536	16,2
408,045	16,19
408,554	16,52
409,063	15,58
409,572	15,87
410,08	15,05
410,589	14,19
411,097	14,31
411,606	14,15
412,114	13,65
412,622	12,65
413,13	12,88
413,638	12,57
414,145	12,15
414,653	11,8
415,16	11,49
415,668	11,41
416,175	10,97
416,682	10,45
417,189	10,45
417,696	9,93
418,203	9,96
418,71	9,57
419,216	9,93
419,723	9,98
420,229	9,37
420,735	9,02
421,242	9,3
421,748	9,12
422,254	9,26
422,759	8,67
423,265	9,03
423,771	9
424,276	8,98
424,781	8,57
425,287	8,01
425,792	8,67
426,297	8,83
426,802	8,17
427,306	8,2
427,811	8,45
428,316	8,23
428,82	8,05
429,324	8,18
429,829	8,17
430,333	8,09
430,837	7,78
431,34	8,39
431,844	7,83
432,348	7,95
432,851	7,9
433,355	7,86
433,858	7,91
434,361	7,61
434,864	7,75
435,367	7,33
435,87	7,57
436,373	7,7
436,876	7,45
437,378	7,69
437,88	7,62
438,383	7,38
438,885	7,44
439,387	7,57
439,889	7,55
440,391	7,61
440,892	7,58
441,394	7,52
441,896	7,41
442,397	7,76
442,898	7,82
443,399	7,5
443,9	7,49
444,401	7,93
444,902	7,51
445,403	7,6
445,903	7,49
446,404	7,7
446,904	7,48
447,405	7,76
447,905	7,79
448,405	8,22
448,905	7,76
449,404	8,07
449,904	7,72
450,404	8,1
450,903	7,99
451,403	8,03
451,902	8,22
452,401	8,04
452,9	8,19
453,399	7,99
453,898	8,03
454,396	8,14
454,895	8,11
455,393	8,48
455,892	8,36
456,39	8,48
456,888	8,32
457,386	8,32
457,884	8,28
458,382	8,01
458,879	8,12
459,377	8,1
459,874	8,25
460,372	8,27
460,869	8,57
461,366	8,24
461,863	8,32
462,36	8,32
462,857	8,44
463,353	8,51
463,85	8,3
464,346	8,28
464,843	8,39
465,339	8,44
465,835	8,41
466,331	8,26
466,827	8,3
467,323	8,4
467,818	8,17
468,314	8,08
468,809	8,21
469,305	8,28
469,8	8,28
470,295	8,33
470,79	8,23
471,285	8,2
471,78	8,4
472,274	8,54
472,769	8,41
473,263	8,42
473,758	8,32
474,252	8,39
474,746	8,53
475,24	8,3
475,734	8,47
476,228	8,18
476,721	8,48
477,215	8,44
477,708	8,5
478,202	8,61
478,695	8,35
479,188	8,5
479,681	8,5
480,174	8,6
480,667	8,52
481,159	8,56
481,652	8,57
482,144	8,56
482,637	8,85
483,129	8,61
483,621	8,75
484,113	8,65
484,605	8,57
485,097	8,79
485,588	8,73
486,08	8,98
486,571	8,79
487,063	8,85
487,554	8,73
488,045	8,87
488,536	9,04
489,027	8,8
489,518	8,85
490,008	9,11
490,499	8,96
490,989	8,98
491,48	9,15
491,97	9,12
492,46	9,16
492,95	9,52
493,44	9,48
493,93	9,43
494,419	9,5
494,909	9,47
495,398	9,56
495,888	9,85
496,377	9,82
496,866	9,98
497,355	9,84
497,844	9,97
498,333	9,92
498,821	10,37
499,31	10,38
499,798	10,33
500,287	10,7
500,775	10,83
501,263	10,85
501,751	10,9
502,239	11,36
502,727	11,37
503,215	11,4
503,702	11,68
504,19	11,35
504,677	11,8
505,164	11,99
505,651	12,09
506,139	12,34
506,625	12,53
507,112	12,78
507,599	13,01
508,086	13,05
508,572	13,51
509,058	13,89
509,545	13,46
510,031	14,21
510,517	14,3
511,003	14,62
511,489	14,75
511,974	15,23
512,46	15,02
512,946	15,56
513,431	15,76
513,916	15,9
514,401	16,31
514,887	17,25
515,371	17,09
515,856	17,25
516,341	17,64
516,826	18,42
517,31	18,24
517,795	18,68
518,279	19,1
518,763	19,13
519,247	19,65
519,731	20,02
520,215	20,39
520,699	20,49
521,182	20,79
521,666	21,26
522,149	21,74
522,633	22,11
523,116	22,03
523,599	22,6
524,082	23,14
524,565	23,19
525,048	23,64
525,53	23,84
526,013	24,33
526,495	24,53
526,978	24,59
527,46	24,74
527,942	25,26
528,424	25,7
528,906	26,05
529,388	26,06
529,87	26,24
530,351	26,39
530,833	26,41
531,314	26,87
531,795	26,76
532,277	27,1
532,758	27,19
533,238	27,47
533,719	27,48
534,2	27,38
534,681	27,75
535,161	28,01
535,642	28,01
536,122	28,29
536,602	28,39
537,082	28,46
537,562	28,42
538,042	28,48
538,522	28,46
539,001	28,56
539,481	28,97
539,96	28,89
540,44	28,77
540,919	28,82
541,398	28,98
541,877	29,27
542,356	28,91
542,835	29,25
543,313	28,98
543,792	29,41
544,27	29
544,749	29,26
545,227	29,31
545,705	29,39
546,183	29,36
546,661	29,46
547,139	29,44
547,616	29,24
548,094	29,63
548,571	29,54
549,049	29,62
549,526	29,93
550,003	29,69
550,48	29,84
550,957	30,06
551,434	29,45
551,911	29,93
552,387	29,97
552,864	29,98
553,34	29,66
553,817	30,02
554,293	30,23
554,769	30,11
555,245	29,57
555,721	29,97
556,197	29,84
556,672	29,83
557,148	29,88
557,623	29,67
558,099	29,67
558,574	29,74
559,049	29,46
559,524	29,58
559,999	29,56
560,474	29,57
560,948	29,32
561,423	29,46
561,897	29,11
562,372	29,26
562,846	28,93
563,32	29,02
563,794	28,79
564,268	29,07
564,742	28,68
565,216	28,25
565,69	28,18
566,163	28,32
566,636	27,88
567,11	28
567,583	27,77
568,056	27,92
568,529	27,22
569,002	27,27
569,475	26,89
569,947	26,86
570,42	26,8
570,892	26,3
571,365	26,21
571,837	26,1
572,309	25,78
572,781	25,81
573,253	25,42
573,725	25,51
574,197	25,09
574,668	25,35
575,14	24,81
575,611	24,81
576,082	24,55
576,554	24,49
577,025	24,53
577,496	24,04
577,967	24,01
578,437	23,92
578,908	23,69
579,379	23,51
579,849	23,45
580,319	23,41
580,79	23,32
581,26	23,23
581,73	22,76
582,2	22,71
582,669	22,58
583,139	22,79
583,609	22,43
584,078	22,41
584,548	22,17
585,017	22,09
585,486	22,27
585,955	21,69
586,424	21,76
586,893	21,8
587,362	21,57
587,83	21,33
588,299	21,33
588,767	21,45
589,236	21,24
589,704	21,27
590,172	21,16
590,64	21,05
591,108	21,17
591,576	20,82
592,043	20,94
592,511	20,85
592,978	20,58
593,446	20,52
593,913	20,52
594,38	20,45
594,847	20,61
595,314	20,38
595,781	20,52
596,248	20,25
596,715	20,12
597,181	20,21
597,647	20,24
598,114	20,31
598,58	20,27
599,046	20,2
599,512	20,13
599,978	20,07
600,444	19,98
600,91	19,97
601,375	20,09
601,841	19,89
602,306	19,76
602,771	19,87
603,236	19,71
603,702	19,59
604,167	19,5
604,631	19,5
605,096	19,47
605,561	19,3
606,025	19,32
606,49	19,39
606,954	19,34
607,418	19,18
607,882	19,06
608,347	18,94
608,81	18,89
609,274	18,67
609,738	18,6
610,202	18,6
610,665	18,62
611,128	18,39
611,592	18,45
612,055	18,25
612,518	18,15
612,981	17,97
613,444	17,93
613,907	17,76
614,369	17,61
614,832	17,79
615,294	17,41
615,757	17,37
616,219	17,25
616,681	17,34
617,143	17,01
617,605	17,03
618,067	17,04
618,529	16,78
618,99	16,78
619,452	16,73
619,913	16,9
620,375	16,67
620,836	16,63
621,297	16,4
621,758	16,4
622,219	16,5
622,68	16,36
623,14	16,38
623,601	16,21
624,061	16,24
624,522	16,18
624,982	16,21
625,442	16,07
625,902	16,08
626,362	15,98
626,822	16,02
627,282	16,15
627,742	15,91
628,201	15,89
628,661	15,88
629,12	15,97
629,579	16,05
630,038	15,91
630,497	15,9
630,956	15,77
631,415	15,87
631,874	15,86
632,332	15,84
632,791	15,82
633,249	15,63
633,708	15,57
634,166	15,6
634,624	15,4
635,082	15,37
635,54	15,33
635,998	15,17
636,455	15,19
636,913	14,89
637,37	14,96
637,828	14,71
638,285	14,82
638,742	14,69
639,199	14,57
639,656	14,46
640,113	14,16
640,57	14,05
641,027	14,03
641,483	13,77
641,94	13,72
642,396	13,41
642,852	13,48
643,309	13,17
643,765	13,19
644,221	12,95
644,676	12,89
645,132	12,8
645,588	12,65
646,043	12,51
646,499	12,44
646,954	12,28
647,409	12,27
647,864	11,96
648,319	11,83
648,774	11,83
649,229	11,66
649,684	11,58
650,139	11,55
650,593	11,38
651,047	11,42
651,502	11,31
651,956	11,25
652,41	11,16
652,864	11,15
653,318	11,08
653,772	11,05
654,225	11,02
654,679	10,89
655,133	10,86
655,586	10,79
656,039	10,74
656,492	10,63
656,946	10,58
657,399	10,56
657,851	10,42
658,304	10,42
658,757	10,39
659,209	10,16
659,662	10,07
660,114	9,94
660,567	9,93
661,019	9,76
661,471	9,75
661,923	9,63
662,375	9,54
662,826	9,4
663,278	9,41
663,73	9,31
664,181	9,33
664,632	9,06
665,084	8,97
665,535	9,02
665,986	8,89
666,437	8,87
666,888	8,77
667,338	8,75
667,789	8,77
668,24	8,7
668,69	8,67
669,14	8,68
669,591	8,54
670,041	8,67
670,491	8,62
670,941	8,58
671,391	8,68
671,84	8,65
672,29	8,67
672,74	8,72
673,189	8,61
673,638	8,66
674,088	8,83
674,537	8,78
674,986	8,95
675,435	8,88
675,883	9,05
676,332	9
676,781	9,21
677,229	9,19
677,678	9,34
678,126	9,35
678,574	9,49
679,022	9,57
679,47	9,66
679,918	9,87
680,366	9,81
680,814	9,91
681,261	10,08
681,709	10,14
682,156	10,32
682,604	10,37
683,051	10,62
683,498	10,77
683,945	10,88
684,392	11,01
684,839	11,14
685,286	11,39
685,732	11,57
686,179	11,79
686,625	12,03
687,071	12,25
687,518	12,58
687,964	12,69
688,41	13,13
688,856	13,3
689,301	13,68
689,747	14,01
690,193	14,42
690,638	14,88
691,084	15,24
691,529	15,62
691,974	16,24
692,419	16,67
692,864	17,18
693,309	17,82
693,754	18,27
694,199	18,68
694,643	19,31
695,088	19,93
695,532	20,61
695,977	21,15
696,421	21,64
696,865	22,25
697,309	22,83
697,753	23,54
698,197	24,16
698,64	24,71
699,084	25,23
699,527	25,88
699,971	26,48
700,414	27,01
700,857	27,47
701,3	28,12
701,743	28,61
702,186	29,36
702,629	29,89
703,072	30,32
703,515	31,06
703,957	31,09
704,399	31,92
704,842	32,38
705,284	32,85
705,726	33,48
706,168	33,92
706,61	34,4
707,052	34,79
707,494	35,19
707,935	35,56
708,377	36,27
708,818	36,55
709,26	37,08
709,701	37,31
710,142	37,93
710,583	38,19
711,024	38,7
711,465	39,17
711,905	39,38
712,346	39,86
712,787	40,05
713,227	40,65
713,667	41,14
714,108	41,52
714,548	41,64
714,988	41,92
715,428	42,35
715,868	42,69
716,307	42,89
716,747	43,53
717,186	43,74
717,626	44,13
718,065	44,5
718,504	44,57
718,944	45,23
719,383	45,31
719,822	45,59
720,261	45,98
720,699	45,97
721,138	46,25
721,576	46,58
722,015	46,96
722,453	47,32
722,892	47,51
723,33	47,8
723,768	48,08
724,206	48,43
724,644	48,39
725,081	48,77
725,519	48,9
725,957	48,93
726,394	49,21
726,832	49,09
727,269	49,61
727,706	49,73
728,143	50,01
728,58	50,1
729,017	50,17
729,454	50,62
729,89	50,64
730,327	50,67
730,764	50,83
731,2	50,92
731,636	51,19
732,072	51,41
732,509	51,54
732,945	51,48
733,38	51,54
733,816	51,66
734,252	51,84
734,688	51,68
735,123	51,63
735,559	52,01
735,994	52,23
736,429	52,18
736,864	52,09
737,299	52,09
737,734	52,22
738,169	52,07
738,604	52,44
739,038	52,53
739,473	52,42
739,907	52,6
740,342	52,44
740,776	52,27
741,21	52,71
741,644	52,83
742,078	52,9
742,512	52,73
742,946	52,88
743,379	52,81
743,813	52,89
744,246	52,75
744,68	53,04
745,113	52,84
745,546	52,82
745,979	52,9
746,412	53,04
746,845	52,69
747,278	52,93
747,711	52,78
748,143	52,86
748,576	52,62
749,008	52,69
749,441	52,51
749,873	52,71
750,305	52,79
750,737	52,56
751,169	52,62
751,601	52,76
752,032	52,81
752,464	52,85
752,896	52,62
753,327	52,32
753,758	52,58
754,19	52,69
754,621	52,63
755,052	52,44
755,483	52,44
755,914	52,33
756,344	52,32
756,775	52,53
757,206	52,61
757,636	52,43
758,066	52,29
758,497	52,3
758,927	52,34
759,357	52,03
759,787	52,38
760,217	52,04
760,647	52,02
761,076	52,37
761,506	52,14
761,935	51,9
762,365	52,29
762,794	51,97
763,223	52,07
763,653	52,09
764,082	52,06
764,51	51,89
764,939	51,8
765,368	51,9
765,797	52,14
766,225	51,93
766,654	51,91
767,082	51,81
767,51	51,78
767,938	51,8
768,367	51,76
768,795	51,93
769,222	51,88
769,65	51,87
770,078	51,76
770,505	51,42
770,933	51,66
771,36	51,64
771,788	51,68
772,215	51,6
772,642	51,6
773,069	51,48
773,496	51,36
773,923	51,28
774,349	51,25
774,776	51,52
775,203	51,59
775,629	51,45
776,055	51,55
776,482	51,46
776,908	51,29
777,334	51,35
777,76	51,37
778,186	51,37
778,611	51,57
779,037	51,37
779,463	51,41
779,888	51,18
780,314	51,14
780,739	51,29
781,164	51,12
781,589	51,14
782,014	51,09
782,439	51,44
782,864	51,16
783,289	51,32
783,713	51,07
784,138	50,95
784,562	51,26
784,987	51
785,411	51,25
785,835	50,97
786,259	51,15
786,683	51,31
787,107	51,03
787,531	51,13
787,954	51,08
788,378	51,13
788,802	51,17
789,225	51,02
789,648	51,26
790,071	51,01
790,495	50,93
790,918	51,12
791,34	51,08
791,763	51,11
792,186	51,04
792,609	51,17
793,031	50,88
793,454	51,16
793,876	51,2
794,298	50,92
794,721	51,12
795,143	51,32
795,565	51,15
795,986	51,24
796,408	50,86
796,83	50,87
797,252	51,17
797,673	51,11
798,094	50,7
798,516	50,75
798,937	50,74
799,358	51,02
799,779	50,76
800,2	51,06
800,621	50,98
801,042	50,76
801,462	50,83
801,883	50,74
802,303	50,87
802,724	50,83
803,144	51,08
803,564	50,6
803,984	50,91
804,404	50,98
804,824	51,01
805,244	50,69
805,664	50,99
806,084	50,92
806,503	50,92
806,923	51,02
807,342	50,97
807,761	50,96
808,18	50,96
808,599	50,82
809,018	50,66
809,437	50,74
809,856	50,62
810,275	50,59
810,693	50,78
811,112	50,84
811,53	50,87
811,949	50,78
812,367	50,84
812,785	50,78
813,203	50,88
813,621	50,94
814,039	50,97
814,457	50,58
814,874	50,93
815,292	50,83
815,709	50,74
816,127	50,7
816,544	51,01
816,961	50,92
817,378	50,9
817,795	50,82
818,212	50,73
818,629	50,85
819,046	50,55
819,462	50,89
819,879	50,97
820,295	50,46
820,712	50,78
821,128	50,85
821,544	50,92
821,96	50,81
822,376	50,61
822,792	50,6
823,208	50,53
823,624	50,82
824,039	50,5
824,455	50,68
824,87	50,89
825,286	50,55
825,701	51
826,116	50,46
826,531	50,59
826,946	50,68
827,361	50,51
827,776	50,7
828,19	50,49
828,605	50,52
829,02	50,79
829,434	50,49
829,848	50,72
830,263	50,53
830,677	50,53
831,091	50,7
831,505	50,63
831,919	50,53
832,332	50,57
832,746	50,59
833,16	50,77
833,573	50,41
833,987	50,62
834,4	50,49
834,813	50,57
835,226	50,52
835,639	50,64
836,052	50,35
836,465	50,62
836,878	50,43
837,29	50,36
837,703	50,48
838,116	50,52
838,528	50,46
838,94	50,45
