Data from A2__Relative__2__17-48-02-470.txt Node

Date: Tue Jan 30 17:48:02 CET 2024
User: diatiterra
Spectrometer: HDX00911
Trigger mode: 0
Integration Time (sec): 6,000000E-3
Scans to average: 3
Nonlinearity correction enabled: true
Boxcar width: 0
Storing dark spectrum: false
XAxis mode: Wavelengths
Number of Pixels in Spectrum: 2068
>>>>>Begin Spectral Data<<<<<
194,468	54,39
195,025	55,62
195,581	58,65
196,138	51,77
196,694	61,04
197,251	53,23
197,807	57,99
198,363	57,02
198,919	55,01
199,474	67,22
200,03	53,67
200,586	54,14
201,141	55,46
201,696	46,17
202,251	57,02
202,806	59,06
203,361	56,45
203,916	50,79
204,471	59,17
205,025	49,38
205,58	63,84
206,134	59,7
206,688	54,81
207,242	55,98
207,796	57,72
208,35	54,7
208,904	53,65
209,457	56,35
210,011	57,59
210,564	54,45
211,117	56,96
211,67	58,12
212,223	57,51
212,776	57,77
213,329	58,37
213,881	58,49
214,434	53,97
214,986	58,03
215,538	57,92
216,09	52,73
216,642	62,75
217,194	52,87
217,746	56,9
218,297	57,16
218,849	54,94
219,4	52,22
219,951	55,78
220,502	57,73
221,053	55,68
221,604	52,93
222,155	59,34
222,705	53,01
223,256	55,18
223,806	53,39
224,356	58,99
224,906	54,14
225,456	56,93
226,006	49,7
226,556	57,99
227,106	60,47
227,655	54,88
228,204	56,18
228,754	54,81
229,303	56,44
229,852	57,39
230,401	57,09
230,949	54,13
231,498	53,05
232,047	50,81
232,595	58,25
233,143	57,2
233,691	52,08
234,239	51,47
234,787	56,03
235,335	56,96
235,883	54,42
236,43	53,41
236,978	55,48
237,525	52,97
238,072	53,55
238,619	55,65
239,166	47,51
239,713	50,9
240,26	52,46
240,806	56,11
241,353	54,81
241,899	54,68
242,445	57,5
242,991	55,23
243,537	55,39
244,083	55,77
244,629	58,38
245,174	55,9
245,72	50,53
246,265	60,01
246,81	58,06
247,355	55,5
247,9	56,19
248,445	55,84
248,99	58,05
249,534	50,45
250,079	57,93
250,623	55,5
251,168	55,37
251,712	48,4
252,256	53,09
252,8	56,23
253,343	54,95
253,887	54,93
254,43	59,73
254,974	56,42
255,517	57,5
256,06	61,46
256,603	54,37
257,146	58,83
257,689	56,3
258,232	57,36
258,774	56,22
259,317	55,74
259,859	56,23
260,401	59,29
260,943	53,6
261,485	52,42
262,027	50,67
262,569	55,39
263,11	52,36
263,652	56,36
264,193	57,08
264,734	56,5
265,275	54,08
265,816	54,75
266,357	61,66
266,898	53,46
267,438	53,36
267,979	60,33
268,519	60,14
269,059	56,89
269,6	58,89
270,14	58,32
270,68	54,65
271,219	59,69
271,759	57,24
272,298	53,99
272,838	59,7
273,377	54,7
273,916	54,62
274,455	53,75
274,994	58,29
275,533	55,56
276,072	56,37
276,61	56,08
277,149	48,83
277,687	55,02
278,225	58,75
278,763	54,16
279,301	55,8
279,839	53,41
280,377	55,1
280,914	57,42
281,452	60,05
281,989	62,22
282,526	53,97
283,064	59,79
283,601	53,56
284,137	54,89
284,674	54,01
285,211	60,64
285,747	55,03
286,284	53,89
286,82	53,33
287,356	58,04
287,892	55,23
288,428	50,88
288,964	56,84
289,5	51,95
290,035	54,71
290,571	56,81
291,106	62,55
291,641	51,59
292,176	53,85
292,711	51,62
293,246	50
293,781	54,59
294,315	50,42
294,85	60,15
295,384	60,58
295,918	50,2
296,453	52,08
296,987	54,17
297,52	50,55
298,054	54,82
298,588	58,93
299,121	56,57
299,655	56,65
300,188	55,24
300,721	51,1
301,254	56,68
301,787	53,6
302,32	64,49
302,853	50,1
303,385	56
303,918	52,64
304,45	49,89
304,982	60,92
305,514	55,73
306,046	54,1
306,578	53,23
307,11	53,86
307,641	57,7
308,173	53,31
308,704	57,75
309,236	56,62
309,767	52,77
310,298	52,49
310,829	50,01
311,359	56,01
311,89	51,91
312,421	54,83
312,951	52,64
313,481	52,99
314,012	55,16
314,542	48,58
315,072	54,8
315,601	51,27
316,131	54,72
316,661	55,14
317,19	54,56
317,72	52,6
318,249	52,02
318,778	57,55
319,307	54,26
319,836	52,8
320,365	57,95
320,893	54,51
321,422	54,35
321,95	54,35
322,479	54,67
323,007	49,78
323,535	53,1
324,063	53,8
324,591	53,87
325,118	51,05
325,646	48,14
326,173	55,31
326,701	55,12
327,228	54
327,755	57,75
328,282	50,64
328,809	46,71
329,336	56,79
329,862	52,39
330,389	50,7
330,915	51
331,441	53,7
331,968	53,94
332,494	54,94
333,02	54,2
333,545	55,08
334,071	47,33
334,597	50,1
335,122	56,02
335,648	46,24
336,173	56,04
336,698	55,84
337,223	58,4
337,748	50,18
338,272	48,28
338,797	51,7
339,322	59,49
339,846	51,33
340,37	55,39
340,894	56,62
341,419	56,57
341,942	51,55
342,466	50,44
342,99	56,02
343,514	58,89
344,037	53,33
344,56	54,45
345,084	49,63
345,607	52,72
346,13	50,82
346,653	49,61
347,175	55,11
347,698	58,04
348,221	49,14
348,743	50,06
349,265	56,33
349,787	57,19
350,309	55,15
350,831	55,65
351,353	50,05
351,875	52,3
352,397	52,44
352,918	55,77
353,439	54,47
353,961	54,65
354,482	48,01
355,003	52,38
355,524	50,59
356,044	50,7
356,565	54,36
357,086	56,97
357,606	51,32
358,126	53,02
358,646	53,85
359,167	51,28
359,687	54,16
360,206	53,18
360,726	52,48
361,246	55,64
361,765	55,04
362,285	57,92
362,804	51,57
363,323	53,72
363,842	55
364,361	51,43
364,88	53,21
365,398	49,95
365,917	54,51
366,435	54,13
366,954	54,38
367,472	56,04
367,99	56,81
368,508	50,25
369,026	55,74
369,544	55,64
370,061	52,02
370,579	55,47
371,096	53,44
371,613	53,13
372,131	57,11
372,648	52,08
373,165	53,82
373,681	54,55
374,198	53,6
374,715	52,46
375,231	54,72
375,747	52,85
376,264	51,64
376,78	55,84
377,296	57,46
377,812	56,21
378,327	53,05
378,843	53,62
379,359	54,64
379,874	54,11
380,389	52,32
380,905	55,02
381,42	49,58
381,935	53,08
382,449	50,64
382,964	51,23
383,479	51,17
383,993	52,42
384,508	47,99
385,022	48,08
385,536	50,02
386,05	52,14
386,564	52,33
387,078	48,94
387,592	47,52
388,105	49,11
388,619	47,88
389,132	46,07
389,645	47,09
390,158	45,34
390,671	45,38
391,184	45,98
391,697	42,97
392,21	43,49
392,722	44,68
393,235	44,43
393,747	44,54
394,259	41,95
394,771	44,18
395,283	41,56
395,795	41,94
396,307	42,56
396,818	41,43
397,33	41,25
397,841	40,93
398,353	39,75
398,864	38,17
399,375	39,44
399,886	39,5
400,397	38,22
400,907	38,84
401,418	38,42
401,928	38,51
402,439	36,4
402,949	36,21
403,459	35,95
403,969	33,75
404,479	33,57
404,989	32,73
405,498	32,35
406,008	31,59
406,517	30,78
407,027	30,94
407,536	30,26
408,045	28,53
408,554	27,4
409,063	26,34
409,572	26,69
410,08	25,1
410,589	25,37
411,097	24,7
411,606	24
412,114	22,79
412,622	22,92
413,13	22,55
413,638	22,05
414,145	20,94
414,653	19,76
415,16	19,9
415,668	18,87
416,175	19,09
416,682	18,96
417,189	18,36
417,696	17,95
418,203	17,44
418,71	17
419,216	17,56
419,723	17,12
420,229	16,21
420,735	16,51
421,242	16,5
421,748	16,41
422,254	16,08
422,759	16
423,265	15,71
423,771	15,39
424,276	15,2
424,781	15,4
425,287	15,35
425,792	15,43
426,297	15,56
426,802	15,03
427,306	15,05
427,811	15,2
428,316	15,29
428,82	14,85
429,324	15,12
429,829	14,62
430,333	14,9
430,837	14,76
431,34	14,61
431,844	15,09
432,348	14,45
432,851	14,39
433,355	14,5
433,858	14,78
434,361	14,56
434,864	14,52
435,367	14
435,87	14,41
436,373	14,36
436,876	14,31
437,378	14,51
437,88	14,14
438,383	14,06
438,885	14,01
439,387	14,24
439,889	14,16
440,391	14,03
440,892	14,14
441,394	14,23
441,896	14,28
442,397	14,33
442,898	14,27
443,399	14,1
443,9	14,59
444,401	14,07
444,902	13,94
445,403	14,12
445,903	14,34
446,404	14,11
446,904	14,24
447,405	14,09
447,905	13,85
448,405	14,67
448,905	14,64
449,404	14,63
449,904	13,99
450,404	14,72
450,903	14,4
451,403	14,02
451,902	14,55
452,401	14,65
452,9	14,82
453,399	14,36
453,898	14,49
454,396	15,01
454,895	14,64
455,393	14,75
455,892	14,89
456,39	14,93
456,888	14,59
457,386	14,89
457,884	14,73
458,382	14,9
458,879	14,57
459,377	14,73
459,874	14,57
460,372	14,83
460,869	15,07
461,366	14,78
461,863	15,06
462,36	14,9
462,857	15,05
463,353	15,12
463,85	14,89
464,346	14,75
464,843	14,59
465,339	14,94
465,835	14,83
466,331	14,63
466,827	14,79
467,323	15,07
467,818	14,94
468,314	14,95
468,809	14,73
469,305	14,79
469,8	15,39
470,295	14,93
470,79	15,21
471,285	14,97
471,78	15,13
472,274	15,06
472,769	15,32
473,263	15,52
473,758	14,99
474,252	15,03
474,746	14,83
475,24	14,79
475,734	15,05
476,228	15,22
476,721	14,95
477,215	15,19
477,708	15,33
478,202	15,3
478,695	15,17
479,188	15,23
479,681	15,19
480,174	15,23
480,667	15,43
481,159	15,48
481,652	15,22
482,144	15,24
482,637	15,16
483,129	15,29
483,621	15,44
484,113	15,29
484,605	15,19
485,097	15,54
485,588	15,38
486,08	15,49
486,571	15,42
487,063	15,35
487,554	15,72
488,045	15,49
488,536	15,49
489,027	15,48
489,518	15,67
490,008	15,85
490,499	15,74
490,989	15,8
491,48	16,03
491,97	15,97
492,46	15,91
492,95	16,06
493,44	15,84
493,93	15,84
494,419	15,93
494,909	16,06
495,398	15,95
495,888	16,13
496,377	16,12
496,866	16,18
497,355	16,4
497,844	16,6
498,333	16,34
498,821	16,48
499,31	16,33
499,798	16,53
500,287	16,56
500,775	17,23
501,263	17,22
501,751	17,21
502,239	17,19
502,727	17,43
503,215	17,55
503,702	17,55
504,19	17,6
504,677	17,87
505,164	18,03
505,651	18,26
506,139	18,27
506,625	18,43
507,112	18,74
507,599	18,8
508,086	18,82
508,572	19,5
509,058	19,24
509,545	19,76
510,031	19,81
510,517	19,96
511,003	20,37
511,489	20,73
511,974	20,76
512,46	20,8
512,946	21,17
513,431	21,42
513,916	21,71
514,401	21,88
514,887	22,57
515,371	22,65
515,856	22,69
516,341	23,49
516,826	23,74
517,31	23,87
517,795	24,42
518,279	24,93
518,763	24,9
519,247	25,22
519,731	26,23
520,215	25,98
520,699	26,5
521,182	26,88
521,666	27,25
522,149	27,75
522,633	28
523,116	28,35
523,599	29,05
524,082	29,32
524,565	29,85
525,048	29,97
525,53	30,11
526,013	30,35
526,495	30,97
526,978	31,25
527,46	31,67
527,942	31,86
528,424	32,41
528,906	32,08
529,388	32,73
529,87	32,84
530,351	33,32
530,833	33,29
531,314	33,38
531,795	33,72
532,277	34,11
532,758	34,31
533,238	34,68
533,719	34,78
534,2	34,85
534,681	34,9
535,161	34,78
535,642	34,95
536,122	35,23
536,602	35,52
537,082	35,62
537,562	35,5
538,042	35,8
538,522	35,4
539,001	35,84
539,481	35,87
539,96	35,87
540,44	36,26
540,919	36,28
541,398	36,32
541,877	36,37
542,356	36,89
542,835	36,14
543,313	36,31
543,792	36,52
544,27	36,8
544,749	36,82
545,227	36,76
545,705	36,79
546,183	36,83
546,661	36,95
547,139	37,08
547,616	37,16
548,094	36,9
548,571	36,88
549,049	36,97
549,526	37,51
550,003	37,52
550,48	37,52
550,957	37,27
551,434	37,25
551,911	37,36
552,387	37,37
552,864	37,19
553,34	37,44
553,817	37,26
554,293	37,49
554,769	37,63
555,245	37,52
555,721	37,01
556,197	37,54
556,672	37,49
557,148	37,79
557,623	37,23
558,099	37,6
558,574	37,27
559,049	37,12
559,524	36,97
559,999	37,32
560,474	37,04
560,948	36,6
561,423	36,56
561,897	36,71
562,372	36,36
562,846	36,36
563,32	36,4
563,794	36,17
564,268	35,96
564,742	35,82
565,216	35,81
565,69	35,66
566,163	35,59
566,636	34,86
567,11	35,17
567,583	34,91
568,056	34,43
568,529	34,61
569,002	33,96
569,475	34,01
569,947	33,61
570,42	33,69
570,892	33,19
571,365	33,25
571,837	32,8
572,309	32,78
572,781	32,39
573,253	32,11
573,725	31,82
574,197	31,79
574,668	31,97
575,14	31,28
575,611	31,12
576,082	30,9
576,554	30,82
577,025	30,95
577,496	30,31
577,967	30,4
578,437	30,21
578,908	30,21
579,379	29,87
579,849	29,77
580,319	29,38
580,79	29,37
581,26	29,25
581,73	28,83
582,2	28,93
582,669	28,76
583,139	28,75
583,609	28,61
584,078	28,32
584,548	28,53
585,017	28,35
585,486	28,17
585,955	27,66
586,424	27,86
586,893	27,61
587,362	27,52
587,83	27,54
588,299	27,2
588,767	27,35
589,236	27,17
589,704	27,12
590,172	27,04
590,64	26,89
591,108	26,81
591,576	26,81
592,043	26,49
592,511	26,76
592,978	26,54
593,446	26,46
593,913	26,64
594,38	26,16
594,847	26,25
595,314	26,32
595,781	26,18
596,248	26,18
596,715	26,04
597,181	26,09
597,647	26,29
598,114	25,95
598,58	26,27
599,046	25,87
599,512	25,98
599,978	25,85
600,444	25,56
600,91	25,8
601,375	25,48
601,841	25,57
602,306	25,53
602,771	25,68
603,236	25,53
603,702	25,61
604,167	25,41
604,631	25,21
605,096	25,22
605,561	25,23
606,025	25,01
606,49	25,02
606,954	24,74
607,418	24,81
607,882	24,85
608,347	24,41
608,81	24,57
609,274	24,48
609,738	24,18
610,202	24,35
610,665	24,09
611,128	23,9
611,592	23,87
612,055	23,69
612,518	23,67
612,981	23,63
613,444	23,47
613,907	23,34
614,369	23,16
614,832	23,27
615,294	22,97
615,757	22,85
616,219	22,84
616,681	22,82
617,143	22,57
617,605	22,47
618,067	22,43
618,529	22,27
618,99	22,36
619,452	22,17
619,913	22,19
620,375	21,83
620,836	22,15
621,297	21,88
621,758	21,87
622,219	21,85
622,68	21,8
623,14	21,82
623,601	21,66
624,061	21,83
624,522	21,63
624,982	21,52
625,442	21,74
625,902	21,58
626,362	21,38
626,822	21,66
627,282	21,54
627,742	21,28
628,201	21,27
628,661	21,19
629,12	21,21
629,579	21,16
630,038	21,34
630,497	21,03
630,956	21,1
631,415	21,11
631,874	21,03
632,332	21,19
632,791	21,02
633,249	20,96
633,708	20,95
634,166	20,96
634,624	20,8
635,082	20,79
635,54	20,73
635,998	20,45
636,455	20,43
636,913	20,28
637,37	20,32
637,828	20,06
638,285	19,96
638,742	19,93
639,199	19,74
639,656	19,66
640,113	19,45
640,57	19,55
641,027	19,37
641,483	19,16
641,94	18,99
642,396	19,02
642,852	18,92
643,309	18,55
643,765	18,59
644,221	18,42
644,676	18,45
645,132	18,35
645,588	18,12
646,043	17,95
646,499	18,01
646,954	17,77
647,409	17,71
647,864	17,51
648,319	17,49
648,774	17,47
649,229	17,26
649,684	17,15
650,139	17,09
650,593	17,11
651,047	17,07
651,502	16,85
651,956	16,91
652,41	16,79
652,864	16,74
653,318	16,58
653,772	16,68
654,225	16,78
654,679	16,49
655,133	16,48
655,586	16,32
656,039	16,25
656,492	16,42
656,946	16,2
657,399	16,26
657,851	15,99
658,304	16,12
658,757	16,01
659,209	15,88
659,662	15,82
660,114	15,76
660,567	15,57
661,019	15,73
661,471	15,6
661,923	15,48
662,375	15,47
662,826	15,36
663,278	15,36
663,73	15,25
664,181	15,21
664,632	15,21
665,084	15,22
665,535	15,12
665,986	15,2
666,437	15,06
666,888	14,95
667,338	15,11
667,789	15,22
668,24	14,98
668,69	15,13
669,14	15,06
669,591	15,12
670,041	15,16
670,491	15,16
670,941	15,21
671,391	15,21
671,84	15,21
672,29	15,41
672,74	15,33
673,189	15,38
673,638	15,4
674,088	15,52
674,537	15,47
674,986	15,69
675,435	15,69
675,883	15,64
676,332	15,83
676,781	16,04
677,229	16,06
677,678	16,12
678,126	16,21
678,574	16,34
679,022	16,36
679,47	16,52
679,918	16,6
680,366	16,55
680,814	16,83
681,261	16,81
681,709	16,93
682,156	17,03
682,604	17,28
683,051	17,18
683,498	17,24
683,945	17,5
684,392	17,51
684,839	17,59
685,286	17,78
685,732	17,95
686,179	18,03
686,625	18,05
687,071	18,1
687,518	18,35
687,964	18,45
688,41	18,82
688,856	18,96
689,301	19,08
689,747	19,38
690,193	19,74
690,638	19,95
691,084	20,35
691,529	20,74
691,974	21,03
692,419	21,45
692,864	21,98
693,309	22,55
693,754	23,03
694,199	23,59
694,643	23,97
695,088	24,64
695,532	25,2
695,977	25,92
696,421	26,56
696,865	27,3
697,309	27,91
697,753	28,65
698,197	29,21
698,64	30,01
699,084	30,34
699,527	31,13
699,971	31,88
700,414	32,54
700,857	33,23
701,3	34,08
701,743	34,41
702,186	35,27
702,629	35,91
703,072	36,47
703,515	37,3
703,957	37,74
704,399	38,57
704,842	39,12
705,284	39,76
705,726	40,3
706,168	40,92
706,61	41,59
707,052	41,98
707,494	42,62
707,935	43,43
708,377	43,98
708,818	44,26
709,26	44,91
709,701	45,2
710,142	45,96
710,583	46,49
711,024	47,17
711,465	47,8
711,905	48,02
712,346	48,52
712,787	49,03
713,227	49,46
713,667	50,31
714,108	50,54
714,548	51,12
714,988	51,55
715,428	52,24
715,868	52,44
716,307	52,73
716,747	53,47
717,186	53,84
717,626	54,09
718,065	54,89
718,504	54,99
718,944	55,55
719,383	55,97
719,822	56,24
720,261	56,56
720,699	57,16
721,138	57,12
721,576	57,73
722,015	58,29
722,453	58,73
722,892	59,03
723,33	59,27
723,768	59,58
724,206	60,19
724,644	60,07
725,081	60,46
725,519	60,61
725,957	60,92
726,394	61,4
726,832	61,47
727,269	61,98
727,706	61,97
728,143	62,39
728,58	62,31
729,017	62,74
729,454	63,07
729,89	63,22
730,327	63,34
730,764	63,54
731,2	63,73
731,636	63,76
732,072	63,95
732,509	64,32
732,945	64,3
733,38	64,24
733,816	64,52
734,252	64,68
734,688	64,64
735,123	64,9
735,559	65,18
735,994	65,02
736,429	65,28
736,864	65,11
737,299	65,19
737,734	65,28
738,169	65,24
738,604	65,69
739,038	65,78
739,473	65,65
739,907	65,85
740,342	65,93
740,776	65,51
741,21	66,22
741,644	66,27
742,078	66,17
742,512	66,21
742,946	66,25
743,379	65,86
743,813	66,03
744,246	65,98
744,68	66,16
745,113	66,1
745,546	66,41
745,979	66,24
746,412	66,41
746,845	66,11
747,278	66,43
747,711	66,22
748,143	66,05
748,576	66
749,008	65,74
749,441	65,89
749,873	66,01
750,305	66,06
750,737	65,94
751,169	65,83
751,601	66,07
752,032	65,68
752,464	65,83
752,896	65,62
753,327	65,75
753,758	65,65
754,19	65,59
754,621	65,58
755,052	65,81
755,483	65,49
755,914	65,7
756,344	65,68
756,775	65,63
757,206	65,88
757,636	65,57
758,066	65,63
758,497	65,5
758,927	65,18
759,357	65,5
759,787	65,41
760,217	65,28
760,647	65,17
761,076	65,29
761,506	65,34
761,935	64,92
762,365	64,95
762,794	65,19
763,223	65,02
763,653	65,16
764,082	64,87
764,51	64,98
764,939	64,65
765,368	65,11
765,797	64,88
766,225	64,83
766,654	64,68
767,082	64,65
767,51	64,82
767,938	64,68
768,367	64,65
768,795	64,5
769,222	64,83
769,65	64,91
770,078	64,43
770,505	64,32
770,933	64,37
771,36	64,26
771,788	64,24
772,215	64,38
772,642	64,05
773,069	64,28
773,496	64,26
773,923	64,26
774,349	64,15
774,776	64,21
775,203	64,17
775,629	64,24
776,055	64,08
776,482	64,03
776,908	64,2
777,334	63,9
777,76	63,96
778,186	63,96
778,611	64,07
779,037	64,11
779,463	63,73
779,888	63,91
780,314	63,61
780,739	63,8
781,164	63,8
781,589	63,93
782,014	63,84
782,439	63,79
782,864	64,12
783,289	63,99
783,713	63,57
784,138	63,67
784,562	64,06
784,987	63,64
785,411	63,68
785,835	63,6
786,259	63,74
786,683	63,77
787,107	63,75
787,531	63,48
787,954	63,38
788,378	63,67
788,802	63,9
789,225	63,57
789,648	63,66
790,071	63,64
790,495	63,44
790,918	63,8
791,34	63,78
791,763	63,2
792,186	63,38
792,609	63,83
793,031	63,59
793,454	63,6
793,876	63,54
794,298	63,59
794,721	63,41
795,143	63,58
795,565	63,32
795,986	63,62
796,408	63,54
796,83	63,25
797,252	63,34
797,673	63,56
798,094	63,37
798,516	63,02
798,937	63,9
799,358	63,33
799,779	63,23
800,2	63,48
800,621	63,31
801,042	63,31
801,462	63,25
801,883	63,5
802,303	63,31
802,724	63,13
803,144	63,6
803,564	63,04
803,984	63,31
804,404	63,43
804,824	63,25
805,244	63,13
805,664	63,27
806,084	63,28
806,503	63,44
806,923	63,32
807,342	63,17
807,761	63,19
808,18	63,28
808,599	63,32
809,018	63,2
809,437	63,19
809,856	63,18
810,275	63,01
810,693	63,06
811,112	63,23
811,53	63,07
811,949	63,27
812,367	63,02
812,785	63,15
813,203	63,35
813,621	63,32
814,039	63,17
814,457	62,84
814,874	63,26
815,292	63,53
815,709	63,08
816,127	63,25
816,544	63,26
816,961	63,2
817,378	63,11
817,795	62,98
818,212	63,22
818,629	62,81
819,046	63,09
819,462	63,23
819,879	63,27
820,295	63,05
820,712	62,93
821,128	62,95
821,544	62,66
821,96	63,14
822,376	62,82
822,792	63,05
823,208	62,93
823,624	63,07
824,039	62,97
824,455	62,67
824,87	63,13
825,286	62,95
825,701	63,22
826,116	62,76
826,531	62,76
826,946	63,06
827,361	62,74
827,776	62,76
828,19	62,8
828,605	62,77
829,02	63,12
829,434	62,93
829,848	62,96
830,263	62,83
830,677	62,89
831,091	62,88
831,505	63,13
831,919	62,9
832,332	62,8
832,746	62,83
833,16	62,59
833,573	62,92
