Data from A2__Relative__1__17-47-57-793.txt Node

Date: Tue Jan 30 17:47:57 CET 2024
User: diatiterra
Spectrometer: HDX00911
Trigger mode: 0
Integration Time (sec): 6,000000E-3
Scans to average: 3
Nonlinearity correction enabled: true
Boxcar width: 0
Storing dark spectrum: false
XAxis mode: Wavelengths
Number of Pixels in Spectrum: 2068
>>>>>Begin Spectral Data<<<<<
194,468	66,87
195,025	60,95
195,581	65,53
196,138	60,86
196,694	69,46
197,251	57,51
197,807	61,77
198,363	59,12
198,919	58,7
199,474	65,39
200,03	63,73
200,586	59,99
201,141	55,66
201,696	59,58
202,251	62,32
202,806	62,72
203,361	57,29
203,916	58,02
204,471	57,11
205,025	63,35
205,58	61,01
206,134	67,51
206,688	57,82
207,242	60,1
207,796	64,83
208,35	58,31
208,904	58,41
209,457	60,14
210,011	65,4
210,564	57,61
211,117	65,16
211,67	71,94
212,223	61,58
212,776	62,6
213,329	63,95
213,881	61
214,434	51,58
214,986	66,59
215,538	56,9
216,09	55,98
216,642	60,08
217,194	60,07
217,746	59,2
218,297	58,16
218,849	61,59
219,4	60,89
219,951	61,36
220,502	61,65
221,053	61,27
221,604	55,67
222,155	65,09
222,705	64,24
223,256	59,87
223,806	59,19
224,356	62,76
224,906	55,62
225,456	59,11
226,006	58,66
226,556	57,99
227,106	61,75
227,655	54,67
228,204	58,7
228,754	60,25
229,303	56,44
229,852	63,7
230,401	62,29
230,949	61,77
231,498	53,63
232,047	60,24
232,595	59,75
233,143	61,02
233,691	57,64
234,239	61,53
234,787	59,09
235,335	55,29
235,883	58,63
236,43	61,07
236,978	58,33
237,525	58,93
238,072	58,57
238,619	57,61
239,166	62,36
239,713	59,22
240,26	61,88
240,806	55,09
241,353	58,42
241,899	60,54
242,445	61,52
242,991	55,84
243,537	63,64
244,083	58,61
244,629	57,37
245,174	58,01
245,72	55,22
246,265	65,13
246,81	62,04
247,355	59,82
247,9	59,96
248,445	62,25
248,99	60
249,534	60,72
250,079	57,49
250,623	57,11
251,168	61,36
251,712	54,13
252,256	51,23
252,8	58,07
253,343	59,16
253,887	56,91
254,43	61,12
254,974	56,86
255,517	59,74
256,06	61,46
256,603	58,42
257,146	59,48
257,689	62,71
258,232	61,26
258,774	58,8
259,317	57,41
259,859	58,98
260,401	66,23
260,943	61,87
261,485	58,59
262,027	56,67
262,569	58,65
263,11	58,93
263,652	63,75
264,193	63,06
264,734	59,06
265,275	67,33
265,816	59,96
266,357	57,08
266,898	65,37
267,438	56,73
267,979	65,09
268,519	61,02
269,059	59,3
269,6	59,34
270,14	60,83
270,68	60,92
271,219	60,6
271,759	60,75
272,298	56,8
272,838	63,4
273,377	57,26
273,916	56,72
274,455	53,54
274,994	64,03
275,533	54,22
276,072	60,75
276,61	56,08
277,149	54,56
277,687	57,42
278,225	58,75
278,763	59,33
279,301	61,38
279,839	63,41
280,377	60,3
280,914	56,57
281,452	63,71
281,989	56,35
282,526	53,97
283,064	59,79
283,601	56,59
284,137	59,78
284,674	56,54
285,211	59,51
285,747	62,53
286,284	59,14
286,82	55,33
287,356	58,66
287,892	62,1
288,428	52,42
288,964	60,79
289,5	60,18
290,035	68,17
290,571	57,23
291,106	63,5
291,641	61,09
292,176	61,12
292,711	54,43
293,246	58,72
293,781	61,75
294,315	56,75
294,85	64,3
295,384	60,34
295,918	58,22
296,453	61,05
296,987	55,46
297,52	58,28
298,054	54,82
298,588	65,98
299,121	58,83
299,655	61,16
300,188	61,35
300,721	54,62
301,254	61,27
301,787	60,38
302,32	64,25
302,853	55,67
303,385	60
303,918	61,97
304,45	58,96
304,982	60,24
305,514	63,6
306,046	55,37
306,578	58,19
307,11	55,85
307,641	62,45
308,173	59,92
308,704	63,75
309,236	61,26
309,767	64,26
310,298	55,53
310,829	62,34
311,359	59,33
311,89	58,43
312,421	53,36
312,951	57,27
313,481	66,07
314,012	56,84
314,542	52,96
315,072	57,79
315,601	55,1
316,131	60,77
316,661	58,86
317,19	53,6
317,72	55,92
318,249	60,13
318,778	58,84
319,307	52,91
319,836	55,71
320,365	60,99
320,893	58,68
321,422	59,13
321,95	56,47
322,479	54,45
323,007	54,06
323,535	53,53
324,063	62,51
324,591	57,28
325,118	55,69
325,646	54,05
326,173	55,99
326,701	60,35
327,228	54,23
327,755	60,89
328,282	56,62
328,809	57,24
329,336	54,76
329,862	56,52
330,389	58,07
330,915	49,89
331,441	56,02
331,968	63,75
332,494	55,55
333,02	55,7
333,545	54,21
334,071	55,78
334,597	50,31
335,122	59,96
335,648	55,2
336,173	57,91
336,698	55,02
337,223	54,91
337,748	56,02
338,272	51,69
338,797	58,94
339,322	57,31
339,846	56,26
340,37	51,35
340,894	56,84
341,419	55,53
341,942	57,41
342,466	52,08
342,99	54,07
343,514	54,8
344,037	51,47
344,56	53,85
345,084	48,58
345,607	55,95
346,13	52,68
346,653	52,2
347,175	54,35
347,698	57,66
348,221	48,77
348,743	50,95
349,265	57,62
349,787	51,85
350,309	56,23
350,831	58,71
351,353	50,38
351,875	52,47
352,397	49,03
352,918	55,77
353,439	57,58
353,961	52,61
354,482	51,44
355,003	51,44
355,524	51,05
356,044	53,82
356,565	53,22
357,086	52,04
357,606	52,44
358,126	56,84
358,646	48,82
359,167	52,02
359,687	52,62
360,206	51,95
360,726	56,63
361,246	56,23
361,765	47,06
362,285	51,26
362,804	51,3
363,323	54,57
363,842	51,16
364,361	51,7
364,88	49,41
365,398	49,95
365,917	49,06
366,435	48,95
366,954	56,93
367,472	50,56
367,99	56,27
368,508	51,36
369,026	49,75
369,544	54,54
370,061	49,59
370,579	52,47
371,096	52,2
371,613	53,13
372,131	55,37
372,648	50,54
373,165	50,36
373,681	51,11
374,198	54,7
374,715	50,14
375,231	50,66
375,747	50,53
376,264	47,34
376,78	52,45
377,296	51,28
377,812	51,28
378,327	47,17
378,843	48,44
379,359	48,87
379,874	53,74
380,389	50,72
380,905	49,48
381,42	49,83
381,935	49,5
382,449	47,43
382,964	47,33
383,479	47,95
383,993	48,09
384,508	46,62
385,022	44,99
385,536	46,55
386,05	46,87
386,564	47,77
387,078	44,64
387,592	44,19
388,105	41,7
388,619	43,12
389,132	41,25
389,645	43,38
390,158	40,05
390,671	40,37
391,184	41,15
391,697	39,57
392,21	41,13
392,722	40,93
393,235	39,83
393,747	40,4
394,259	39,04
394,771	39,72
395,283	38,32
395,795	41,43
396,307	38,76
396,818	37,78
397,33	36,24
397,841	36,06
398,353	36,28
398,864	36,88
399,375	35,78
399,886	35,06
400,397	35,35
400,907	33,86
401,418	34,98
401,928	34,6
402,439	32,84
402,949	32,3
403,459	31,3
403,969	33,89
404,479	30,31
404,989	29,18
405,498	29,17
406,008	28,93
406,517	27,67
407,027	28,3
407,536	27,58
408,045	26,12
408,554	24,25
409,063	23,26
409,572	23,61
410,08	22,84
410,589	22,48
411,097	21,66
411,606	20,47
412,114	20,23
412,622	19,61
413,13	20,15
413,638	19,03
414,145	18,42
414,653	18,65
415,16	17,31
415,668	17,46
416,175	17,41
416,682	16,58
417,189	16,25
417,696	15,78
418,203	15,42
418,71	15,52
419,216	15,49
419,723	15,3
420,229	14,5
420,735	14,69
421,242	14,94
421,748	14,38
422,254	13,92
422,759	14,17
423,265	14,08
423,771	13,66
424,276	13,84
424,781	12,92
425,287	13,27
425,792	13,56
426,297	13,98
426,802	13,21
427,306	13,21
427,811	13,45
428,316	13,53
428,82	13,12
429,324	12,9
429,829	13,09
430,333	12,71
430,837	12,75
431,34	12,98
431,844	12,51
432,348	12,55
432,851	12,61
433,355	12,64
433,858	12,94
434,361	13,07
434,864	12,7
435,367	12,43
435,87	12,49
436,373	12,14
436,876	12,41
437,378	12,36
437,88	12,53
438,383	12,19
438,885	12,45
439,387	12,39
439,889	12,25
440,391	12,45
440,892	12
441,394	12,17
441,896	12,14
442,397	12,49
442,898	12,25
443,399	12,18
443,9	12,52
444,401	12,4
444,902	12,15
445,403	12,31
445,903	12,31
446,404	12,33
446,904	12,24
447,405	12,14
447,905	12,58
448,405	12,7
448,905	12,52
449,404	12,44
449,904	12,53
450,404	12,64
450,903	12,43
451,403	12,46
451,902	12,51
452,401	12,49
452,9	13,04
453,399	12,76
453,898	12,82
454,396	12,8
454,895	12,82
455,393	12,95
455,892	12,92
456,39	12,79
456,888	12,65
457,386	12,98
457,884	12,91
458,382	13,11
458,879	12,76
459,377	13,04
459,874	12,95
460,372	13,05
460,869	12,96
461,366	13,23
461,863	12,89
462,36	12,93
462,857	13,02
463,353	13,33
463,85	12,97
464,346	13,23
464,843	13,23
465,339	13,02
465,835	12,98
466,331	13,19
466,827	13,15
467,323	13,03
467,818	13,16
468,314	12,93
468,809	13,08
469,305	13
469,8	13,04
470,295	13,15
470,79	13,16
471,285	13,06
471,78	13,14
472,274	13,42
472,769	13,18
473,263	13,21
473,758	13,18
474,252	13,18
474,746	13,23
475,24	13,18
475,734	12,91
476,228	13,24
476,721	13,38
477,215	13,34
477,708	13,2
478,202	13,61
478,695	13,27
479,188	13,41
479,681	13,58
480,174	13,2
480,667	13,5
481,159	13,64
481,652	13,42
482,144	13,42
482,637	13,44
483,129	13,52
483,621	13,8
484,113	13,5
484,605	13,52
485,097	13,62
485,588	13,76
486,08	13,77
486,571	13,75
487,063	13,53
487,554	13,67
488,045	13,93
488,536	13,76
489,027	13,67
489,518	13,94
490,008	14
490,499	14,09
490,989	14,08
491,48	13,97
491,97	14,08
492,46	14,06
492,95	14,26
493,44	14,33
493,93	14,31
494,419	14,35
494,909	14,2
495,398	14,63
495,888	14,46
496,377	14,7
496,866	14,78
497,355	14,92
497,844	14,91
498,333	15
498,821	15,19
499,31	15,47
499,798	15,25
500,287	15,43
500,775	15,72
501,263	15,9
501,751	16,22
502,239	15,88
502,727	16,43
503,215	16,66
503,702	16,63
504,19	16,78
504,677	17,03
505,164	17,17
505,651	17,44
506,139	17,53
506,625	17,74
507,112	18,22
507,599	18,27
508,086	18,5
508,572	18,64
509,058	19,24
509,545	19,02
510,031	19,3
510,517	19,5
511,003	19,96
511,489	20,5
511,974	20,55
512,46	20,7
512,946	20,94
513,431	21,69
513,916	21,75
514,401	22,32
514,887	22,71
515,371	23,09
515,856	23,43
516,341	23,99
516,826	24,28
517,31	24,58
517,795	24,92
518,279	25,71
518,763	26,1
519,247	26,2
519,731	26,9
520,215	27,5
520,699	27,55
521,182	27,72
521,666	28,7
522,149	29,32
522,633	29,48
523,116	29,76
523,599	30,55
524,082	30,73
524,565	31,17
525,048	31,73
525,53	32,12
526,013	32,65
526,495	32,96
526,978	33,42
527,46	33,37
527,942	33,81
528,424	34,32
528,906	34,41
529,388	34,95
529,87	35,05
530,351	35,58
530,833	35,69
531,314	35,79
531,795	36,02
532,277	36,24
532,758	36,91
533,238	37,02
533,719	37,2
534,2	36,75
534,681	37,2
535,161	37,71
535,642	37,58
536,122	37,4
536,602	37,89
537,082	38,1
537,562	37,88
538,042	38,26
538,522	37,89
539,001	38,07
539,481	38,64
539,96	38,57
540,44	38,24
540,919	38,56
541,398	38,89
541,877	38,7
542,356	39,03
542,835	38,95
543,313	39,05
543,792	39,24
544,27	39,31
544,749	38,98
545,227	39,28
545,705	39,67
546,183	39,31
546,661	39,58
547,139	39,4
547,616	39,62
548,094	39,73
548,571	39,96
549,049	39,33
549,526	39,73
550,003	39,76
550,48	39,93
550,957	40,19
551,434	39,51
551,911	39,99
552,387	39,8
552,864	39,69
553,34	40,09
553,817	40,14
554,293	40,15
554,769	40,35
555,245	39,72
555,721	39,8
556,197	40,06
556,672	39,95
557,148	40,14
557,623	39,88
558,099	39,65
558,574	39,57
559,049	39,66
559,524	39,71
559,999	39,71
560,474	39,49
560,948	38,84
561,423	39,49
561,897	38,78
562,372	38,68
562,846	38,7
563,32	38,82
563,794	38,69
564,268	38,6
564,742	38,3
565,216	38,1
565,69	38,04
566,163	37,65
566,636	37,04
567,11	37,47
567,583	36,79
568,056	37,07
568,529	36,73
569,002	36,29
569,475	35,95
569,947	35,68
570,42	35,67
570,892	35,43
571,365	34,94
571,837	34,96
572,309	34,65
572,781	34,39
573,253	34,05
573,725	33,73
574,197	33,43
574,668	33,46
575,14	33,02
575,611	32,75
576,082	32,76
576,554	32,42
577,025	32,54
577,496	32,18
577,967	31,9
578,437	31,79
578,908	31,43
579,379	31,18
579,849	31,22
580,319	31,21
580,79	30,71
581,26	30,5
581,73	30,44
582,2	30,27
582,669	29,93
583,139	30,07
583,609	29,66
584,078	29,88
584,548	29,52
585,017	29,31
585,486	29,42
585,955	28,98
586,424	29,03
586,893	28,76
587,362	28,77
587,83	28,52
588,299	28,41
588,767	28,49
589,236	28,24
589,704	28,41
590,172	28,14
590,64	28,05
591,108	28,06
591,576	27,8
592,043	27,87
592,511	27,58
592,978	27,41
593,446	27,51
593,913	27,19
594,38	27,25
594,847	27,43
595,314	27,31
595,781	27,17
596,248	26,98
596,715	26,98
597,181	26,95
597,647	26,83
598,114	26,97
598,58	26,68
599,046	26,7
599,512	26,6
599,978	26,7
600,444	26,59
600,91	26,29
601,375	26,32
601,841	26,33
602,306	26,32
602,771	26,43
603,236	26,3
603,702	26,22
604,167	25,96
604,631	25,88
605,096	25,99
605,561	25,83
606,025	25,39
606,49	25,54
606,954	25,78
607,418	25,37
607,882	25,42
608,347	25,25
608,81	25,05
609,274	24,93
609,738	24,85
610,202	24,76
610,665	24,64
611,128	24,6
611,592	24,37
612,055	24,09
612,518	24,24
612,981	23,99
613,444	23,98
613,907	23,87
614,369	23,72
614,832	23,79
615,294	23,44
615,757	23,36
616,219	23,19
616,681	23,1
617,143	23,06
617,605	22,77
618,067	22,76
618,529	22,54
618,99	22,45
619,452	22,55
619,913	22,45
620,375	22,19
620,836	22,1
621,297	22,14
621,758	22,05
622,219	21,94
622,68	21,97
623,14	21,78
623,601	21,88
624,061	21,74
624,522	21,57
624,982	21,73
625,442	21,68
625,902	21,56
626,362	21,51
626,822	21,76
627,282	21,58
627,742	21,44
628,201	21,32
628,661	21,31
629,12	21,33
629,579	21,25
630,038	21,3
630,497	21,38
630,956	21,24
631,415	21,13
631,874	21,2
632,332	21,06
632,791	21,06
633,249	20,9
633,708	20,86
634,166	20,83
634,624	20,68
635,082	20,52
635,54	20,65
635,998	20,34
636,455	20,26
636,913	20,15
637,37	20,13
637,828	19,95
638,285	19,82
638,742	19,7
639,199	19,34
639,656	19,29
640,113	19,14
640,57	19,19
641,027	18,85
641,483	18,67
641,94	18,56
642,396	18,45
642,852	18,21
643,309	18,09
643,765	17,95
644,221	17,78
644,676	17,66
645,132	17,46
645,588	17,39
646,043	17,2
646,499	17,02
646,954	17
647,409	16,92
647,864	16,57
648,319	16,59
648,774	16,27
649,229	16,32
649,684	16,32
650,139	16,05
650,593	16,08
651,047	15,92
651,502	15,79
651,956	15,84
652,41	15,74
652,864	15,75
653,318	15,64
653,772	15,59
654,225	15,62
654,679	15,63
655,133	15,33
655,586	15,44
656,039	15,34
656,492	15,29
656,946	15,06
657,399	15,13
657,851	14,98
658,304	14,98
658,757	14,75
659,209	14,62
659,662	14,7
660,114	14,51
660,567	14,46
661,019	14,46
661,471	14,28
661,923	14,26
662,375	14,22
662,826	14,14
663,278	14,04
663,73	14,1
664,181	13,9
664,632	13,91
665,084	13,75
665,535	13,62
665,986	13,72
666,437	13,81
666,888	13,62
667,338	13,69
667,789	13,68
668,24	13,6
668,69	13,66
669,14	13,7
669,591	13,63
670,041	13,71
670,491	13,78
670,941	13,7
671,391	13,79
671,84	13,84
672,29	13,85
672,74	13,97
673,189	13,78
673,638	14,03
674,088	14,17
674,537	14,26
674,986	14,22
675,435	14,34
675,883	14,43
676,332	14,48
676,781	14,6
677,229	14,7
677,678	14,79
678,126	15
678,574	15,15
679,022	15,19
679,47	15,37
679,918	15,56
680,366	15,57
680,814	15,6
681,261	15,79
681,709	15,96
682,156	16,17
682,604	16,26
683,051	16,35
683,498	16,52
683,945	16,72
684,392	16,66
684,839	16,99
685,286	17,14
685,732	17,18
686,179	17,41
686,625	17,61
687,071	17,79
687,518	18,12
687,964	18,26
688,41	18,44
688,856	18,78
689,301	19,22
689,747	19,5
690,193	19,83
690,638	20,3
691,084	20,99
691,529	21,23
691,974	21,9
692,419	22,42
692,864	23,06
693,309	23,59
693,754	24,39
694,199	25,03
694,643	25,64
695,088	26,39
695,532	27,27
695,977	27,86
696,421	28,65
696,865	29,34
697,309	30,23
697,753	31,01
698,197	31,62
698,64	32,65
699,084	33,26
699,527	33,9
699,971	34,77
700,414	35,59
700,857	36,16
701,3	37,11
701,743	37,7
702,186	38,7
702,629	39,35
703,072	39,87
703,515	40,84
703,957	41,11
704,399	41,97
704,842	42,65
705,284	43,31
705,726	43,95
706,168	44,94
706,61	45,33
707,052	45,85
707,494	46,41
707,935	47,13
708,377	47,79
708,818	48,26
709,26	48,88
709,701	49,4
710,142	49,81
710,583	50,68
711,024	51,25
711,465	51,88
711,905	52,09
712,346	52,57
712,787	52,98
713,227	53,93
713,667	54,38
714,108	54,92
714,548	55,38
714,988	55,79
715,428	56,14
715,868	56,75
716,307	56,98
716,747	57,74
717,186	58,13
717,626	58,47
718,065	58,88
718,504	59,2
718,944	59,71
719,383	60,22
719,822	60,44
720,261	60,83
720,699	61,31
721,138	61,56
721,576	62,25
722,015	62,49
722,453	62,84
722,892	63,35
723,33	63,55
723,768	63,66
724,206	64,48
724,644	64,19
725,081	64,74
725,519	64,99
725,957	65,21
726,394	65,39
726,832	65,51
727,269	66,03
727,706	66,13
728,143	66,59
728,58	66,65
729,017	66,86
729,454	67,3
729,89	67,45
730,327	67,31
730,764	67,81
731,2	67,64
731,636	67,92
732,072	68,24
732,509	68,21
732,945	68,46
733,38	68,64
733,816	68,62
734,252	68,43
734,688	68,72
735,123	68,94
735,559	69,39
735,994	69,17
736,429	68,99
736,864	69,55
737,299	69,16
737,734	69,53
738,169	69,57
738,604	69,65
739,038	69,65
739,473	69,45
739,907	69,98
740,342	69,77
740,776	69,79
741,21	70,03
741,644	70,07
742,078	70,36
742,512	70
742,946	70,05
743,379	70,05
743,813	70,06
744,246	70,03
744,68	70,34
745,113	70,15
745,546	70,01
745,979	69,93
746,412	70,09
746,845	69,92
747,278	70,13
747,711	70,09
748,143	70,01
748,576	69,67
749,008	69,97
749,441	70,04
749,873	69,83
750,305	69,94
750,737	69,69
751,169	69,56
751,601	69,76
752,032	69,71
752,464	69,69
752,896	69,7
753,327	69,32
753,758	69,6
754,19	69,32
754,621	69,68
755,052	69,44
755,483	69,07
755,914	69,17
756,344	69,24
756,775	69,51
757,206	69,49
757,636	69,14
758,066	69,01
758,497	69,2
758,927	68,94
759,357	69,06
759,787	69,09
760,217	68,93
760,647	68,61
761,076	68,86
761,506	68,84
761,935	68,81
762,365	68,73
762,794	68,68
763,223	68,61
763,653	68,75
764,082	68,77
764,51	68,84
764,939	68,39
765,368	68,55
765,797	68,47
766,225	68,3
766,654	68,15
767,082	68,08
767,51	68,38
767,938	68,37
768,367	68,24
768,795	67,96
769,222	68,01
769,65	68,14
770,078	68,1
770,505	67,91
770,933	68,19
771,36	68,22
771,788	68,12
772,215	68,12
772,642	67,77
773,069	67,91
773,496	67,78
773,923	67,7
774,349	67,65
774,776	67,65
775,203	67,54
775,629	67,84
776,055	67,52
776,482	67,66
776,908	67,48
777,334	67,51
777,76	67,71
778,186	67,49
778,611	67,53
779,037	67,31
779,463	67,45
779,888	67,4
780,314	67,02
780,739	67,47
781,164	67,44
781,589	67,1
782,014	67,36
782,439	67,43
782,864	67,39
783,289	67,45
783,713	67,22
784,138	67,08
784,562	67,14
784,987	67,01
785,411	67,3
785,835	67,02
786,259	67,26
786,683	67,33
787,107	67,13
787,531	66,86
787,954	66,73
788,378	67,2
788,802	67,08
789,225	67,02
789,648	66,99
790,071	67,08
790,495	66,77
790,918	67,03
791,34	66,71
791,763	66,91
792,186	66,89
792,609	67,13
793,031	67,02
793,454	66,88
793,876	67,01
794,298	66,43
794,721	66,79
795,143	66,95
795,565	66,65
795,986	66,81
796,408	66,77
796,83	66,83
797,252	66,76
797,673	66,88
798,094	66,75
798,516	66,61
798,937	66,74
799,358	66,88
799,779	66,65
800,2	66,92
800,621	66,8
801,042	66,66
801,462	66,84
801,883	66,85
802,303	66,44
802,724	66,51
803,144	66,92
803,564	66,21
803,984	66,81
804,404	66,82
804,824	66,78
805,244	66,43
805,664	66,61
806,084	66,53
806,503	66,76
806,923	66,65
807,342	66,78
807,761	66,36
808,18	66,42
808,599	66,64
809,018	66,45
809,437	66,56
809,856	66,17
810,275	66,2
810,693	66,4
811,112	66,12
811,53	66,61
811,949	66,87
812,367	66,59
812,785	66,58
813,203	66,64
813,621	66,43
814,039	66,82
814,457	66,06
814,874	66,54
815,292	66,57
815,709	66,08
816,127	66,39
816,544	66,57
816,961	66,15
817,378	66,44
817,795	66,49
818,212	66,35
818,629	66,41
819,046	66,35
819,462	66,25
819,879	66,51
820,295	66,15
820,712	66,14
821,128	66,59
821,544	66,09
821,96	66,32
822,376	66,43
822,792	66,48
823,208	65,98
823,624	66,24
824,039	66,03
824,455	66,03
824,87	66,54
825,286	65,89
825,701	66,22
826,116	66,18
826,531	66,31
826,946	65,95
827,361	66,24
827,776	66,18
828,19	65,92
828,605	66,46
829,02	66,18
829,434	66,15
829,848	66,3
830,263	66,25
830,677	66,01
831,091	66,2
831,505	65,93
831,919	65,91
832,332	65,75
832,746	66
833,16	66,05
833,573	66,05
