Data from A6__Relative__4__17-48-55-073.txt Node

Date: Tue Jan 30 17:48:55 CET 2024
User: diatiterra
Spectrometer: HDX00911
Trigger mode: 0
Integration Time (sec): 6,000000E-3
Scans to average: 3
Nonlinearity correction enabled: true
Boxcar width: 0
Storing dark spectrum: false
XAxis mode: Wavelengths
Number of Pixels in Spectrum: 2068
>>>>>Begin Spectral Data<<<<<
194,468	61,97
195,025	59,98
195,581	64,15
196,138	53,14
196,694	61,94
197,251	52,28
197,807	59,88
198,363	57,02
198,919	58,92
199,474	60,61
200,03	57,86
200,586	56,16
201,141	57,08
201,696	53,99
202,251	52,95
202,806	52,54
203,361	51,8
203,916	49,39
204,471	63,3
205,025	54,44
205,58	53,33
206,134	54,43
206,688	52,8
207,242	50,67
207,796	59,75
208,35	53,3
208,904	58,21
209,457	59,76
210,011	55,27
210,564	51,08
211,117	62,29
211,67	58,34
212,223	55,48
212,776	58,19
213,329	51,93
213,881	54,92
214,434	54,17
214,986	55,67
215,538	57,92
216,09	55,98
216,642	52,05
217,194	53,49
217,746	55,02
218,297	53,97
218,849	62,23
219,4	56,02
219,951	61,77
220,502	56,91
221,053	55,89
221,604	53,91
222,155	56,87
222,705	56,55
223,256	56
223,806	57,79
224,356	61,5
224,906	57,32
225,456	54,15
226,006	53,99
226,556	53,31
227,106	63,04
227,655	59,45
228,204	57,23
228,754	59,62
229,303	53,42
229,852	61,74
230,401	57,5
230,949	53,51
231,498	50,18
232,047	50,81
232,595	54,82
233,143	55,09
233,691	56,25
234,239	58,77
234,787	55,41
235,335	56,13
235,883	56,42
236,43	62,11
236,978	53,65
237,525	56,26
238,072	53,76
238,619	56,09
239,166	54,84
239,713	52,73
240,26	56,1
240,806	51,01
241,353	54,41
241,899	58,59
242,445	59,83
242,991	53,38
243,537	55,18
244,083	55,37
244,629	57,97
245,174	52,32
245,72	55,22
246,265	58,15
246,81	55,63
247,355	53,99
247,9	55,14
248,445	57,21
248,99	61,96
249,534	58,48
250,079	57,71
250,623	57,71
251,168	56,61
251,712	58,8
252,256	44,62
252,8	57,87
253,343	52,63
253,887	54,14
254,43	57,19
254,974	48,9
255,517	57,28
256,06	62,14
256,603	58,21
257,146	56,86
257,689	50,58
258,232	53,9
258,774	55,15
259,317	53,23
259,859	54,12
260,401	63,99
260,943	62,29
261,485	55,73
262,027	56,45
262,569	60,08
263,11	57,08
263,652	55,67
264,193	55,76
264,734	57,57
265,275	55,85
265,816	54,07
266,357	57,29
266,898	53,03
267,438	54,49
267,979	63,73
268,519	62,56
269,059	54,92
269,6	56
270,14	55,59
270,68	54,04
271,219	57,87
271,759	56,36
272,298	51,83
272,838	56,21
273,377	53,42
273,916	51,05
274,455	57,91
274,994	57,84
275,533	57,56
276,072	57,02
276,61	59,24
277,149	56,26
277,687	60,26
278,225	56,25
278,763	55,96
279,301	55,15
279,839	56,59
280,377	53,15
280,914	57,2
281,452	57,31
281,989	62,46
282,526	54,37
283,064	54,84
283,601	53,35
284,137	56,67
284,674	54,64
285,211	59,28
285,747	59,53
286,284	57,54
286,82	56
287,356	56,37
287,892	62,1
288,428	51,1
288,964	54,77
289,5	52,38
290,035	54,94
290,571	53,19
291,106	59,44
291,641	55,44
292,176	53,64
292,711	51,83
293,246	58,08
293,781	54,37
294,315	50
294,85	62
295,384	55,65
295,918	56,74
296,453	55,36
296,987	58,67
297,52	54,53
298,054	46,05
298,588	56,58
299,121	53,17
299,655	53,65
300,188	53,06
300,721	50,66
301,254	57,12
301,787	53,6
302,32	58,84
302,853	50,75
303,385	48
303,918	54,56
304,45	47,08
304,982	54,78
305,514	56,63
306,046	48,63
306,578	49,35
307,11	54,53
307,641	59,29
308,173	54,49
308,704	54,28
309,236	51,98
309,767	54,26
310,298	50,54
310,829	55,61
311,359	52,28
311,89	47,64
312,421	55,25
312,951	47,58
313,481	56,2
314,012	49,05
314,542	50,99
315,072	53,73
315,601	51,27
316,131	57,86
316,661	51,86
317,19	54,8
317,72	48,23
318,249	49,04
318,778	59,27
319,307	47,76
319,836	50,34
320,365	54,45
320,893	53,41
321,422	51,3
321,95	49,68
322,479	59,56
323,007	47
323,535	47,75
324,063	47,77
324,591	53,64
325,118	44,32
325,646	51,42
326,173	50,34
326,701	52,73
327,228	50,67
327,755	53,88
328,282	52,99
328,809	50,88
329,336	55,66
329,862	46,52
330,389	53
330,915	54,11
331,441	48,84
331,968	49,68
332,494	50,3
333,02	49,89
333,545	51,19
334,071	55,78
334,597	51,56
335,122	51,86
335,648	46,66
336,173	52,91
336,698	50,3
337,223	52,66
337,748	49,79
338,272	49,99
338,797	47,68
339,322	49,24
339,846	48,87
340,37	47,31
340,894	47,01
341,419	50,94
341,942	44,32
342,466	47,89
342,99	49,21
343,514	47,85
344,037	51,1
344,56	55,63
345,084	45,78
345,607	49,48
346,13	46,35
346,653	42,57
347,175	45,42
347,698	51,22
348,221	36,76
348,743	45,11
349,265	44,18
349,787	50,25
350,309	49,62
350,831	47,37
351,353	39,31
351,875	40,47
352,397	46,87
352,918	47,07
353,439	45,13
353,961	40,69
354,482	38,03
355,003	38,04
355,524	39,66
356,044	38,4
356,565	41,82
357,086	42,03
357,606	38,85
358,126	39,26
358,646	39,51
359,167	40,82
359,687	39,71
360,206	37,81
360,726	41,65
361,246	40,44
361,765	39,9
362,285	39,96
362,804	42,14
363,323	38,37
363,842	40,07
364,361	36,72
364,88	39,22
365,398	39,33
365,917	35,98
366,435	38,44
366,954	37,59
367,472	36,49
367,99	36,62
368,508	35,31
369,026	36,79
369,544	36,27
370,061	34,99
370,579	32,4
371,096	36,26
371,613	40,12
372,131	37,34
372,648	34,68
373,165	31,02
373,681	32,43
374,198	35,19
374,715	34,41
375,231	34,53
375,747	36,81
376,264	33,18
376,78	33,42
377,296	31,77
377,812	33,67
378,327	30,5
378,843	30,6
379,359	32,27
379,874	31,75
380,389	30,91
380,905	30,58
381,42	30,68
381,935	33,19
382,449	29,8
382,964	29,11
383,479	29,47
383,993	29,32
384,508	28,08
385,022	26,87
385,536	30,21
386,05	28,27
386,564	29,92
387,078	27,55
387,592	26,99
388,105	26,56
388,619	27,28
389,132	24,42
389,645	24,04
390,158	25,17
390,671	22,46
391,184	24,27
391,697	23,29
392,21	23,54
392,722	24,16
393,235	24,14
393,747	23,46
394,259	25,37
394,771	24,3
395,283	23,67
395,795	24,45
396,307	24,12
396,818	22,02
397,33	22,59
397,841	20,88
398,353	21,44
398,864	20,57
399,375	22,37
399,886	21,92
400,397	20,32
400,907	19,13
401,418	19,92
401,928	19,99
402,439	18,31
402,949	19,54
403,459	18,48
403,969	18,33
404,479	16,97
404,989	16,73
405,498	16,04
406,008	16,84
406,517	15,29
407,027	16,27
407,536	14,42
408,045	13,87
408,554	13,58
409,063	13,75
409,572	12,36
410,08	13,48
410,589	12,55
411,097	12,72
411,606	11,72
412,114	11,45
412,622	10,88
413,13	10,82
413,638	11,16
414,145	10,58
414,653	9,51
415,16	9,37
415,668	9,77
416,175	9,09
416,682	8,91
417,189	8,99
417,696	8,35
418,203	8,64
418,71	8,57
419,216	8,33
419,723	8,05
420,229	7,75
420,735	7,63
421,242	8,12
421,748	8,25
422,254	7,88
422,759	7,76
423,265	7,42
423,771	7,29
424,276	7,36
424,781	7
425,287	7,05
425,792	7,06
426,297	7,44
426,802	7,27
427,306	7,26
427,811	7,19
428,316	6,98
428,82	6,86
429,324	7,13
429,829	6,6
430,333	6,67
430,837	6,6
431,34	6,49
431,844	6,81
432,348	6,96
432,851	6,38
433,355	6,89
433,858	6,15
434,361	6,91
434,864	6,4
435,367	6,5
435,87	6,54
436,373	6,49
436,876	6,28
437,378	6,44
437,88	6,34
438,383	6,42
438,885	6,43
439,387	6,56
439,889	6,67
440,391	6,36
440,892	6,35
441,394	6,5
441,896	6,52
442,397	6,7
442,898	6,49
443,399	6,25
443,9	6,44
444,401	6,3
444,902	6,43
445,403	6,54
445,903	6,55
446,404	6,27
446,904	6,51
447,405	6,38
447,905	6,29
448,405	6,83
448,905	6,53
449,404	6,36
449,904	6,37
450,404	6,68
450,903	6,35
451,403	6,73
451,902	6,43
452,401	6,36
452,9	6,56
453,399	6,58
453,898	6,62
454,396	6,66
454,895	6,52
455,393	6,55
455,892	6,61
456,39	6,57
456,888	6,4
457,386	6,43
457,884	6,5
458,382	6,56
458,879	6,37
459,377	6,77
459,874	6,42
460,372	6,77
460,869	6,35
461,366	6,39
461,863	6,6
462,36	6,54
462,857	6,76
463,353	6,72
463,85	6,5
464,346	6,76
464,843	6,4
465,339	6,78
465,835	6,62
466,331	6,62
466,827	6,51
467,323	6,72
467,818	6,59
468,314	6,65
468,809	6,42
469,305	6,38
469,8	6,68
470,295	6,65
470,79	6,54
471,285	6,27
471,78	6,84
472,274	6,59
472,769	6,57
473,263	6,67
473,758	6,41
474,252	6,47
474,746	6,66
475,24	6,48
475,734	6,64
476,228	6,75
476,721	6,69
477,215	6,89
477,708	6,66
478,202	6,55
478,695	6,68
479,188	6,59
479,681	6,74
480,174	6,64
480,667	6,72
481,159	6,86
481,652	6,5
482,144	6,56
482,637	6,73
483,129	6,64
483,621	6,89
484,113	6,81
484,605	6,63
485,097	6,85
485,588	6,73
486,08	6,82
486,571	6,8
487,063	6,91
487,554	6,76
488,045	6,88
488,536	7,01
489,027	6,73
489,518	6,8
490,008	6,81
490,499	6,92
490,989	7,01
491,48	7,07
491,97	7,1
492,46	6,89
492,95	7,3
493,44	7,11
493,93	7,06
494,419	7,15
494,909	7,05
495,398	7,3
495,888	7,22
496,377	7,34
496,866	7,29
497,355	7,33
497,844	7,55
498,333	7,47
498,821	7,54
499,31	7,63
499,798	7,35
500,287	7,66
500,775	7,73
501,263	7,85
501,751	7,99
502,239	7,95
502,727	8,23
503,215	8,39
503,702	8,14
504,19	8,29
504,677	8,42
505,164	8,55
505,651	8,69
506,139	8,74
506,625	9
507,112	9,03
507,599	9,22
508,086	9,45
508,572	9,67
509,058	9,63
509,545	9,66
510,031	10,04
510,517	10,1
511,003	10,4
511,489	10,57
511,974	10,83
512,46	10,98
512,946	11,19
513,431	11,64
513,916	11,8
514,401	11,94
514,887	12,28
515,371	12,38
515,856	12,71
516,341	13,06
516,826	13,39
517,31	13,64
517,795	13,77
518,279	14,45
518,763	14,56
519,247	15,02
519,731	15,34
520,215	15,79
520,699	16,08
521,182	16,43
521,666	16,7
522,149	17
522,633	17,59
523,116	17,8
523,599	17,79
524,082	18,46
524,565	18,82
525,048	19,04
525,53	19,49
526,013	19,53
526,495	20,2
526,978	20,21
527,46	20,74
527,942	20,79
528,424	21,45
528,906	21,45
529,388	21,92
529,87	22,16
530,351	22,07
530,833	22,27
531,314	22,65
531,795	22,76
532,277	23,12
532,758	23,4
533,238	23,29
533,719	23,72
534,2	23,59
534,681	23,98
535,161	24,12
535,642	24,14
536,122	24,36
536,602	24,54
537,082	24,71
537,562	24,83
538,042	24,98
538,522	24,68
539,001	24,98
539,481	25,27
539,96	25,42
540,44	25,33
540,919	25,18
541,398	25,58
541,877	25,34
542,356	25,67
542,835	25,42
543,313	25,88
543,792	25,75
544,27	25,62
544,749	26,15
545,227	25,99
545,705	26,15
546,183	26,14
546,661	26,27
547,139	26,26
547,616	26,19
548,094	26,19
548,571	26,43
549,049	26,31
549,526	26,69
550,003	26,61
550,48	26,54
550,957	26,37
551,434	26,5
551,911	26,57
552,387	26,65
552,864	26,75
553,34	26,65
553,817	26,75
554,293	26,65
554,769	27,13
555,245	26,43
555,721	26,44
556,197	26,45
556,672	26,4
557,148	26,48
557,623	26,43
558,099	26,62
558,574	26,23
559,049	26,44
559,524	26,05
559,999	26,38
560,474	25,7
560,948	25,98
561,423	25,7
561,897	25,71
562,372	25,56
562,846	25,5
563,32	25,6
563,794	25,3
564,268	25
564,742	25,15
565,216	24,94
565,69	24,55
566,163	24,4
566,636	24,03
567,11	24,26
567,583	23,76
568,056	23,83
568,529	23,3
569,002	23,27
569,475	22,92
569,947	22,64
570,42	22,81
570,892	22,27
571,365	22,41
571,837	21,92
572,309	21,51
572,781	21,51
573,253	21,13
573,725	20,93
574,197	20,77
574,668	20,8
575,14	20,61
575,611	20,32
576,082	19,91
576,554	19,99
577,025	19,97
577,496	19,51
577,967	19,36
578,437	19,34
578,908	19,29
579,379	18,86
579,849	18,96
580,319	18,68
580,79	18,56
581,26	18,57
581,73	18,37
582,2	18,09
582,669	17,98
583,139	17,93
583,609	17,73
584,078	17,58
584,548	17,56
585,017	17,54
585,486	17,33
585,955	17,12
586,424	17,26
586,893	17,22
587,362	16,83
587,83	16,62
588,299	16,95
588,767	16,63
589,236	16,6
589,704	16,52
590,172	16,61
590,64	16,5
591,108	16,23
591,576	16,39
592,043	16,28
592,511	16,16
592,978	15,97
593,446	16,02
593,913	15,86
594,38	15,91
594,847	15,88
595,314	15,91
595,781	15,72
596,248	15,73
596,715	15,71
597,181	15,83
597,647	15,78
598,114	15,58
598,58	15,57
599,046	15,6
599,512	15,71
599,978	15,49
600,444	15,53
600,91	15,37
601,375	15,42
601,841	15,22
602,306	15,33
602,771	15,24
603,236	15,31
603,702	15,27
604,167	14,94
604,631	14,76
605,096	14,73
605,561	14,7
606,025	14,76
606,49	14,72
606,954	14,52
607,418	14,52
607,882	14,39
608,347	14,34
608,81	14,35
609,274	14,06
609,738	14
610,202	14,07
610,665	13,77
611,128	13,71
611,592	13,66
612,055	13,66
612,518	13,43
612,981	13,32
613,444	13,33
613,907	13,14
614,369	13,07
614,832	13,14
615,294	12,77
615,757	12,8
616,219	12,7
616,681	12,64
617,143	12,56
617,605	12,4
618,067	12,43
618,529	12,32
618,99	12,11
619,452	12,14
619,913	12,23
620,375	12,1
620,836	12,16
621,297	12
621,758	11,82
622,219	11,8
622,68	11,93
623,14	11,82
623,601	11,84
624,061	11,68
624,522	11,71
624,982	11,75
625,442	11,49
625,902	11,66
626,362	11,67
626,822	11,63
627,282	11,6
627,742	11,61
628,201	11,52
628,661	11,46
629,12	11,63
629,579	11,49
630,038	11,64
630,497	11,44
630,956	11,43
631,415	11,4
631,874	11,51
632,332	11,5
632,791	11,26
633,249	11,26
633,708	11,36
634,166	11,16
634,624	11,22
635,082	11,08
635,54	11,07
635,998	11,12
636,455	10,96
636,913	10,88
637,37	10,74
637,828	10,77
638,285	10,67
638,742	10,65
639,199	10,41
639,656	10,32
640,113	10,35
640,57	10,24
641,027	10,17
641,483	9,97
641,94	9,93
642,396	9,87
642,852	9,78
643,309	9,72
643,765	9,51
644,221	9,4
644,676	9,33
645,132	9,26
645,588	9,18
646,043	9,04
646,499	8,98
646,954	8,87
647,409	8,93
647,864	8,67
648,319	8,59
648,774	8,58
649,229	8,49
649,684	8,4
650,139	8,37
650,593	8,26
651,047	8,23
651,502	8,24
651,956	8,22
652,41	8,17
652,864	8,05
653,318	8,07
653,772	7,93
654,225	8,03
654,679	7,93
655,133	7,92
655,586	7,9
656,039	7,89
656,492	7,86
656,946	7,8
657,399	7,73
657,851	7,62
658,304	7,58
658,757	7,57
659,209	7,47
659,662	7,31
660,114	7,38
660,567	7,44
661,019	7,24
661,471	7,32
661,923	7,22
662,375	7,32
662,826	7,13
663,278	7,26
663,73	7,12
664,181	7,1
664,632	7,01
665,084	7,06
665,535	7,03
665,986	7,07
666,437	7,04
666,888	6,97
667,338	6,96
667,789	6,99
668,24	6,96
668,69	7,05
669,14	7,06
669,591	7,08
670,041	7,11
670,491	7,12
670,941	7,17
671,391	7,22
671,84	7,16
672,29	7,19
672,74	7,41
673,189	7,36
673,638	7,44
674,088	7,47
674,537	7,52
674,986	7,66
675,435	7,67
675,883	7,75
676,332	7,75
676,781	7,92
677,229	7,93
677,678	8,13
678,126	8,13
678,574	8,16
679,022	8,32
679,47	8,36
679,918	8,52
680,366	8,43
680,814	8,69
681,261	8,76
681,709	8,85
682,156	8,83
682,604	9,03
683,051	9,04
683,498	9,13
683,945	9,21
684,392	9,31
684,839	9,33
685,286	9,32
685,732	9,47
686,179	9,61
686,625	9,62
687,071	9,73
687,518	9,88
687,964	9,97
688,41	10,12
688,856	10,34
689,301	10,36
689,747	10,62
690,193	11,02
690,638	11,11
691,084	11,38
691,529	11,76
691,974	12,06
692,419	12,57
692,864	12,84
693,309	13,49
693,754	13,87
694,199	14,32
694,643	14,95
695,088	15,45
695,532	16
695,977	16,82
696,421	17,46
696,865	18,02
697,309	18,8
697,753	19,29
698,197	20,02
698,64	20,68
699,084	21,35
699,527	22
699,971	22,87
700,414	23,55
700,857	24,32
701,3	25,06
701,743	25,48
702,186	26,58
702,629	27,17
703,072	27,89
703,515	28,82
703,957	29,13
704,399	29,89
704,842	30,85
705,284	31,17
705,726	32,18
706,168	32,85
706,61	33,43
707,052	34,06
707,494	34,6
707,935	35,49
708,377	36,1
708,818	36,71
709,26	37,42
709,701	37,83
710,142	38,58
710,583	39,24
711,024	39,86
711,465	40,76
711,905	41
712,346	41,67
712,787	42,41
713,227	42,94
713,667	43,68
714,108	44,17
714,548	44,91
714,988	45,3
715,428	45,81
715,868	46,5
716,307	47,09
716,747	47,73
717,186	48,07
717,626	48,68
718,065	49,48
718,504	49,61
718,944	50,57
719,383	50,96
719,822	51,32
720,261	51,78
720,699	52,23
721,138	52,55
721,576	53,04
722,015	53,61
722,453	54,22
722,892	54,47
723,33	54,97
723,768	55,33
724,206	55,89
724,644	55,99
725,081	56,57
725,519	56,92
725,957	57,15
726,394	57,81
726,832	57,88
727,269	58,38
727,706	58,35
728,143	59
728,58	59,35
729,017	59,41
729,454	59,98
729,89	60,01
730,327	60,19
730,764	60,75
731,2	60,63
731,636	61,1
732,072	61,32
732,509	61,29
732,945	61,5
733,38	61,83
733,816	62,31
734,252	62,03
734,688	62,26
735,123	62,63
735,559	62,99
735,994	62,76
736,429	63,14
736,864	63,33
737,299	63,22
737,734	63,49
738,169	63,3
738,604	63,88
739,038	63,93
739,473	63,76
739,907	64,12
740,342	64,3
740,776	64,14
741,21	64,36
741,644	64,28
742,078	64,56
742,512	64,53
742,946	64,8
743,379	64,58
743,813	64,67
744,246	64,75
744,68	64,89
745,113	64,88
745,546	64,66
745,979	64,79
746,412	64,83
746,845	64,76
747,278	65,12
747,711	65,17
748,143	64,9
748,576	64,87
749,008	64,82
749,441	64,84
749,873	64,84
750,305	64,92
750,737	64,95
751,169	64,81
751,601	65,1
752,032	64,84
752,464	64,68
752,896	64,71
753,327	64,58
753,758	64,57
754,19	64,63
754,621	64,98
755,052	64,71
755,483	64,56
755,914	64,76
756,344	64,89
756,775	64,78
757,206	64,94
757,636	64,64
758,066	64,5
758,497	64,62
758,927	64,47
759,357	64,47
759,787	64,6
760,217	64,23
760,647	64,05
761,076	64,58
761,506	64,05
761,935	64,18
762,365	64,16
762,794	64,42
763,223	64,35
763,653	64,04
764,082	64,16
764,51	64,27
764,939	64,24
765,368	64,41
765,797	64,06
766,225	63,99
766,654	63,87
767,082	63,93
767,51	64,04
767,938	64,09
768,367	64,04
768,795	63,9
769,222	63,97
769,65	64,06
770,078	63,8
770,505	63,68
770,933	63,84
771,36	63,66
771,788	63,51
772,215	63,78
772,642	63,7
773,069	63,45
773,496	63,53
773,923	63,59
774,349	63,43
774,776	63,63
775,203	63,41
775,629	63,61
776,055	63,52
776,482	63,49
776,908	63,29
777,334	63,28
777,76	63,43
778,186	63,68
778,611	63,19
779,037	63,34
779,463	63,47
779,888	63,07
780,314	63,37
780,739	63,55
781,164	63,25
781,589	63,09
782,014	63,06
782,439	63,39
782,864	63,26
783,289	63,21
783,713	63,04
784,138	63,14
784,562	63,32
784,987	63,08
785,411	62,84
785,835	63,29
786,259	63,11
786,683	63,41
787,107	63,19
787,531	62,87
787,954	62,82
788,378	63,1
788,802	63,46
789,225	62,87
789,648	63,03
790,071	63,07
790,495	62,99
790,918	63,11
791,34	63,16
791,763	63,19
792,186	63,08
792,609	63,17
793,031	62,95
793,454	62,68
793,876	62,79
794,298	62,95
794,721	62,77
795,143	63,18
795,565	62,65
795,986	63,22
796,408	62,98
796,83	62,99
797,252	63,12
797,673	62,69
798,094	62,72
798,516	62,42
798,937	62,64
799,358	62,91
799,779	62,68
800,2	63,05
800,621	62,79
801,042	62,93
801,462	62,63
801,883	62,83
802,303	62,8
802,724	62,85
803,144	63,16
803,564	62,53
803,984	62,92
804,404	62,9
804,824	62,93
805,244	62,83
805,664	62,77
806,084	62,77
806,503	63,02
806,923	62,94
807,342	62,59
807,761	62,7
808,18	62,8
808,599	62,72
809,018	62,82
809,437	62,77
809,856	62,45
810,275	62,55
810,693	62,8
811,112	62,55
811,53	62,71
811,949	62,63
812,367	62,42
812,785	62,75
813,203	62,76
813,621	63,01
814,039	62,76
814,457	62,46
814,874	62,91
815,292	62,68
815,709	62,56
816,127	62,42
816,544	62,81
816,961	62,67
817,378	62,58
817,795	62,69
818,212	62,48
818,629	62,76
819,046	62,38
819,462	62,69
819,879	62,83
820,295	62,64
820,712	62,53
821,128	62,66
821,544	62,45
821,96	62,42
822,376	62,57
822,792	62,18
823,208	62,54
823,624	62,59
824,039	62,47
824,455	62,47
824,87	62,34
825,286	62,48
825,701	62,78
826,116	62,21
826,531	62,28
826,946	62,5
827,361	62,35
827,776	62,6
828,19	62,47
828,605	62,45
829,02	62,37
829,434	62,42
829,848	62,64
830,263	62,35
830,677	62,46
831,091	62,44
831,505	62,3
831,919	62,27
832,332	62,14
832,746	62,32
833,16	62,39
833,573	62,41
833,987	62,46
834,4	62,44
834,813	62,19
835,226	62,28
835,639	62,19
836,052	62,17
836,465	62,3
836,878	62,45
837,29	62,36
837,703	62,23
838,116	62,36
838,528	62,29
838,94	62,51
839,352	62,47
839,765	62,56
840,177	62,31
840,589	62,71
841	62,28
841,412	62,12
841,824	62,43
842,235	62,43
