Data from A6__Relative__6__17-49-04-725.txt Node

Date: Tue Jan 30 17:49:04 CET 2024
User: diatiterra
Spectrometer: HDX00911
Trigger mode: 0
Integration Time (sec): 6,000000E-3
Scans to average: 3
Nonlinearity correction enabled: true
Boxcar width: 0
Storing dark spectrum: false
XAxis mode: Wavelengths
Number of Pixels in Spectrum: 2068
>>>>>Begin Spectral Data<<<<<
194,468	73,56
195,025	79,81
195,581	83,4
196,138	74,48
196,694	76,98
197,251	66,54
197,807	69,33
198,363	64,99
198,919	68,49
199,474	74,74
200,03	67,92
200,586	68,88
201,141	64,16
201,696	63,67
202,251	62,93
202,806	65,98
203,361	66,38
203,916	64,65
204,471	75,88
205,025	67,2
205,58	66,66
206,134	71,1
206,688	67,06
207,242	64,62
207,796	72,35
208,35	66,12
208,904	67,32
209,457	66,97
210,011	68,14
210,564	67,91
211,117	70,69
211,67	75,23
212,223	64,83
212,776	70,17
213,329	70,82
213,881	70,86
214,434	65,72
214,986	68,09
215,538	67,88
216,09	65,51
216,642	65,43
217,194	72,01
217,746	72,17
218,297	65,53
218,849	69,74
219,4	71,46
219,951	72,1
220,502	75,05
221,053	65
221,604	66,85
222,155	68,78
222,705	67,77
223,256	65,98
223,806	72
224,356	64,43
224,906	69,85
225,456	67,05
226,006	66,66
226,556	61,31
227,106	72,65
227,655	67,15
228,204	70,65
228,754	71,54
229,303	66,53
229,852	72,83
230,401	66,46
230,949	66,94
231,498	61,67
232,047	60,03
232,595	72,17
233,143	68,43
233,691	60,43
234,239	64,09
234,787	70,55
235,335	63,4
235,883	67,7
236,43	71,84
236,978	65,64
237,525	67,76
238,072	69,45
238,619	68,7
239,166	62,36
239,713	62,46
240,26	64,45
240,806	68,97
241,353	61,84
241,899	61,91
242,445	65,53
242,991	62,21
243,537	67,86
244,083	67,13
244,629	67,47
245,174	65,4
245,72	66,95
246,265	67,69
246,81	68,66
247,355	66,52
247,9	65,62
248,445	71,86
248,99	69,57
249,534	63,84
250,079	66,3
250,623	63,52
251,168	66,11
251,712	67,08
252,256	55,98
252,8	65,23
253,343	66,74
253,887	61,85
254,43	65,52
254,974	64,61
255,517	69,36
256,06	64,18
256,603	65,89
257,146	65,36
257,689	65,22
258,232	62,12
258,774	66,31
259,317	65,34
259,859	65,75
260,401	74,06
260,943	67,59
261,485	64,1
262,027	66,01
262,569	64,76
263,11	63,45
263,652	70,22
264,193	63,94
264,734	60,77
265,275	61,15
265,816	64,71
266,357	62,29
266,898	61,26
267,438	56,5
267,979	66
268,519	67,85
269,059	65,43
269,6	62,45
270,14	68,12
270,68	59,51
271,219	69,72
271,759	64,69
272,298	61,55
272,838	62,31
273,377	64,1
273,916	59,45
274,455	63,96
274,994	70,21
275,533	64,89
276,072	63,82
276,61	60,81
277,149	62,84
277,687	63,98
278,225	62,71
278,763	61,8
279,301	65,88
279,839	58,41
280,377	67,03
280,914	61,65
281,452	64,16
281,989	71,38
282,526	63,95
283,064	63,66
283,601	67,39
284,137	66,67
284,674	67,3
285,211	67,66
285,747	67,03
286,284	66,91
286,82	63,77
287,356	67,64
287,892	69,92
288,428	62,33
288,964	61,62
289,5	66,89
290,035	69,07
290,571	67,66
291,106	69,71
291,641	63,58
292,176	67,15
292,711	62,63
293,246	65,32
293,781	66,45
294,315	63,5
294,85	75,14
295,384	71,38
295,918	61,81
296,453	60,61
296,987	59,74
297,52	60,71
298,054	67,54
298,588	69,03
299,121	70,15
299,655	64,38
300,188	59,39
300,721	65,42
301,254	71,12
301,787	61,65
302,32	70,14
302,853	64,45
303,385	64
303,918	61,26
304,45	59,39
304,982	63,87
305,514	63,6
306,046	59,37
306,578	56,9
307,11	71,09
307,641	69,47
308,173	63,93
308,704	69,99
309,236	65,44
309,767	64,26
310,298	63,12
310,829	59,42
311,359	64,52
311,89	63,6
312,421	63,44
312,951	60,35
313,481	62,63
314,012	62,11
314,542	62,15
315,072	63,33
315,601	59,99
316,131	64,59
316,661	60,4
317,19	60,54
317,72	66,32
318,249	62,05
318,778	61,42
319,307	63
319,836	64,66
320,365	66,6
320,893	64,62
321,422	63,26
321,95	62,21
322,479	66,68
323,007	55,76
323,535	62,31
324,063	62,28
324,591	65,92
325,118	67,3
325,646	59,52
326,173	64,12
326,701	61,88
327,228	62,67
327,755	66,69
328,282	58,97
328,809	62,72
329,336	61,32
329,862	61,09
330,389	60,61
330,915	62,09
331,441	60,04
331,968	58,42
332,494	60,19
333,02	61,94
333,545	59,83
334,071	61,34
334,597	62
335,122	64,34
335,648	64,78
336,173	62,5
336,698	56,87
337,223	57,17
337,748	60,3
338,272	59,08
338,797	60,96
339,322	62,97
339,846	58,31
340,37	58,53
340,894	57,91
341,419	61,37
341,942	58,19
342,466	55,72
342,99	56,6
343,514	61,14
344,037	56,67
344,56	57,61
345,084	56,97
345,607	61
346,13	55,1
346,653	55,16
347,175	54,73
347,698	61,65
348,221	51,73
348,743	52,72
349,265	58,72
349,787	53,1
350,309	58,37
350,831	55,83
351,353	50,87
351,875	53,97
352,397	49,19
352,918	57,48
353,439	57,75
353,961	50,91
354,482	46,92
355,003	53
355,524	50,59
356,044	58,42
356,565	52,57
357,086	54,2
357,606	47,96
358,126	52,25
358,646	51,26
359,167	49,07
359,687	50,09
360,206	49,03
360,726	49,96
361,246	50,62
361,765	50,64
362,285	53,57
362,804	47,53
363,323	55,14
363,842	51,16
364,361	52,92
364,88	48,73
365,398	48,13
365,917	49,33
366,435	48,55
366,954	49,81
367,472	47,95
367,99	52,77
368,508	47,04
369,026	45,35
369,544	50,98
370,061	47,5
370,579	46,94
371,096	48,35
371,613	51,83
372,131	52,37
372,648	47,67
373,165	46,15
373,681	45,42
374,198	48,34
374,715	47,08
375,231	48,89
375,747	49,12
376,264	42,94
376,78	47,1
377,296	47,7
377,812	46,63
378,327	46,04
378,843	43,63
379,359	45,29
379,874	46,1
380,389	41,83
380,905	44,47
381,42	46,44
381,935	43,76
382,449	42,62
382,964	41,92
383,479	41,58
383,993	41,93
384,508	41,48
385,022	39,81
385,536	41,06
386,05	39,18
386,564	40,11
387,078	39,95
387,592	38,96
388,105	37,42
388,619	37,13
389,132	35,22
389,645	37,63
390,158	37,84
390,671	36,34
391,184	33,7
391,697	34,99
392,21	34,75
392,722	36,59
393,235	34,81
393,747	35,72
394,259	35,81
394,771	35,62
395,283	32,74
395,795	32,48
396,307	33,91
396,818	32,66
397,33	33,38
397,841	31,05
398,353	32,3
398,864	31,5
399,375	30,38
399,886	29,4
400,397	28,53
400,907	28,89
401,418	28,18
401,928	28,19
402,439	27,3
402,949	26,16
403,459	26,21
403,969	25,76
404,479	25,24
404,989	22,58
405,498	23,1
406,008	23,33
406,517	22,4
407,027	22,96
407,536	21,48
408,045	19,86
408,554	19,88
409,063	19,36
409,572	18,93
410,08	18,39
410,589	17,59
411,097	16,86
411,606	17,16
412,114	16,31
412,622	15,58
413,13	15,78
413,638	15,35
414,145	14,43
414,653	14,06
415,16	13,7
415,668	13,77
416,175	13,56
416,682	12,7
417,189	13,04
417,696	12,37
418,203	12,35
418,71	12,24
419,216	12,11
419,723	11,63
420,229	11,25
420,735	11,5
421,242	11,2
421,748	11,36
422,254	10,86
422,759	10,49
423,265	10,98
423,771	10,81
424,276	10,59
424,781	10,11
425,287	10,57
425,792	10,5
426,297	10,21
426,802	10,12
427,306	10,07
427,811	10,09
428,316	10,05
428,82	9,82
429,324	9,95
429,829	9,55
430,333	9,56
430,837	9,79
431,34	9,58
431,844	9,89
432,348	9,86
432,851	9,33
433,355	9,32
433,858	9,43
434,361	9,26
434,864	9
435,367	9,11
435,87	9,13
436,373	9,13
436,876	8,87
437,378	9,01
437,88	8,97
438,383	8,88
438,885	8,97
439,387	9,1
439,889	8,92
440,391	9,27
440,892	9,25
441,394	8,89
441,896	9,07
442,397	9,26
442,898	8,96
443,399	9,02
443,9	9,32
444,401	9,1
444,902	9,11
445,403	8,94
445,903	9,12
446,404	9,06
446,904	9,24
447,405	9,34
447,905	9,21
448,405	9,72
448,905	9,18
449,404	9,46
449,904	9,33
450,404	9,27
450,903	9,61
451,403	9,83
451,902	9,41
452,401	9,58
452,9	9,44
453,399	9,49
453,898	9,64
454,396	9,96
454,895	9,84
455,393	9,61
455,892	10,04
456,39	9,9
456,888	9,8
457,386	9,77
457,884	9,95
458,382	10,04
458,879	9,9
459,377	10,08
459,874	9,86
460,372	10,03
460,869	9,82
461,366	9,8
461,863	10
462,36	10,05
462,857	10,11
463,353	9,88
463,85	10,18
464,346	9,75
464,843	9,8
465,339	10,25
465,835	9,96
466,331	9,84
466,827	9,89
467,323	9,85
467,818	9,78
468,314	9,7
468,809	9,79
469,305	9,96
469,8	10,13
470,295	9,98
470,79	10,12
471,285	9,85
471,78	9,92
472,274	9,9
472,769	9,98
473,263	9,9
473,758	9,86
474,252	9,88
474,746	9,68
475,24	9,92
475,734	10,03
476,228	10
476,721	10,2
477,215	10,16
477,708	10,18
478,202	10,16
478,695	10,16
479,188	10,12
479,681	10,14
480,174	10,28
480,667	10,35
481,159	10,3
481,652	10,18
482,144	10,32
482,637	10,35
483,129	10,3
483,621	10,6
484,113	10,44
484,605	10,37
485,097	10,37
485,588	10,41
486,08	10,52
486,571	10,55
487,063	10,52
487,554	10,42
488,045	10,55
488,536	11,05
489,027	10,69
489,518	10,63
490,008	10,83
490,499	10,59
490,989	10,94
491,48	11,16
491,97	11,22
492,46	10,9
492,95	11,26
493,44	11,41
493,93	11,43
494,419	11,24
494,909	11,67
495,398	11,57
495,888	11,71
496,377	11,85
496,866	12,17
497,355	12,16
497,844	12,33
498,333	12,29
498,821	12,52
499,31	12,61
499,798	12,9
500,287	12,99
500,775	13,05
501,263	13,39
501,751	13,54
502,239	13,68
502,727	14,15
503,215	14,27
503,702	14,27
504,19	14,51
504,677	14,94
505,164	15,24
505,651	15,62
506,139	15,54
506,625	15,79
507,112	16,55
507,599	16,5
508,086	16,95
508,572	17,25
509,058	17,74
509,545	17,79
510,031	18,05
510,517	18,3
511,003	18,75
511,489	19,27
511,974	19,76
512,46	19,85
512,946	20,46
513,431	20,9
513,916	21,2
514,401	21,81
514,887	22,26
515,371	22,62
515,856	22,81
516,341	23,34
516,826	23,75
517,31	24,48
517,795	24,97
518,279	25,34
518,763	25,76
519,247	26,28
519,731	27,04
520,215	27,4
520,699	27,95
521,182	28,37
521,666	29,02
522,149	29,44
522,633	30,24
523,116	30,28
523,599	30,89
524,082	31,5
524,565	31,89
525,048	32,23
525,53	32,57
526,013	33,19
526,495	33,71
526,978	34,22
527,46	34,38
527,942	34,66
528,424	34,81
528,906	35,35
529,388	35,32
529,87	36
530,351	36,34
530,833	36,43
531,314	36,84
531,795	37,26
532,277	37,33
532,758	37,62
533,238	37,89
533,719	37,78
534,2	38,09
534,681	38,49
535,161	38,64
535,642	38,67
536,122	38,76
536,602	39,1
537,082	39,08
537,562	39,12
538,042	39,64
538,522	39,75
539,001	39,63
539,481	39,76
539,96	39,61
540,44	39,75
540,919	39,67
541,398	39,93
541,877	40,01
542,356	40,12
542,835	39,91
543,313	40,28
543,792	40,31
544,27	40,6
544,749	40,82
545,227	41,05
545,705	40,87
546,183	40,8
546,661	40,86
547,139	41,07
547,616	41,04
548,094	40,95
548,571	41,04
549,049	40,94
549,526	41,24
550,003	41,29
550,48	41,38
550,957	41,42
551,434	41,13
551,911	41,43
552,387	41,48
552,864	41,19
553,34	41,34
553,817	41,46
554,293	41,46
554,769	41,66
555,245	41,2
555,721	41,44
556,197	41,4
556,672	41,41
557,148	41,2
557,623	41,02
558,099	41,25
558,574	41,16
559,049	40,87
559,524	40,86
559,999	41,19
560,474	40,72
560,948	40,22
561,423	40,71
561,897	40,13
562,372	40,18
562,846	40,04
563,32	40,15
563,794	39,93
564,268	39,6
564,742	39,64
565,216	39,13
565,69	39,13
566,163	38,81
566,636	38,38
567,11	38,72
567,583	37,83
568,056	37,88
568,529	37,9
569,002	37,6
569,475	37,19
569,947	36,95
570,42	36,87
570,892	36,41
571,365	36,27
571,837	36,05
572,309	35,69
572,781	35,57
573,253	35,33
573,725	34,92
574,197	34,86
574,668	34,63
575,14	34,26
575,611	34,03
576,082	34,01
576,554	33,74
577,025	33,58
577,496	32,78
577,967	32,95
578,437	32,8
578,908	32,56
579,379	32,36
579,849	32,14
580,319	31,76
580,79	31,78
581,26	31,54
581,73	31,27
582,2	31,47
582,669	30,93
583,139	30,93
583,609	30,54
584,078	30,6
584,548	30,39
585,017	30,46
585,486	30,36
585,955	29,75
586,424	29,63
586,893	29,55
587,362	29,45
587,83	29,32
588,299	28,92
588,767	29,17
589,236	28,96
589,704	28,94
590,172	28,97
590,64	28,58
591,108	28,48
591,576	28,42
592,043	28,46
592,511	28,3
592,978	28,11
593,446	28,15
593,913	28,01
594,38	27,97
594,847	27,85
595,314	27,57
595,781	27,57
596,248	27,78
596,715	27,76
597,181	27,59
597,647	27,46
598,114	27,61
598,58	27,4
599,046	27,57
599,512	27,3
599,978	27,31
600,444	27,03
600,91	27,05
601,375	27
601,841	27,14
602,306	26,94
602,771	26,99
603,236	26,82
603,702	26,58
604,167	26,53
604,631	26,47
605,096	26,63
605,561	26,36
606,025	26,22
606,49	26,06
606,954	25,94
607,418	25,93
607,882	25,75
608,347	25,64
608,81	25,43
609,274	25,36
609,738	25,27
610,202	25,12
610,665	25,25
611,128	24,79
611,592	24,8
612,055	24,53
612,518	24,53
612,981	24,29
613,444	24,28
613,907	23,96
614,369	24,11
614,832	24,15
615,294	23,55
615,757	23,57
616,219	23,33
616,681	23,17
617,143	23,12
617,605	22,87
618,067	23,1
618,529	22,57
618,99	22,72
619,452	22,76
619,913	22,39
620,375	22,29
620,836	22,16
621,297	22,25
621,758	22,27
622,219	21,98
622,68	21,93
623,14	21,83
623,601	21,81
624,061	21,78
624,522	21,75
624,982	21,4
625,442	21,65
625,902	21,6
626,362	21,37
626,822	21,67
627,282	21,54
627,742	21,38
628,201	21,25
628,661	21,29
629,12	21,28
629,579	21,27
630,038	21,3
630,497	21,39
630,956	21,25
631,415	21,14
631,874	21,25
632,332	21,12
632,791	21,13
633,249	20,96
633,708	20,89
634,166	20,9
634,624	20,56
635,082	20,56
635,54	20,56
635,998	20,35
636,455	20,08
636,913	20,13
637,37	20
637,828	19,79
638,285	19,58
638,742	19,4
639,199	19,11
639,656	18,82
640,113	18,74
640,57	18,62
641,027	18,33
641,483	18,1
641,94	17,98
642,396	17,73
642,852	17,59
643,309	17,43
643,765	17,22
644,221	16,94
644,676	17
645,132	16,64
645,588	16,36
646,043	16,17
646,499	16,05
646,954	15,92
647,409	15,72
647,864	15,4
648,319	15,36
648,774	15,15
649,229	15
649,684	14,93
650,139	14,79
650,593	14,69
651,047	14,66
651,502	14,45
651,956	14,25
652,41	14,46
652,864	14,46
653,318	14,18
653,772	14,23
654,225	14,19
654,679	13,87
655,133	14
655,586	13,84
656,039	13,78
656,492	13,64
656,946	13,54
657,399	13,4
657,851	13,34
658,304	13,23
658,757	13,16
659,209	12,89
659,662	12,74
660,114	12,68
660,567	12,52
661,019	12,43
661,471	12,4
661,923	12,15
662,375	12,03
662,826	11,89
663,278	11,82
663,73	11,65
664,181	11,6
664,632	11,42
665,084	11,22
665,535	11,19
665,986	11,16
666,437	11,09
666,888	11,08
667,338	10,9
667,789	10,87
668,24	10,86
668,69	10,86
669,14	10,76
669,591	10,71
670,041	10,81
670,491	10,72
670,941	10,75
671,391	10,74
671,84	10,75
672,29	10,77
672,74	10,84
673,189	10,85
673,638	10,89
674,088	11,01
674,537	11,19
674,986	11,18
675,435	11,1
675,883	11,26
676,332	11,35
676,781	11,45
677,229	11,47
677,678	11,57
678,126	11,65
678,574	11,81
679,022	11,81
679,47	12,09
679,918	12,16
680,366	12,18
680,814	12,34
681,261	12,54
681,709	12,71
682,156	12,98
682,604	13,07
683,051	13,21
683,498	13,54
683,945	13,67
684,392	13,86
684,839	14,09
685,286	14,3
685,732	14,58
686,179	14,91
686,625	15,12
687,071	15,44
687,518	16
687,964	16,35
688,41	16,8
688,856	17,38
689,301	17,77
689,747	18,28
690,193	18,98
690,638	19,6
691,084	20,26
691,529	20,86
691,974	21,77
692,419	22,33
692,864	23,16
693,309	24,05
693,754	24,79
694,199	25,69
694,643	26,51
695,088	27,5
695,532	28,46
695,977	29,13
696,421	30,08
696,865	30,84
697,309	31,84
697,753	32,67
698,197	33,7
698,64	34,5
699,084	35,34
699,527	36,33
699,971	36,92
700,414	38,07
700,857	38,87
701,3	39,68
701,743	40,49
702,186	41,31
702,629	42,16
703,072	42,85
703,515	43,52
703,957	44,13
704,399	44,98
704,842	45,68
705,284	46,29
705,726	47,24
706,168	47,77
706,61	48,53
707,052	48,97
707,494	49,65
707,935	50,54
708,377	51,28
708,818	51,43
709,26	52,09
709,701	52,67
710,142	53,21
710,583	54,01
711,024	54,46
711,465	55,24
711,905	55,23
712,346	56,31
712,787	56,68
713,227	57,02
713,667	58,07
714,108	58,33
714,548	58,72
714,988	59,12
715,428	59,67
715,868	60,27
716,307	60,41
716,747	61,22
717,186	61,6
717,626	62,32
718,065	62,61
718,504	62,63
718,944	63,82
719,383	63,8
719,822	64,28
720,261	64,54
720,699	65,03
721,138	65,06
721,576	65,65
722,015	65,84
722,453	66,13
722,892	66,7
723,33	66,98
723,768	67,41
724,206	67,98
724,644	67,82
725,081	68,01
725,519	68,45
725,957	68,57
726,394	68,94
726,832	68,86
727,269	69,53
727,706	69,76
728,143	69,86
728,58	70,06
729,017	70,24
729,454	70,73
729,89	70,71
730,327	70,9
730,764	70,96
731,2	71,35
731,636	71,53
732,072	71,74
732,509	71,85
732,945	72,01
733,38	72,11
733,816	72,17
734,252	72,24
734,688	72,17
735,123	72,39
735,559	72,89
735,994	72,67
736,429	72,89
736,864	73,19
737,299	72,85
737,734	72,98
738,169	73,19
738,604	73,25
739,038	73,44
739,473	73,39
739,907	73,53
740,342	73,54
740,776	73,4
741,21	73,73
741,644	73,77
742,078	73,69
742,512	73,72
742,946	73,83
743,379	73,54
743,813	73,88
744,246	73,59
744,68	73,83
745,113	73,97
745,546	73,53
745,979	73,69
746,412	73,99
746,845	73,61
747,278	73,82
747,711	73,63
748,143	73,7
748,576	73,59
749,008	73,83
749,441	73,4
749,873	73,71
750,305	73,51
750,737	73,62
751,169	73,55
751,601	73,56
752,032	73,38
752,464	73,43
752,896	73,42
753,327	73,14
753,758	73,37
754,19	73,19
754,621	73,69
755,052	73,31
755,483	72,89
755,914	73,29
756,344	73,2
756,775	73,16
757,206	73,47
757,636	73,05
758,066	72,92
758,497	72,85
758,927	72,7
759,357	72,58
759,787	72,99
760,217	72,72
760,647	72,55
761,076	73,02
761,506	72,74
761,935	72,37
762,365	72,5
762,794	72,66
763,223	72,15
763,653	72,67
764,082	72,49
764,51	72,42
764,939	72,53
765,368	72,62
765,797	72,62
766,225	72,45
766,654	72,16
767,082	72,17
767,51	72,2
767,938	72,27
768,367	72,05
768,795	72,07
769,222	72,31
769,65	72,32
770,078	71,81
770,505	71,8
770,933	72
771,36	71,97
771,788	71,81
772,215	72,09
772,642	71,63
773,069	71,65
773,496	71,88
773,923	71,85
774,349	71,84
774,776	71,77
775,203	71,85
775,629	71,51
776,055	71,66
776,482	71,64
776,908	71,58
777,334	71,47
777,76	71,5
778,186	71,46
778,611	71,57
779,037	71,67
779,463	71,43
779,888	71,31
780,314	71,17
780,739	71,47
781,164	71,25
781,589	71,36
782,014	71,2
782,439	71,17
782,864	71,24
783,289	71,35
783,713	71,09
784,138	71,33
784,562	71,2
784,987	71,03
785,411	70,97
785,835	71,23
786,259	70,95
786,683	71,16
787,107	71,11
787,531	71,03
787,954	70,68
788,378	71,23
788,802	70,96
789,225	70,95
789,648	71,17
790,071	71,36
790,495	70,93
790,918	71,19
791,34	71
791,763	70,88
792,186	71,14
792,609	71,33
793,031	70,78
793,454	70,84
793,876	70,89
794,298	71,03
794,721	70,82
795,143	71,05
795,565	70,68
795,986	70,93
796,408	70,77
796,83	71,15
797,252	70,94
797,673	71,18
798,094	70,71
798,516	70,46
798,937	70,83
799,358	70,8
799,779	70,73
800,2	70,98
800,621	70,75
801,042	70,76
801,462	70,83
801,883	70,89
802,303	70,75
802,724	70,84
803,144	70,92
803,564	70,38
803,984	70,62
804,404	70,78
804,824	71,04
805,244	70,55
805,664	70,95
806,084	70,64
806,503	70,81
806,923	70,73
807,342	70,73
807,761	70,46
808,18	70,81
808,599	70,78
809,018	70,76
809,437	70,71
809,856	70,18
810,275	70,42
810,693	70,7
811,112	70,79
811,53	70,58
811,949	70,67
812,367	70,22
812,785	70,64
813,203	70,82
813,621	70,96
814,039	70,55
814,457	70,25
814,874	70,86
815,292	70,64
815,709	70,43
816,127	70,47
816,544	70,84
816,961	70,43
817,378	70,83
817,795	70,29
818,212	70,47
818,629	70,55
819,046	70,21
819,462	70,6
819,879	70,42
820,295	70,6
820,712	70,49
821,128	70,48
821,544	70,49
821,96	70,44
822,376	70,56
822,792	70,45
823,208	70,38
823,624	70,28
824,039	70,17
824,455	70,16
824,87	70,5
825,286	70,39
825,701	70,55
826,116	70,07
826,531	70,32
826,946	70,11
827,361	70,32
827,776	70,57
828,19	70,24
828,605	70,41
829,02	70,31
829,434	70,29
829,848	70,51
830,263	70,21
830,677	70,34
831,091	70,52
831,505	70,34
831,919	70,18
832,332	70
832,746	70,09
833,16	70,16
833,573	70,22
833,987	70,42
834,4	70,01
834,813	70,08
835,226	70,09
835,639	70,29
836,052	70,16
836,465	70,32
