Data from B5__Relative__4__00010.txt Node

Date: Tue Jan 30 17:51:31 CET 2024
User: diatiterra
Spectrometer: HDX00911
Trigger mode: 0
Integration Time (sec): 6,000000E-3
Scans to average: 3
Nonlinearity correction enabled: true
Boxcar width: 0
Storing dark spectrum: false
XAxis mode: Wavelengths
Number of Pixels in Spectrum: 2068
>>>>>Begin Spectral Data<<<<<
194,468	76,68
195,025	56,59
195,581	71,03
196,138	59,49
196,694	67,35
197,251	56,08
197,807	57,99
198,363	51,36
198,919	56,75
199,474	56,96
200,03	57,65
200,586	53,13
201,141	51
201,696	52,31
202,251	49,28
202,806	54,58
203,361	55,81
203,916	52,8
204,471	55,26
205,025	49,38
205,58	57,77
206,134	56,12
206,688	51,8
207,242	46,35
207,796	50,4
208,35	48,49
208,904	55,83
209,457	56,54
210,011	56,33
210,564	56,43
211,117	57,99
211,67	64,92
212,223	59,34
212,776	56,51
213,329	60,3
213,881	54,5
214,434	51,98
214,986	57,81
215,538	50,6
216,09	55,16
216,642	58,43
217,194	51,02
217,746	56,48
218,297	52,98
218,849	58,37
219,4	57,93
219,951	56,81
220,502	55,67
221,053	49,89
221,604	51,56
222,155	52,56
222,705	56,34
223,256	54,16
223,806	54,79
224,356	58,37
224,906	53,08
225,456	55,54
226,006	47,94
226,556	52,92
227,106	52,14
227,655	48,64
228,204	54,29
228,754	53,55
229,303	51,61
229,852	53,91
230,401	56,88
230,949	55,99
231,498	50,75
232,047	51,63
232,595	54,61
233,143	48,73
233,691	50,68
234,239	51,47
234,787	52,96
235,335	48,02
235,883	50,22
236,43	50,51
236,978	51,82
237,525	53,38
238,072	50,83
238,619	52,83
239,166	48,11
239,713	47,66
240,26	49,89
240,806	53,67
241,353	49,59
241,899	54,48
242,445	50,95
242,991	46,4
243,537	52,22
244,083	51,72
244,629	49,09
245,174	55,9
245,72	46,26
246,265	53,96
246,81	53,2
247,355	51,18
247,9	53,46
248,445	62,93
248,99	55,44
249,534	52,01
250,079	56,83
250,623	47,09
251,168	50,62
251,712	49,25
252,256	46,68
252,8	52,96
253,343	55,16
253,887	52,17
254,43	55,1
254,974	51,33
255,517	55,26
256,06	49,21
256,603	54,37
257,146	57,08
257,689	53,55
258,232	55,19
258,774	56,65
259,317	51,56
259,859	54,12
260,401	56,61
260,943	55,51
261,485	60,35
262,027	54,89
262,569	57,02
263,11	52,56
263,652	54,28
264,193	49,34
264,734	50,75
265,275	45,69
265,816	52,49
266,357	51,24
266,898	55,2
267,438	51,57
267,979	55,34
268,519	55,73
269,059	50,55
269,6	54,23
270,14	51,03
270,68	49,99
271,219	53,77
271,759	55,48
272,298	50,1
272,838	50,33
273,377	55,34
273,916	47,47
274,455	49,16
274,994	51,88
275,533	43,33
276,072	51,76
276,61	50
277,149	51,8
277,687	48,47
278,225	51,87
278,763	51,69
279,301	51,93
279,839	49,77
280,377	52,06
280,914	48,73
281,452	58,45
281,989	54,71
282,526	51,12
283,064	53,98
283,601	49,24
284,137	51,56
284,674	53,59
285,211	57,02
285,747	53,75
286,284	54,12
286,82	49,77
287,356	57,62
287,892	57,12
288,428	54,18
288,964	49,58
289,5	56,71
290,035	51,35
290,571	50
291,106	51,32
291,641	53,17
292,176	53,01
292,711	51,83
293,246	53,83
293,781	53,02
294,315	52,95
294,85	56,93
295,384	58,46
295,918	47,67
296,453	49,02
296,987	51,6
297,52	50,78
298,054	50,66
298,588	52,12
299,121	52,27
299,655	51,93
300,188	50,87
300,721	49,56
301,254	52,52
301,787	51,48
302,32	58,6
302,853	50,96
303,385	51,11
303,918	48,57
304,45	46,65
304,982	57,28
305,514	54,84
306,046	48,63
306,578	47,63
307,11	54,09
307,641	54,31
308,173	56,38
308,704	53,13
309,236	56,16
309,767	55,32
310,298	49,67
310,829	47,31
311,359	53,94
311,89	51,46
312,421	46,43
312,951	52,86
313,481	57,81
314,012	47,58
314,542	49,89
315,072	51,6
315,601	46,59
316,131	52,25
316,661	50,33
317,19	45,46
317,72	51,97
318,249	53,3
318,778	48,49
319,307	50,9
319,836	53,47
320,365	53,98
320,893	52,53
321,422	45,43
321,95	46,71
322,479	53,34
323,007	46,58
323,535	49,03
324,063	51,57
324,591	56,37
325,118	50,82
325,646	45,08
326,173	53,96
326,701	54,25
327,228	48,67
327,755	54,6
328,282	47,65
328,809	50
329,336	47,06
329,862	50
330,389	49,78
330,915	57,43
331,441	52,22
331,968	45,41
332,494	46,46
333,02	43,87
333,545	48,6
334,071	48,67
334,597	49,47
335,122	50,11
335,648	48,12
336,173	46,66
336,698	46,6
337,223	48,36
337,748	52,13
338,272	44,49
338,797	44,86
339,322	52,95
339,846	50,72
340,37	50
340,894	48,08
341,419	43,42
341,942	43,93
342,466	45,52
342,99	52,52
343,514	44,37
344,037	46,08
344,56	51,67
345,084	42,46
345,607	49,48
346,13	46,91
346,653	44,05
347,175	38,39
347,698	45,9
348,221	41,57
348,743	42,63
349,265	46,21
349,787	43,83
350,309	43,91
350,831	40,52
351,353	41,46
351,875	42,31
352,397	40,53
352,918	45,54
353,439	47,55
353,961	46,31
354,482	42,09
355,003	42,24
355,524	43,25
356,044	44,3
356,565	44,1
357,086	38,49
357,606	40,29
358,126	42,32
358,646	40,73
359,167	43,32
359,687	44,2
360,206	41,81
360,726	42,1
361,246	42,35
361,765	40,87
362,285	45,17
362,804	42,41
363,323	43,06
363,842	44,34
364,361	42,39
364,88	44,79
365,398	39,72
365,917	45,11
366,435	42,16
366,954	40,95
367,472	37,49
367,99	42,68
368,508	38,27
369,026	40,09
369,544	43,01
370,061	41,48
370,579	37,83
371,096	40,11
371,613	42,36
372,131	44,27
372,648	37,87
373,165	38,26
373,681	37,69
374,198	40,12
374,715	38,95
375,231	38,28
375,747	38,43
376,264	33,28
376,78	38,25
377,296	36,4
377,812	37,64
378,327	37,7
378,843	38,46
379,359	36,58
379,874	35,15
380,389	38,55
380,905	36,91
381,42	36,69
381,935	35,44
382,449	33,49
382,964	34,6
383,479	34,66
383,993	33,88
384,508	33,22
385,022	33,34
385,536	34,69
386,05	32,59
386,564	34,49
387,078	32,04
387,592	33,07
388,105	30,59
388,619	30,56
389,132	28,34
389,645	28,49
390,158	29,41
390,671	28,09
391,184	29,27
391,697	27,33
392,21	28,15
392,722	29,19
393,235	28,68
393,747	25,9
394,259	26,85
394,771	28,71
395,283	27,62
395,795	27,11
396,307	27,27
396,818	25,96
397,33	26,33
397,841	24,07
398,353	26,51
398,864	25,03
399,375	25,48
399,886	24,8
400,397	23,03
400,907	23,43
401,418	22,38
401,928	23,67
402,439	21,65
402,949	21,48
403,459	22,04
403,969	21,68
404,479	20,03
404,989	19,35
405,498	19,25
406,008	18,76
406,517	18,89
407,027	17,19
407,536	17,19
408,045	16,14
408,554	16,06
409,063	15,39
409,572	14,37
410,08	14,34
410,589	14,33
411,097	14,53
411,606	13,26
412,114	12,91
412,622	11,85
413,13	12,52
413,638	12,55
414,145	11,58
414,653	11,2
415,16	11,39
415,668	10,77
416,175	10,85
416,682	10,59
417,189	10,58
417,696	10,06
418,203	9,73
418,71	10,02
419,216	9,83
419,723	9,52
420,229	8,96
420,735	8,92
421,242	9,24
421,748	8,8
422,254	8,93
422,759	9,35
423,265	8,86
423,771	8,68
424,276	8,6
424,781	8,42
425,287	8,76
425,792	8,27
426,297	7,91
426,802	7,96
427,306	8,2
427,811	8,06
428,316	7,98
428,82	8,36
429,324	8,01
429,829	7,99
430,333	7,99
430,837	7,62
431,34	7,67
431,844	7,75
432,348	8,03
432,851	7,68
433,355	8,03
433,858	7,43
434,361	7,49
434,864	7,65
435,367	7,26
435,87	7,39
436,373	7,44
436,876	7,17
437,378	7,49
437,88	7,36
438,383	7,38
438,885	7,05
439,387	7,47
439,889	7,56
440,391	7,49
440,892	7,29
441,394	7,67
441,896	7,44
442,397	7,61
442,898	7,57
443,399	7,42
443,9	7,48
444,401	7,41
444,902	7,21
445,403	7,44
445,903	7,43
446,404	7,46
446,904	7,56
447,405	7,53
447,905	7,51
448,405	7,86
448,905	8,06
449,404	7,78
449,904	7,72
450,404	7,77
450,903	7,67
451,403	7,63
451,902	7,69
452,401	7,79
452,9	7,96
453,399	8,06
453,898	8,16
454,396	7,98
454,895	7,79
455,393	8,11
455,892	8,02
456,39	8,36
456,888	8,13
457,386	8,19
457,884	7,98
458,382	8,15
458,879	8,13
459,377	8,05
459,874	8,29
460,372	8,32
460,869	8,18
461,366	8,18
461,863	8,08
462,36	8,33
462,857	8,18
463,353	8,18
463,85	8,21
464,346	8,08
464,843	7,99
465,339	8,48
465,835	8,17
466,331	8,08
466,827	8,16
467,323	8,27
467,818	8,21
468,314	8,19
468,809	8,08
469,305	8,04
469,8	8,1
470,295	8,31
470,79	8,28
471,285	8,29
471,78	8,3
472,274	8,11
472,769	8,05
473,263	8,27
473,758	8,15
474,252	8,17
474,746	8,11
475,24	8,15
475,734	8,27
476,228	8,05
476,721	8,33
477,215	8,28
477,708	8,14
478,202	8,25
478,695	8,33
479,188	8,2
479,681	8,34
480,174	8,4
480,667	8,61
481,159	8,23
481,652	8,36
482,144	8,33
482,637	8,55
483,129	8,36
483,621	8,55
484,113	8,4
484,605	8,53
485,097	8,6
485,588	8,44
486,08	8,51
486,571	8,51
487,063	8,53
487,554	8,74
488,045	8,77
488,536	8,83
489,027	8,67
489,518	8,81
490,008	8,91
490,499	8,95
490,989	8,95
491,48	9,11
491,97	9,24
492,46	9,29
492,95	9,29
493,44	9,55
493,93	9,46
494,419	9,44
494,909	9,66
495,398	9,72
495,888	9,78
496,377	9,76
496,866	10,12
497,355	10,23
497,844	10,19
498,333	10,52
498,821	10,69
499,31	10,79
499,798	10,6
500,287	10,78
500,775	11,13
501,263	11,32
501,751	11,45
502,239	11,54
502,727	12,02
503,215	11,89
503,702	12,15
504,19	12,36
504,677	12,59
505,164	12,84
505,651	12,79
506,139	13,14
506,625	13,53
507,112	13,63
507,599	13,93
508,086	14,28
508,572	14,43
509,058	14,9
509,545	14,77
510,031	15,21
510,517	15,49
511,003	15,89
511,489	16,11
511,974	16,48
512,46	16,65
512,946	17,09
513,431	17,59
513,916	17,45
514,401	17,91
514,887	18,38
515,371	18,61
515,856	19,19
516,341	19,38
516,826	19,95
517,31	19,83
517,795	20,3
518,279	20,9
518,763	21,33
519,247	21,76
519,731	21,99
520,215	22,25
520,699	22,52
521,182	23,09
521,666	23,63
522,149	23,92
522,633	24,45
523,116	24,36
523,599	24,85
524,082	25,2
524,565	25,61
525,048	26,09
525,53	26,26
526,013	26,64
526,495	26,49
526,978	27,03
527,46	27,41
527,942	27,81
528,424	28,09
528,906	28,06
529,388	28,41
529,87	28,67
530,351	28,67
530,833	29,16
531,314	29,06
531,795	28,98
532,277	29,66
532,758	30,32
533,238	29,93
533,719	29,75
534,2	30,04
534,681	30,59
535,161	30,54
535,642	30,13
536,122	30,32
536,602	30,6
537,082	30,55
537,562	31,01
538,042	31,14
538,522	30,61
539,001	30,71
539,481	31,11
539,96	31,08
540,44	31,44
540,919	31,17
541,398	31,34
541,877	31,54
542,356	31,2
542,835	31,84
543,313	31,62
543,792	31,8
544,27	31,66
544,749	31,77
545,227	31,98
545,705	31,9
546,183	32,02
546,661	31,85
547,139	31,89
547,616	31,86
548,094	32,02
548,571	32,09
549,049	32,3
549,526	32,33
550,003	32,28
550,48	32,35
550,957	32,28
551,434	32,07
551,911	32,12
552,387	32,42
552,864	32,48
553,34	32,42
553,817	32,63
554,293	32,39
554,769	32,54
555,245	32,38
555,721	32,21
556,197	32,42
556,672	32,5
557,148	32,3
557,623	32,07
558,099	32,4
558,574	32,24
559,049	32,33
559,524	31,99
559,999	32,05
560,474	31,69
560,948	31,96
561,423	31,82
561,897	31,69
562,372	31,47
562,846	31,66
563,32	31,47
563,794	31,41
564,268	31,24
564,742	31,24
565,216	30,87
565,69	30,91
566,163	30,77
566,636	30,4
567,11	30,41
567,583	29,86
568,056	30,22
568,529	29,59
569,002	29,53
569,475	29,52
569,947	28,96
570,42	28,96
570,892	28,87
571,365	28,77
571,837	28,54
572,309	28,3
572,781	28,41
573,253	27,94
573,725	27,4
574,197	27,48
574,668	27,63
575,14	27,51
575,611	26,83
576,082	26,86
576,554	26,75
577,025	26,62
577,496	26,25
577,967	26,34
578,437	26,19
578,908	25,8
579,379	25,81
579,849	25,61
580,319	25,38
580,79	25,46
581,26	25,33
581,73	24,97
582,2	25,19
582,669	24,66
583,139	24,65
583,609	24,62
584,078	24,37
584,548	24,35
585,017	24,23
585,486	24,28
585,955	24,05
586,424	24,04
586,893	23,74
587,362	23,6
587,83	23,31
588,299	23,41
588,767	23,18
589,236	23,16
589,704	23,21
590,172	23,26
590,64	23,06
591,108	22,86
591,576	22,79
592,043	22,78
592,511	22,84
592,978	22,58
593,446	22,55
593,913	22,48
594,38	22,49
594,847	22,55
595,314	22,04
595,781	22,16
596,248	22,29
596,715	22,11
597,181	22,21
597,647	22,32
598,114	22,21
598,58	22,1
599,046	21,98
599,512	21,82
599,978	21,86
600,444	21,88
600,91	21,78
601,375	21,58
601,841	21,74
602,306	21,67
602,771	21,59
603,236	21,61
603,702	21,41
604,167	21,24
604,631	21,2
605,096	21,29
605,561	21,25
606,025	21,03
606,49	20,99
606,954	20,75
607,418	20,88
607,882	20,72
608,347	20,58
608,81	20,56
609,274	20,42
609,738	20,27
610,202	20,29
610,665	20,03
611,128	19,95
611,592	20,09
612,055	19,78
612,518	19,63
612,981	19,5
613,444	19,73
613,907	19,39
614,369	19,41
614,832	19,55
615,294	19,12
615,757	19,02
616,219	19
616,681	18,9
617,143	18,72
617,605	18,56
618,067	18,64
618,529	18,45
618,99	18,36
619,452	18,37
619,913	18,33
620,375	18,15
620,836	17,93
621,297	17,98
621,758	17,87
622,219	17,8
622,68	17,67
623,14	17,95
623,601	17,83
624,061	17,69
624,522	17,46
624,982	17,57
625,442	17,58
625,902	17,45
626,362	17,5
626,822	17,56
627,282	17,58
627,742	17,32
628,201	17,4
628,661	17,35
629,12	17,25
629,579	17,2
630,038	17,38
630,497	17,19
630,956	17,28
631,415	17,12
631,874	17,25
632,332	17,28
632,791	17,21
633,249	17,06
633,708	17
634,166	17,07
634,624	16,68
635,082	16,81
635,54	16,66
635,998	16,59
636,455	16,4
636,913	16,25
637,37	16,31
637,828	16,07
638,285	15,88
638,742	15,91
639,199	15,72
639,656	15,51
640,113	15,3
640,57	15,37
641,027	15,17
641,483	14,86
641,94	14,67
642,396	14,56
642,852	14,5
643,309	14,4
643,765	14,13
644,221	13,9
644,676	13,76
645,132	13,78
645,588	13,57
646,043	13,37
646,499	13,13
646,954	13,02
647,409	12,97
647,864	12,82
648,319	12,67
648,774	12,52
649,229	12,4
649,684	12,3
650,139	12,2
650,593	12,11
651,047	11,97
651,502	12,03
651,956	11,93
652,41	11,76
652,864	11,81
653,318	11,67
653,772	11,73
654,225	11,67
654,679	11,59
655,133	11,54
655,586	11,48
656,039	11,41
656,492	11,26
656,946	11,17
657,399	11,14
657,851	10,95
658,304	10,99
658,757	10,93
659,209	10,72
659,662	10,57
660,114	10,52
660,567	10,45
661,019	10,39
661,471	10,17
661,923	10,15
662,375	10,01
662,826	9,96
663,278	9,8
663,73	9,71
664,181	9,66
664,632	9,56
665,084	9,5
665,535	9,46
665,986	9,42
666,437	9,36
666,888	9,22
667,338	9,21
667,789	9,22
668,24	9,17
668,69	9,09
669,14	9,07
669,591	9,17
670,041	9,17
670,491	9,15
670,941	9,14
671,391	9,19
671,84	9,18
672,29	9,23
672,74	9,32
673,189	9,37
673,638	9,34
674,088	9,36
674,537	9,51
674,986	9,56
675,435	9,67
675,883	9,75
676,332	9,76
676,781	9,89
677,229	9,97
677,678	10,15
678,126	10,2
678,574	10,37
679,022	10,52
679,47	10,6
679,918	10,67
680,366	10,72
680,814	11,05
681,261	11,14
681,709	11,31
682,156	11,45
682,604	11,52
683,051	11,64
683,498	11,88
683,945	12,04
684,392	12,26
684,839	12,4
685,286	12,71
685,732	12,82
686,179	13,12
686,625	13,34
687,071	13,52
687,518	13,95
687,964	14,21
688,41	14,54
688,856	14,86
689,301	15,31
689,747	15,54
690,193	16,14
690,638	16,46
691,084	17,17
691,529	17,55
691,974	18,09
692,419	18,72
692,864	19,15
693,309	19,83
693,754	20,37
694,199	21,12
694,643	21,49
695,088	22,13
695,532	23,03
695,977	23,52
696,421	24,1
696,865	24,82
697,309	25,51
697,753	25,98
698,197	26,71
698,64	27,19
699,084	27,75
699,527	28,45
699,971	29,04
700,414	29,61
700,857	30,23
701,3	30,71
701,743	31,03
702,186	31,91
702,629	32,41
703,072	32,8
703,515	33,29
703,957	33,94
704,399	34,26
704,842	34,73
705,284	35
705,726	35,47
706,168	36,05
706,61	36,53
707,052	36,78
707,494	37,37
707,935	37,74
708,377	38,31
708,818	38,63
709,26	38,85
709,701	39,36
710,142	39,44
710,583	40,04
711,024	40,49
711,465	40,84
711,905	41,12
712,346	41,55
712,787	41,65
713,227	42,13
713,667	42,66
714,108	43,07
714,548	43,06
714,988	43,36
715,428	43,7
715,868	44,16
716,307	44,21
716,747	44,74
717,186	45,07
717,626	45,29
718,065	45,6
718,504	45,76
718,944	46,12
719,383	46,5
719,822	46,68
720,261	46,85
720,699	47,01
721,138	47,09
721,576	47,66
722,015	47,78
722,453	48,19
722,892	48,26
723,33	48,36
723,768	48,71
724,206	49,06
724,644	49,19
725,081	49,41
725,519	49,42
725,957	49,5
726,394	49,83
726,832	49,69
727,269	50,23
727,706	50,24
728,143	50,52
728,58	50,6
729,017	50,58
729,454	51,07
729,89	50,86
730,327	50,9
730,764	51,1
731,2	51,34
731,636	51,32
732,072	51,5
732,509	51,53
732,945	51,73
733,38	51,81
733,816	51,81
734,252	51,92
734,688	51,71
735,123	51,93
735,559	52,33
735,994	52,11
736,429	52,24
736,864	52,3
737,299	52,05
737,734	52,12
738,169	52,39
738,604	52,48
739,038	52,31
739,473	52,5
739,907	52,63
740,342	52,47
740,776	52,23
741,21	52,77
741,644	52,63
742,078	52,9
742,512	52,67
742,946	52,69
743,379	52,56
743,813	52,55
744,246	52,66
744,68	52,72
745,113	52,63
745,546	52,53
745,979	52,72
746,412	52,58
746,845	52,35
747,278	52,8
747,711	52,55
748,143	52,71
748,576	52,29
749,008	52,45
749,441	52,44
749,873	52,48
750,305	52,44
750,737	52,36
751,169	52,16
751,601	52,23
752,032	52,4
752,464	52,41
752,896	52,4
753,327	52,21
753,758	52,13
754,19	52,19
754,621	52,32
755,052	52,08
755,483	52
755,914	52,03
756,344	52,17
756,775	51,99
757,206	52,05
757,636	51,84
758,066	51,93
758,497	51,85
758,927	51,69
759,357	51,78
759,787	51,98
760,217	51,61
760,647	51,45
761,076	51,72
761,506	51,61
761,935	51,41
762,365	51,64
762,794	51,59
763,223	51,5
763,653	51,77
764,082	51,52
764,51	51,47
764,939	51,45
765,368	51,53
765,797	51,5
766,225	51,31
766,654	51,27
767,082	51,04
767,51	51,53
767,938	51,16
768,367	51,21
768,795	51,2
769,222	51,29
769,65	51,13
770,078	51,32
770,505	50,96
770,933	51,02
771,36	51,18
771,788	51,01
772,215	50,97
772,642	50,8
773,069	51,07
773,496	50,83
773,923	50,91
774,349	50,79
774,776	50,83
775,203	50,8
775,629	50,63
776,055	50,74
776,482	50,83
776,908	50,74
777,334	50,76
777,76	50,65
778,186	50,63
778,611	50,61
779,037	50,81
779,463	50,61
779,888	50,51
780,314	50,3
780,739	50,69
781,164	50,46
781,589	50,49
782,014	50,41
782,439	50,45
782,864	50,37
783,289	50,58
783,713	50,42
784,138	50,27
784,562	50,49
784,987	50,42
785,411	50,46
785,835	50,15
786,259	50,4
786,683	50,47
787,107	50,48
787,531	50,22
787,954	50,14
788,378	50,45
788,802	50,56
789,225	50,3
789,648	50,26
790,071	50,41
790,495	50,11
790,918	50,17
791,34	50,43
791,763	50,2
792,186	50,09
792,609	50,56
793,031	50,02
793,454	50,18
793,876	50,13
794,298	50,16
794,721	50,21
795,143	50,16
795,565	50,08
795,986	50,22
796,408	50,15
796,83	50,1
797,252	50,39
797,673	50,29
798,094	49,95
798,516	49,88
798,937	50,07
799,358	49,91
799,779	50,12
800,2	50,03
800,621	50,02
801,042	49,95
801,462	49,9
801,883	50,14
802,303	49,97
802,724	49,9
803,144	50,19
803,564	49,91
803,984	50,05
804,404	49,83
804,824	50,21
805,244	49,98
805,664	50,23
806,084	49,93
806,503	50,07
806,923	49,96
807,342	49,98
807,761	49,78
808,18	49,95
808,599	49,99
809,018	49,84
809,437	49,96
809,856	49,69
810,275	49,66
810,693	49,75
811,112	49,87
811,53	49,66
811,949	50,15
812,367	49,83
812,785	49,99
813,203	50,06
813,621	49,9
814,039	49,73
814,457	49,78
814,874	49,84
815,292	49,66
815,709	49,88
816,127	49,85
816,544	50,22
816,961	49,81
817,378	49,99
817,795	49,73
818,212	49,75
818,629	49,78
819,046	49,65
819,462	49,79
819,879	49,89
820,295	49,56
820,712	49,81
821,128	49,8
821,544	49,52
821,96	49,7
822,376	49,81
822,792	49,77
823,208	49,81
823,624	49,67
824,039	50,05
824,455	49,59
824,87	49,6
825,286	49,81
825,701	49,58
826,116	49,3
826,531	49,63
826,946	49,53
827,361	49,4
827,776	49,5
828,19	49,53
828,605	49,91
829,02	49,6
829,434	49,6
829,848	49,73
830,263	49,6
830,677	49,39
831,091	49,73
831,505	49,48
831,919	49,68
832,332	49,33
832,746	49,49
833,16	49,45
833,573	49,55
833,987	49,46
834,4	49,65
834,813	49,68
835,226	49,75
835,639	49,48
836,052	49,53
836,465	49,57
836,878	49,74
837,29	49,38
837,703	49,39
838,116	49,46
838,528	49,27
838,94	49,63
