Data from C2__Relative__4__00015.txt Node

Date: Tue Jan 30 17:52:05 CET 2024
User: diatiterra
Spectrometer: HDX00911
Trigger mode: 0
Integration Time (sec): 6,000000E-3
Scans to average: 3
Nonlinearity correction enabled: true
Boxcar width: 0
Storing dark spectrum: false
XAxis mode: Wavelengths
Number of Pixels in Spectrum: 2068
>>>>>Begin Spectral Data<<<<<
194,468	74,45
195,025	62,88
195,581	70,11
196,138	68,58
196,694	68,26
197,251	61,07
197,807	62,82
198,363	58,7
198,919	68,92
199,474	68,36
200,03	62,89
200,586	58,58
201,141	57,28
201,696	56,78
202,251	56,41
202,806	54,98
203,361	58,56
203,916	59,03
204,471	58,14
205,025	59,3
205,58	61,01
206,134	63,08
206,688	56,42
207,242	59,91
207,796	57,31
208,35	63,52
208,904	61,77
209,457	61,85
210,011	59,91
210,564	54,45
211,117	58,19
211,67	65,36
212,223	64,42
212,776	62,81
213,329	66,31
213,881	63,94
214,434	58,55
214,986	62,74
215,538	60,77
216,09	57,4
216,642	60,69
217,194	58,22
217,746	61,08
218,297	53,77
218,849	68,89
219,4	65,33
219,951	60,12
220,502	68,66
221,053	56,3
221,604	58,22
222,155	62,21
222,705	60,08
223,256	58,44
223,806	58,39
224,356	59,83
224,906	61,78
225,456	56,34
226,006	54,96
226,556	58,19
227,106	58,55
227,655	56,33
228,204	58,07
228,754	58,36
229,303	57,65
229,852	58,91
230,401	63,54
230,949	57,85
231,498	56,5
232,047	52,65
232,595	57,6
233,143	61,02
233,691	55,46
234,239	53,05
234,787	53,98
235,335	56,96
235,883	59,51
236,43	58,17
236,978	54,26
237,525	56,67
238,072	51,46
238,619	63,26
239,166	57,61
239,713	60,03
240,26	61,03
240,806	54,48
241,353	57,82
241,899	56,05
242,445	58,56
242,991	57,69
243,537	56,87
244,083	60,03
244,629	57,97
245,174	57,38
245,72	62,47
246,265	60,25
246,81	61,81
247,355	55,07
247,9	59,12
248,445	53,78
248,99	63,26
249,534	62,06
250,079	64,32
250,623	54,9
251,168	55,99
251,712	55,41
252,256	49,78
252,8	56,23
253,343	59,58
253,887	54,93
254,43	60,89
254,974	59,96
255,517	66,45
256,06	60,55
256,603	60,34
257,146	60,13
257,689	59,5
258,232	59,74
258,774	60,3
259,317	62,21
259,859	51,37
260,401	60,86
260,943	63,56
261,485	55,51
262,027	62,45
262,569	59,06
263,11	56,26
263,652	55,67
264,193	58,19
264,734	56,5
265,275	58,94
265,816	59,73
266,357	57,29
266,898	57,14
267,438	57,62
267,979	62,82
268,519	59,26
269,059	58,86
269,6	60,67
270,14	59,46
270,68	56,47
271,219	58,1
271,759	55,92
272,298	53,77
272,838	61
273,377	56,62
273,916	55,46
274,455	53,96
274,994	65,35
275,533	57,33
276,072	60,31
276,61	52,93
277,149	59,44
277,687	56,11
278,225	59,58
278,763	62,25
279,301	54,51
279,839	55,91
280,377	60,95
280,914	55,72
281,452	66,22
281,989	60,58
282,526	57,84
283,064	56,56
283,601	50,97
284,137	62,23
284,674	60,97
285,211	63,13
285,747	59,75
286,284	57,09
286,82	57,33
287,356	62
287,892	55,7
288,428	57,27
288,964	52,07
289,5	55,41
290,035	58,3
290,571	56,38
291,106	57,05
291,641	60,64
292,176	60,5
292,711	52,91
293,246	60,85
293,781	56,16
294,315	55,48
294,85	61,31
295,384	57,29
295,918	55,06
296,453	56,02
296,987	55,67
297,52	50,78
298,054	52,19
298,588	59,64
299,121	59,74
299,655	55,15
300,188	50,44
300,721	51,76
301,254	51,43
301,787	54,45
302,32	60,72
302,853	58,46
303,385	53,11
303,918	54,8
304,45	51,18
304,982	58,19
305,514	56,41
306,046	53,89
306,578	54,53
307,11	55,85
307,641	60,87
308,173	56,38
308,704	56,36
309,236	50,59
309,767	54,04
310,298	46,42
310,829	55,39
311,359	57,26
311,89	55,28
312,421	50,42
312,951	53,3
313,481	62,17
314,012	53,69
314,542	53,83
315,072	55,23
315,601	51,06
316,131	59,88
316,661	54,05
317,19	56,47
317,72	54,05
318,249	51,6
318,778	54,74
319,307	53,14
319,836	55,93
320,365	53,05
320,893	56,26
321,422	51,74
321,95	49,04
322,479	56,9
323,007	55,76
323,535	48,82
324,063	53,13
324,591	56,37
325,118	52,21
325,646	58,21
326,173	52,83
326,701	54,25
327,228	54,89
327,755	59,68
328,282	51,49
328,809	47,59
329,336	57,25
329,862	48,7
330,389	53,92
330,915	53,44
331,441	53,28
331,968	49,89
332,494	54,74
333,02	56,99
333,545	55,94
334,071	47,78
334,597	51,77
335,122	55,8
335,648	53,74
336,173	54,16
336,698	49,48
337,223	47,74
337,748	52,13
338,272	53,58
338,797	48,48
339,322	55,13
339,846	48,87
340,37	51,57
340,894	49,79
341,419	51,14
341,942	50,96
342,466	47,89
342,99	52,91
343,514	48,05
344,037	47,57
344,56	53,65
345,084	48,4
345,607	48,27
346,13	49,89
346,653	44,05
347,175	48,46
347,698	56,72
348,221	47,85
348,743	46,88
349,265	45,65
349,787	49,35
350,309	53,37
350,831	49,35
351,353	43,28
351,875	47,14
352,397	47,8
352,918	46,73
353,439	47,55
353,961	47,33
354,482	45,05
355,003	42,71
355,524	44,18
356,044	48,24
356,565	45,41
357,086	46,65
357,606	45,4
358,126	47,06
358,646	46,53
359,167	47,89
359,687	47,43
360,206	46,11
360,726	46,4
361,246	51,21
361,765	43,48
362,285	43,58
362,804	43,62
363,323	44,2
363,842	48,18
364,361	46,3
364,88	46,01
365,398	44,77
365,917	48,11
366,435	43,23
366,954	47,4
367,472	41,97
367,99	44,83
368,508	43,58
369,026	45,72
369,544	45,59
370,061	45,65
370,579	44,4
371,096	42,7
371,613	47,57
372,131	46,01
372,648	43,82
373,165	42,58
373,681	44,02
374,198	45,27
374,715	46,87
375,231	43,79
375,747	44,98
376,264	42,18
376,78	44,63
377,296	46,06
377,812	44,12
378,327	41,49
378,843	42,06
379,359	42,91
379,874	41,96
380,389	40,24
380,905	44,38
381,42	41,61
381,935	41,43
382,449	38,78
382,964	40,49
383,479	40,56
383,993	39,96
384,508	36,55
385,022	37,51
385,536	41,78
386,05	40,2
386,564	40,25
387,078	38,68
387,592	37,52
388,105	34,8
388,619	37
389,132	34,92
389,645	34,61
390,158	35,86
390,671	34,18
391,184	35,41
391,697	33,59
392,21	35,39
392,722	35,68
393,235	34,23
393,747	32,49
394,259	31,89
394,771	31,05
395,283	31,62
395,795	32,07
396,307	32,91
396,818	32,7
397,33	32,5
397,841	30,34
398,353	29,31
398,864	30,78
399,375	28,46
399,886	28,81
400,397	28,01
400,907	26,37
401,418	26,05
401,928	29,06
402,439	26,49
402,949	26,63
403,459	25,23
403,969	24,71
404,479	23,19
404,989	21,92
405,498	22,75
406,008	22,19
406,517	21,85
407,027	22,21
407,536	21,48
408,045	20,16
408,554	18,67
409,063	18,33
409,572	18,32
410,08	17,75
410,589	17,33
411,097	17,32
411,606	16,46
412,114	16,03
412,622	15,23
413,13	15,35
413,638	15,42
414,145	14,5
414,653	14,41
415,16	13,86
415,668	13,55
416,175	12,46
416,682	12,75
417,189	12,53
417,696	12,33
418,203	12,21
418,71	12,6
419,216	11,68
419,723	12,08
420,229	11,93
420,735	11,54
421,242	11,23
421,748	11,01
422,254	10,93
422,759	11,45
423,265	10,51
423,771	10,81
424,276	10,9
424,781	10,1
425,287	10,31
425,792	10,45
426,297	10,05
426,802	10,19
427,306	10,24
427,811	10,32
428,316	10
428,82	9,89
429,324	10,15
429,829	9,73
430,333	9,47
430,837	9,35
431,34	9,55
431,844	9,76
432,348	9,9
432,851	9,35
433,355	9,34
433,858	9,68
434,361	9,42
434,864	9,32
435,367	9,27
435,87	9,14
436,373	9,06
436,876	8,97
437,378	9,4
437,88	9,04
438,383	9,3
438,885	9,34
439,387	8,84
439,889	9,21
440,391	9,19
440,892	8,94
441,394	8,85
441,896	9,36
442,397	9,33
442,898	9,22
443,399	9,38
443,9	9,26
444,401	9,21
444,902	8,91
445,403	9,32
445,903	9,05
446,404	9,19
446,904	9,62
447,405	9,28
447,905	9,33
448,405	9,72
448,905	9,27
449,404	9,83
449,904	9,45
450,404	9,45
450,903	9,84
451,403	9,55
451,902	9,82
452,401	9,76
452,9	9,89
453,399	9,86
453,898	9,73
454,396	10,04
454,895	10,13
455,393	9,75
455,892	9,83
456,39	9,88
456,888	10,04
457,386	9,95
457,884	10,15
458,382	10,27
458,879	9,99
459,377	10,2
459,874	10,02
460,372	9,99
460,869	10,05
461,366	10,05
461,863	10,05
462,36	10,05
462,857	10,27
463,353	10,58
463,85	9,87
464,346	9,92
464,843	10,08
465,339	10,41
465,835	10,07
466,331	10,17
466,827	10,02
467,323	10,13
467,818	10,15
468,314	10,2
468,809	9,89
469,305	10,09
469,8	10,12
470,295	9,94
470,79	10,19
471,285	10,19
471,78	10,21
472,274	10
472,769	9,99
473,263	10,23
473,758	10,03
474,252	10,42
474,746	10,08
475,24	10,23
475,734	10,06
476,228	10,13
476,721	9,97
477,215	10,25
477,708	10,42
478,202	10,21
478,695	10,25
479,188	10,24
479,681	10,57
480,174	10,27
480,667	10,38
481,159	10,35
481,652	10,4
482,144	10,37
482,637	10,48
483,129	10,18
483,621	10,42
484,113	10,41
484,605	10,58
485,097	10,57
485,588	10,46
486,08	10,39
486,571	10,28
487,063	10,61
487,554	10,58
488,045	10,7
488,536	10,52
489,027	10,76
489,518	10,94
490,008	10,84
490,499	10,99
490,989	11,07
491,48	11,14
491,97	11,22
492,46	11,15
492,95	11,34
493,44	11,18
493,93	11,24
494,419	11,31
494,909	11,57
495,398	11,52
495,888	11,64
496,377	12,11
496,866	12,12
497,355	12,09
497,844	12,24
498,333	12,31
498,821	12,71
499,31	12,61
499,798	12,63
500,287	12,75
500,775	13,13
501,263	13,55
501,751	13,37
502,239	13,59
502,727	14
503,215	13,86
503,702	14,08
504,19	14,29
504,677	14,84
505,164	14,46
505,651	14,95
506,139	15,3
506,625	15,72
507,112	15,85
507,599	15,84
508,086	16,28
508,572	16,44
509,058	16,56
509,545	16,77
510,031	17,37
510,517	17,46
511,003	17,91
511,489	18,38
511,974	18,45
512,46	18,87
512,946	19,12
513,431	19,63
513,916	19,66
514,401	20,14
514,887	20,59
515,371	21,29
515,856	21,11
516,341	21,82
516,826	22,09
517,31	22,36
517,795	22,75
518,279	23,19
518,763	23,51
519,247	24,17
519,731	24,6
520,215	24,73
520,699	25,15
521,182	25,54
521,666	26,19
522,149	26,41
522,633	26,79
523,116	26,88
523,599	27,51
524,082	28,08
524,565	28,3
525,048	28,4
525,53	28,77
526,013	29,29
526,495	29,44
526,978	29,97
527,46	30,21
527,942	30,71
528,424	31,08
528,906	31,16
529,388	31,06
529,87	31,39
530,351	31,72
530,833	31,73
531,314	32,31
531,795	32,33
532,277	32,51
532,758	32,72
533,238	32,74
533,719	32,87
534,2	32,93
534,681	33,32
535,161	33,65
535,642	33,48
536,122	33,48
536,602	33,63
537,082	33,76
537,562	34,03
538,042	34,27
538,522	34,07
539,001	34,25
539,481	34,37
539,96	34,31
540,44	34,42
540,919	34,31
541,398	34,7
541,877	34,73
542,356	34,64
542,835	34,68
543,313	34,66
543,792	35,23
544,27	35
544,749	34,55
545,227	34,88
545,705	35,28
546,183	35,09
546,661	35,09
547,139	35,43
547,616	35,19
548,094	35,15
548,571	35,62
549,049	35,27
549,526	35,78
550,003	35,81
550,48	35,36
550,957	35,96
551,434	35,35
551,911	35,7
552,387	35,8
552,864	35,62
553,34	35,83
553,817	35,77
554,293	35,81
554,769	35,78
555,245	35,76
555,721	35,48
556,197	35,75
556,672	35,65
557,148	35,86
557,623	35,58
558,099	35,77
558,574	35,43
559,049	35,37
559,524	35,51
559,999	35,3
560,474	35,18
560,948	35,06
561,423	34,72
561,897	34,93
562,372	34,6
562,846	34,93
563,32	34,58
563,794	34,62
564,268	34,21
564,742	34,37
565,216	34,12
565,69	34,16
566,163	33,85
566,636	33,79
567,11	33,5
567,583	33,16
568,056	32,94
568,529	32,78
569,002	32,57
569,475	32,47
569,947	32,3
570,42	32,17
570,892	31,69
571,365	31,67
571,837	31,48
572,309	31,31
572,781	30,91
573,253	30,88
573,725	30,5
574,197	30,38
574,668	30,52
575,14	29,93
575,611	29,89
576,082	29,48
576,554	29,69
577,025	29,54
577,496	29,05
577,967	28,97
578,437	28,7
578,908	28,49
579,379	28,37
579,849	28,3
580,319	28,2
580,79	27,91
581,26	27,91
581,73	27,61
582,2	27,88
582,669	27,49
583,139	27,27
583,609	27,16
584,078	27,03
584,548	26,73
585,017	26,79
585,486	26,72
585,955	26,34
586,424	26,39
586,893	26,36
587,362	26,31
587,83	26,16
588,299	25,94
588,767	25,85
589,236	25,73
589,704	25,66
590,172	25,54
590,64	25,42
591,108	25,43
591,576	25,5
592,043	25,22
592,511	25,14
592,978	25,08
593,446	25,18
593,913	24,81
594,38	24,78
594,847	24,98
595,314	24,64
595,781	24,6
596,248	24,76
596,715	24,49
597,181	24,68
597,647	24,46
598,114	24,27
598,58	24,45
599,046	24,36
599,512	24,38
599,978	24,1
600,444	24,21
600,91	24,32
601,375	24,04
601,841	24,25
602,306	24,05
602,771	24,07
603,236	23,95
603,702	23,95
604,167	23,73
604,631	23,72
605,096	23,75
605,561	23,6
606,025	23,49
606,49	23,25
606,954	23,33
607,418	23,16
607,882	23,06
608,347	22,89
608,81	22,94
609,274	22,55
609,738	22,62
610,202	22,68
610,665	22,39
611,128	22,31
611,592	22,09
612,055	21,84
612,518	21,96
612,981	22,03
613,444	21,63
613,907	21,54
614,369	21,41
614,832	21,38
615,294	21,1
615,757	21,27
616,219	20,99
616,681	21,11
617,143	20,74
617,605	20,72
618,067	20,62
618,529	20,4
618,99	20,3
619,452	20,47
619,913	20,3
620,375	20,02
620,836	19,98
621,297	20
621,758	19,82
622,219	19,77
622,68	19,8
623,14	19,87
623,601	19,7
624,061	19,66
624,522	19,54
624,982	19,64
625,442	19,49
625,902	19,52
626,362	19,4
626,822	19,53
627,282	19,32
627,742	19,18
628,201	19,43
628,661	19,28
629,12	19,29
629,579	19,27
630,038	19,36
630,497	19,24
630,956	19,26
631,415	19,07
631,874	19,15
632,332	19,14
632,791	19,21
633,249	19,01
633,708	18,8
634,166	18,88
634,624	18,71
635,082	18,85
635,54	18,55
635,998	18,51
636,455	18,24
636,913	18,34
637,37	18,21
637,828	17,87
638,285	17,96
638,742	17,76
639,199	17,64
639,656	17,51
640,113	17,37
640,57	17,18
641,027	17,1
641,483	16,8
641,94	16,59
642,396	16,61
642,852	16,29
643,309	16,25
643,765	16,07
644,221	15,98
644,676	15,71
645,132	15,62
645,588	15,5
646,043	15,23
646,499	15,2
646,954	14,98
647,409	14,87
647,864	14,65
648,319	14,54
648,774	14,46
649,229	14,27
649,684	14,18
650,139	14,02
650,593	14,04
651,047	13,87
651,502	13,75
651,956	13,7
652,41	13,74
652,864	13,59
653,318	13,54
653,772	13,38
654,225	13,42
654,679	13,33
655,133	13,28
655,586	13,12
656,039	13,13
656,492	12,97
656,946	12,98
657,399	12,88
657,851	12,76
658,304	12,58
658,757	12,45
659,209	12,27
659,662	12,22
660,114	12,08
660,567	11,92
661,019	11,94
661,471	11,74
661,923	11,68
662,375	11,47
662,826	11,3
663,278	11,34
663,73	11,23
664,181	11,15
664,632	11,03
665,084	10,9
665,535	10,77
665,986	10,8
666,437	10,63
666,888	10,6
667,338	10,55
667,789	10,63
668,24	10,42
668,69	10,52
669,14	10,52
669,591	10,52
670,041	10,33
670,491	10,42
670,941	10,43
671,391	10,53
671,84	10,4
672,29	10,54
672,74	10,59
673,189	10,52
673,638	10,55
674,088	10,71
674,537	10,7
674,986	10,72
675,435	10,75
675,883	10,83
676,332	10,97
676,781	10,99
677,229	11,16
677,678	11,28
678,126	11,35
678,574	11,51
679,022	11,58
679,47	11,71
679,918	11,75
680,366	11,9
680,814	12,04
681,261	12,12
681,709	12,25
682,156	12,43
682,604	12,49
683,051	12,67
683,498	12,97
683,945	13,18
684,392	13,44
684,839	13,44
685,286	13,73
685,732	14,01
686,179	14,22
686,625	14,44
687,071	14,77
687,518	15,17
687,964	15,39
688,41	15,79
688,856	16,17
689,301	16,53
689,747	16,86
690,193	17,42
690,638	18,04
691,084	18,4
691,529	18,98
691,974	19,66
692,419	20,26
692,864	20,85
693,309	21,44
693,754	22,05
694,199	22,78
694,643	23,55
695,088	24,11
695,532	24,99
695,977	25,51
696,421	26,15
696,865	26,85
697,309	27,86
697,753	28,44
698,197	29,05
698,64	29,76
699,084	30,33
699,527	31,1
699,971	31,82
700,414	32,38
700,857	33,06
701,3	33,81
701,743	34,06
702,186	34,89
702,629	35,29
703,072	36,11
703,515	36,6
703,957	36,95
704,399	37,48
704,842	38,16
705,284	38,49
705,726	39,05
706,168	39,59
706,61	40,33
707,052	40,83
707,494	40,88
707,935	41,6
708,377	42,19
708,818	42,54
709,26	42,83
709,701	43,15
710,142	43,55
710,583	44,01
711,024	44,48
711,465	44,9
711,905	45,22
712,346	45,52
712,787	45,91
713,227	46,39
713,667	46,88
714,108	47,18
714,548	47,46
714,988	47,74
715,428	48,14
715,868	48,53
716,307	48,66
716,747	49,27
717,186	49,46
717,626	49,7
718,065	50,25
718,504	50,2
718,944	50,96
719,383	51,06
719,822	51,3
720,261	51,32
720,699	51,77
721,138	51,83
721,576	52,17
722,015	52,5
722,453	52,73
722,892	52,99
723,33	53,26
723,768	53,47
724,206	53,88
724,644	53,68
725,081	54,15
725,519	54,3
725,957	54,33
726,394	54,54
726,832	54,64
727,269	55
727,706	54,72
728,143	55,29
728,58	55,63
729,017	55,41
729,454	55,83
729,89	55,8
730,327	55,97
730,764	56,24
731,2	56,09
731,636	56,21
732,072	56,41
732,509	56,63
732,945	56,53
733,38	56,69
733,816	56,78
734,252	56,85
734,688	57,01
735,123	56,86
735,559	57,28
735,994	57,16
736,429	57,36
736,864	57,2
737,299	57,06
737,734	57,28
738,169	57,33
738,604	57,42
739,038	57,64
739,473	57,56
739,907	57,85
740,342	57,76
740,776	57,44
741,21	57,74
741,644	58
742,078	57,95
742,512	57,76
742,946	57,81
743,379	57,86
743,813	57,81
744,246	57,5
744,68	57,84
745,113	57,79
745,546	57,97
745,979	57,57
746,412	57,86
746,845	57,64
747,278	57,88
747,711	57,57
748,143	57,63
748,576	57,68
749,008	57,69
749,441	57,67
749,873	57,59
750,305	57,59
750,737	57,38
751,169	57,47
751,601	57,58
752,032	57,33
752,464	57,28
752,896	57,18
753,327	57,25
753,758	57,07
754,19	57,25
754,621	57,37
755,052	57,48
755,483	57,25
755,914	57,27
756,344	57,49
756,775	57,36
757,206	57,64
757,636	57,1
758,066	57,23
758,497	57,15
758,927	56,99
759,357	57,11
759,787	57,29
760,217	57,01
760,647	56,89
761,076	57,23
761,506	56,79
761,935	56,78
762,365	56,68
762,794	56,77
763,223	56,67
763,653	56,76
764,082	56,81
764,51	56,93
764,939	56,8
765,368	56,72
765,797	56,8
766,225	56,81
766,654	56,5
767,082	56,53
767,51	56,65
767,938	56,53
768,367	56,68
768,795	56,43
769,222	56,56
769,65	56,65
770,078	56,68
770,505	56,43
770,933	56,37
771,36	56,43
771,788	56,39
772,215	56,42
772,642	56,3
773,069	56,15
773,496	56,14
773,923	56,22
774,349	56,35
774,776	56,3
775,203	56,2
775,629	56,01
776,055	56,08
776,482	56,12
776,908	55,95
777,334	55,91
777,76	56
778,186	56,06
778,611	56,03
779,037	55,82
779,463	56,05
779,888	55,86
780,314	55,85
780,739	56
781,164	55,91
781,589	55,82
782,014	55,8
782,439	55,97
782,864	55,85
783,289	55,98
783,713	55,9
784,138	55,53
784,562	55,83
784,987	55,58
785,411	55,8
785,835	55,58
786,259	55,75
786,683	55,76
787,107	55,75
787,531	55,69
787,954	55,3
788,378	55,68
788,802	55,64
789,225	55,61
789,648	55,61
790,071	55,94
790,495	55,46
790,918	55,8
791,34	55,55
791,763	55,51
792,186	55,82
792,609	55,58
793,031	55,55
793,454	55,71
793,876	55,48
794,298	55,62
794,721	55,61
795,143	55,83
795,565	55,43
795,986	55,81
796,408	55,5
796,83	55,73
797,252	55,82
797,673	55,51
798,094	55,4
798,516	55,4
798,937	55,66
799,358	55,61
799,779	55,62
800,2	55,66
800,621	55,59
801,042	55,5
801,462	55,58
801,883	55,67
802,303	55,51
802,724	55,41
803,144	55,65
803,564	55,22
803,984	55,34
804,404	55,65
804,824	55,57
805,244	55,44
805,664	55,55
806,084	55,14
806,503	55,5
806,923	55,4
807,342	55,63
807,761	55,34
808,18	55,56
808,599	55,56
809,018	55,52
809,437	55,63
809,856	55,22
810,275	55,23
810,693	55,35
811,112	55,37
811,53	55,37
811,949	55,69
812,367	55,23
812,785	55,58
813,203	55,32
813,621	55,5
814,039	55,24
814,457	55,05
814,874	55,31
815,292	55,8
815,709	55,18
816,127	55,71
816,544	55,46
816,961	55,37
817,378	55,5
817,795	55,45
818,212	55,41
818,629	55,58
819,046	55,34
819,462	55,37
819,879	55,45
820,295	55,24
820,712	54,83
821,128	55,55
821,544	55,15
821,96	55,26
822,376	55,22
822,792	55,12
823,208	55,25
823,624	55,37
824,039	55,4
824,455	55,16
824,87	55,49
825,286	55,12
825,701	55,37
826,116	54,93
826,531	55,3
826,946	55,19
827,361	55,29
827,776	54,98
828,19	54,97
828,605	55,26
829,02	55,29
829,434	55,24
829,848	55,44
830,263	55,21
830,677	55,21
831,091	55,32
831,505	55,17
831,919	55,08
832,332	55,04
832,746	55,11
833,16	55,18
833,573	55,06
833,987	55,12
834,4	55,07
834,813	55,08
835,226	54,77
835,639	54,82
