Data from C2__Relative__8__00019.txt Node

Date: Tue Jan 30 17:52:29 CET 2024
User: diatiterra
Spectrometer: HDX00911
Trigger mode: 0
Integration Time (sec): 6,000000E-3
Scans to average: 3
Nonlinearity correction enabled: true
Boxcar width: 0
Storing dark spectrum: false
XAxis mode: Wavelengths
Number of Pixels in Spectrum: 2068
>>>>>Begin Spectral Data<<<<<
194,468	65,09
195,025	56,59
195,581	66,9
196,138	49,05
196,694	55,63
197,251	49,43
197,807	45,8
198,363	44,02
198,919	46,96
199,474	49,67
200,03	48,43
200,586	46,66
201,141	38,86
201,696	41,7
202,251	45
202,806	48,67
203,361	43,97
203,916	44,37
204,471	45,36
205,025	44,73
205,58	46,87
206,134	44,3
206,688	41,56
207,242	43,6
207,796	46,54
208,35	45,68
208,904	43,56
209,457	46,86
210,011	53,37
210,564	44,15
211,117	48,15
211,67	48,03
212,223	49,38
212,776	44,53
213,329	50,22
213,881	46,33
214,434	46,01
214,986	52,67
215,538	50,4
216,09	44,62
216,642	46,29
217,194	46,91
217,746	48,32
218,297	46,01
218,849	47
219,4	46,3
219,951	47,93
220,502	47,42
221,053	43,68
221,604	45,48
222,155	51,95
222,705	50,31
223,256	41,95
223,806	46,39
224,356	47,9
224,906	43,31
225,456	45,82
226,006	47,55
226,556	41,01
227,106	52,35
227,655	44,07
228,204	45,28
228,754	47,49
229,303	45,36
229,852	49,13
230,401	50,21
230,949	48,55
231,498	47,31
232,047	37,08
232,595	45,83
233,143	51,48
233,691	44,92
234,239	46,93
234,787	46,42
235,335	44,69
235,883	43,8
236,43	47,41
236,978	41,86
237,525	48,25
238,072	42,88
238,619	48,91
239,166	42,57
239,713	44,82
240,26	44,97
240,806	46,93
241,353	51,4
241,899	44,91
242,445	45,45
242,991	46,19
243,537	44,18
244,083	46,24
244,629	49,89
245,174	48,1
245,72	47,12
246,265	51,87
246,81	50,55
247,355	41,03
247,9	47,17
248,445	49,43
248,99	50,22
249,534	47,1
250,079	53,31
250,623	48,89
251,168	46,28
251,712	47,98
252,256	43,79
252,8	48,46
253,343	47,79
253,887	44,06
254,43	42,83
254,974	46,68
255,517	50,79
256,06	45,81
256,603	49,04
257,146	44,01
257,689	50,35
258,232	45,45
258,774	46,99
259,317	49,27
259,859	46,72
260,401	52,35
260,943	48,94
261,485	45,59
262,027	47,56
262,569	47,04
263,11	45,17
263,652	46,66
264,193	43,59
264,734	43,5
265,275	42,38
265,816	42,53
266,357	43,75
266,898	45,67
267,438	42,83
267,979	53,3
268,519	53,09
269,059	44,86
269,6	44,22
270,14	42,6
270,68	43,52
271,219	47,61
271,759	44,3
272,298	42,11
272,838	44,88
273,377	43,8
273,916	44,53
274,455	41,04
274,994	51,66
275,533	43,33
276,072	48,03
276,61	42,12
277,149	39,91
277,687	40,83
278,225	47,08
278,763	46,97
279,301	46,78
279,839	43,86
280,377	43,6
280,914	42,37
281,452	45,44
281,989	47,43
282,526	44,19
283,064	47,31
283,601	39,31
284,137	45,56
284,674	46,2
285,211	45,48
285,747	48,4
286,284	49,09
286,82	38,66
287,356	47,6
287,892	45,74
288,428	42,29
288,964	45,23
289,5	46,32
290,035	43,28
290,571	44,89
291,106	47,74
291,641	45,71
292,176	43,24
292,711	40,6
293,246	44,47
293,781	41,39
294,315	39,66
294,85	48,63
295,384	45,08
295,918	38,6
296,453	42,01
296,987	47,11
297,52	43,49
298,054	42,1
298,588	45,78
299,121	43,44
299,655	43,35
300,188	39,3
300,721	42,51
301,254	43,33
301,787	41,1
302,32	49,66
302,853	42,4
303,385	46
303,918	46,66
304,45	38,44
304,982	41,37
305,514	42,47
306,046	40,84
306,578	40,95
307,11	47,02
307,641	46,84
308,173	43,64
308,704	44,81
309,236	42,93
309,767	46,17
310,298	36,87
310,829	46,64
311,359	46,26
311,89	47,19
312,421	42,22
312,951	40,09
313,481	45,88
314,012	44,63
314,542	43,11
315,072	44,99
315,601	42,76
316,131	46,87
316,661	39,39
317,19	44,51
317,72	46,15
318,249	44,56
318,778	40,52
319,307	39,69
319,836	41,84
320,365	41,59
320,893	40,66
321,422	39,78
321,95	41,4
322,479	41,56
323,007	39,53
323,535	38,97
324,063	41,52
324,591	47,5
325,118	43,86
325,646	37,64
326,173	42,89
326,701	42,27
327,228	45,34
327,755	50,26
328,282	39,1
328,809	39,25
329,336	45,25
329,862	39,56
330,389	40,79
330,915	41,02
331,441	45,66
331,968	36,46
332,494	38,98
333,02	43,44
333,545	44,28
334,071	45,33
334,597	41,75
335,122	39,17
335,648	44,37
336,173	43,95
336,698	40,03
337,223	38,11
337,748	38,9
338,272	43,36
338,797	42,85
339,322	40,96
339,846	40,86
340,37	39,46
340,894	39,1
341,419	44,46
341,942	39,05
342,466	36,23
342,99	39,48
343,514	38,44
344,037	38,28
344,56	38,21
345,084	36,7
345,607	41,2
346,13	36,67
346,653	35,72
347,175	37,25
347,698	39,07
348,221	31,41
348,743	38,39
349,265	36,82
349,787	34,74
350,309	35,34
350,831	38
351,353	31,22
351,875	35,64
352,397	32,17
352,918	39,23
353,439	37,35
353,961	34,22
354,482	31,18
355,003	32,74
355,524	32,01
356,044	30,35
356,565	32,87
357,086	31,87
357,606	31,49
358,126	34,53
358,646	33,41
359,167	32,57
359,687	30,73
360,206	31,51
360,726	32,46
361,246	32,17
361,765	31,92
362,285	28,81
362,804	33,66
363,323	31,83
363,842	31,55
364,361	31,32
364,88	28,09
365,398	31,05
365,917	29,03
366,435	28,6
366,954	30,48
367,472	28,89
367,99	27,73
368,508	24,57
369,026	26,16
369,544	28,19
370,061	26,53
370,579	29,41
371,096	25,19
371,613	29,58
372,131	31,32
372,648	27,3
373,165	25,07
373,681	25,88
374,198	25,65
374,715	26,6
375,231	27,98
375,747	26,22
376,264	25,53
376,78	25,81
377,296	26,36
377,812	25,06
378,327	23,4
378,843	24,59
379,359	25,21
379,874	24,66
380,389	24,51
380,905	22,85
381,42	23,47
381,935	23,38
382,449	22,03
382,964	21,55
383,479	20,75
383,993	22,18
384,508	21,28
385,022	20,48
385,536	21,97
386,05	18,82
386,564	20,02
387,078	20,38
387,592	20,39
388,105	17,69
388,619	19,05
389,132	17
389,645	19,03
390,158	18,6
390,671	18,54
391,184	16,88
391,697	18,49
392,21	17,53
392,722	16,76
393,235	17,75
393,747	16,72
394,259	14,83
394,771	16,91
395,283	15,41
395,795	16,06
396,307	17,18
396,818	17,14
397,33	15,93
397,841	15,36
398,353	15,7
398,864	14,91
399,375	14,87
399,886	13,47
400,397	13,11
400,907	13,41
401,418	13,3
401,928	12,44
402,439	13,36
402,949	11,94
403,459	13,21
403,969	11,47
404,479	11,66
404,989	10,55
405,498	10,78
406,008	11,5
406,517	10
407,027	10,62
407,536	9,03
408,045	8,77
408,554	9,05
409,063	8,82
409,572	8,65
410,08	8,57
410,589	8,53
411,097	7,49
411,606	7,5
412,114	6,83
412,622	6,62
413,13	6,9
413,638	6,96
414,145	5,99
414,653	6,2
415,16	5,86
415,668	5,88
416,175	5,64
416,682	5,41
417,189	5,66
417,696	5,48
418,203	5,49
418,71	5,47
419,216	5
419,723	5,03
420,229	5,24
420,735	4,74
421,242	4,8
421,748	4,59
422,254	4,69
422,759	4,6
423,265	4,78
423,771	4,62
424,276	4,38
424,781	4,48
425,287	4,33
425,792	4,18
426,297	4,13
426,802	4,02
427,306	4,21
427,811	4,23
428,316	3,89
428,82	4,31
429,324	3,91
429,829	3,76
430,333	4,18
430,837	3,93
431,34	3,77
431,844	3,98
432,348	3,95
432,851	3,58
433,355	3,78
433,858	3,75
434,361	3,84
434,864	3,56
435,367	3,52
435,87	3,72
436,373	3,69
436,876	3,53
437,378	3,58
437,88	3,8
438,383	3,47
438,885	3,45
439,387	3,73
439,889	3,72
440,391	3,53
440,892	3,48
441,394	3,7
441,896	3,56
442,397	3,74
442,898	3,42
443,399	3,33
443,9	3,61
444,401	3,66
444,902	3,38
445,403	3,7
445,903	3,56
446,404	3,51
446,904	3,62
447,405	3,51
447,905	3,68
448,405	3,81
448,905	3,77
449,404	3,58
449,904	3,49
450,404	3,53
450,903	3,7
451,403	3,65
451,902	3,76
452,401	3,75
452,9	3,78
453,399	3,7
453,898	3,69
454,396	3,64
454,895	3,86
455,393	3,56
455,892	3,74
456,39	3,78
456,888	3,84
457,386	3,87
457,884	3,83
458,382	3,8
458,879	3,69
459,377	3,97
459,874	3,77
460,372	3,87
460,869	3,79
461,366	3,86
461,863	3,8
462,36	3,79
462,857	3,81
463,353	3,66
463,85	3,76
464,346	3,65
464,843	3,77
465,339	3,86
465,835	3,93
466,331	3,92
466,827	3,58
467,323	3,69
467,818	3,81
468,314	3,86
468,809	3,74
469,305	3,85
469,8	3,91
470,295	3,86
470,79	3,74
471,285	3,67
471,78	3,84
472,274	3,85
472,769	3,79
473,263	3,91
473,758	3,77
474,252	3,79
474,746	3,74
475,24	3,75
475,734	3,77
476,228	3,7
476,721	3,58
477,215	3,85
477,708	3,81
478,202	3,94
478,695	3,91
479,188	3,82
479,681	3,84
480,174	3,86
480,667	3,9
481,159	3,91
481,652	3,85
482,144	3,73
482,637	3,95
483,129	3,83
483,621	3,85
484,113	3,94
484,605	3,97
485,097	4,03
485,588	3,89
486,08	3,93
486,571	3,97
487,063	3,99
487,554	4,08
488,045	4,08
488,536	4,18
489,027	4,01
489,518	4,14
490,008	4,03
490,499	4,23
490,989	4,13
491,48	4,35
491,97	4,38
492,46	4,33
492,95	4,37
493,44	4,58
493,93	4,46
494,419	4,57
494,909	4,62
495,398	4,68
495,888	4,72
496,377	4,92
496,866	4,88
497,355	4,95
497,844	5,06
498,333	5,05
498,821	5,29
499,31	5,35
499,798	5,42
500,287	5,55
500,775	5,47
501,263	5,66
501,751	5,9
502,239	6,04
502,727	6,22
503,215	6,27
503,702	6,48
504,19	6,52
504,677	6,77
505,164	6,78
505,651	7,05
506,139	7,33
506,625	7,25
507,112	7,39
507,599	7,72
508,086	7,94
508,572	8,23
509,058	8,25
509,545	8,47
510,031	8,67
510,517	8,76
511,003	9,01
511,489	9,53
511,974	9,65
512,46	9,81
512,946	10,02
513,431	10,23
513,916	10,38
514,401	10,83
514,887	11,35
515,371	11,41
515,856	11,52
516,341	11,83
516,826	12,26
517,31	12,35
517,795	12,38
518,279	13,01
518,763	13,2
519,247	13,61
519,731	13,85
520,215	14,05
520,699	14,44
521,182	14,7
521,666	15,01
522,149	15,24
522,633	15,63
523,116	15,62
523,599	16,18
524,082	16,54
524,565	16,79
525,048	16,99
525,53	17,31
526,013	17,45
526,495	17,61
526,978	18,1
527,46	17,91
527,942	18,37
528,424	18,46
528,906	18,83
529,388	18,96
529,87	19,01
530,351	19,36
530,833	19,67
531,314	19,61
531,795	19,71
532,277	20,04
532,758	20,08
533,238	20,08
533,719	20,1
534,2	20,51
534,681	20,76
535,161	20,68
535,642	20,79
536,122	20,99
536,602	20,96
537,082	20,96
537,562	20,97
538,042	21,19
538,522	20,95
539,001	21,2
539,481	21,56
539,96	21,24
540,44	21,28
540,919	21,22
541,398	21,39
541,877	21,56
542,356	21,71
542,835	21,58
543,313	21,53
543,792	21,68
544,27	21,71
544,749	21,61
545,227	21,91
545,705	22,17
546,183	21,81
546,661	22,09
547,139	21,69
547,616	22,06
548,094	22
548,571	22,01
549,049	22,05
549,526	21,95
550,003	21,88
550,48	22,09
550,957	22,27
551,434	22,18
551,911	22,18
552,387	22,18
552,864	21,98
553,34	21,99
553,817	22,26
554,293	22,3
554,769	22,44
555,245	22,32
555,721	22,33
556,197	22,05
556,672	22,15
557,148	22,32
557,623	22,04
558,099	22,1
558,574	22,03
559,049	21,82
559,524	21,69
559,999	21,97
560,474	21,85
560,948	21,77
561,423	21,57
561,897	21,56
562,372	21,36
562,846	21,32
563,32	21,25
563,794	21,23
564,268	21,26
564,742	20,81
565,216	20,85
565,69	20,9
566,163	20,63
566,636	20,49
567,11	20,36
567,583	20,19
568,056	20,4
568,529	19,99
569,002	20,16
569,475	19,79
569,947	19,45
570,42	19,42
570,892	19,19
571,365	19,04
571,837	18,79
572,309	18,88
572,781	18,68
573,253	18,45
573,725	18,18
574,197	18,29
574,668	18,22
575,14	17,97
575,611	17,69
576,082	17,57
576,554	17,58
577,025	17,44
577,496	17,22
577,967	17,22
578,437	17,03
578,908	16,97
579,379	16,79
579,849	16,68
580,319	16,62
580,79	16,44
581,26	16,17
581,73	16,02
582,2	16,23
582,669	15,78
583,139	15,94
583,609	15,65
584,078	15,62
584,548	15,58
585,017	15,46
585,486	15,31
585,955	15,31
586,424	15,19
586,893	15,1
587,362	15,1
587,83	14,92
588,299	14,69
588,767	14,97
589,236	14,82
589,704	14,8
590,172	14,74
590,64	14,37
591,108	14,49
591,576	14,44
592,043	14,47
592,511	14,34
592,978	14,18
593,446	14,21
593,913	14,14
594,38	14,03
594,847	13,92
595,314	13,95
595,781	14
596,248	14,01
596,715	13,73
597,181	13,98
597,647	13,85
598,114	13,83
598,58	13,74
599,046	13,77
599,512	13,78
599,978	13,74
600,444	13,59
600,91	13,51
601,375	13,7
601,841	13,57
602,306	13,6
602,771	13,54
603,236	13,53
603,702	13,33
604,167	13,27
604,631	13,22
605,096	13,13
605,561	13,29
606,025	13,14
606,49	12,99
606,954	13,02
607,418	12,87
607,882	12,8
608,347	12,64
608,81	12,73
609,274	12,53
609,738	12,45
610,202	12,54
610,665	12,37
611,128	12,27
611,592	12,24
612,055	11,96
612,518	11,99
612,981	11,88
613,444	11,8
613,907	11,8
614,369	11,5
614,832	11,6
615,294	11,44
615,757	11,37
616,219	11,37
616,681	11,3
617,143	11,13
617,605	11,11
618,067	10,98
618,529	10,9
618,99	10,95
619,452	10,74
619,913	10,85
620,375	10,6
620,836	10,59
621,297	10,59
621,758	10,58
622,219	10,38
622,68	10,47
623,14	10,47
623,601	10,42
624,061	10,33
624,522	10,31
624,982	10,31
625,442	10,24
625,902	10,27
626,362	10,23
626,822	10,15
627,282	10,15
627,742	10,16
628,201	10,21
628,661	10,21
629,12	10,11
629,579	10,06
630,038	10,17
630,497	10,08
630,956	10,05
631,415	10,1
631,874	10,1
632,332	9,93
632,791	9,99
633,249	9,97
633,708	9,92
634,166	9,86
634,624	9,85
635,082	9,67
635,54	9,67
635,998	9,63
636,455	9,41
636,913	9,41
637,37	9,4
637,828	9,2
638,285	9,16
638,742	9,06
639,199	8,99
639,656	8,89
640,113	8,77
640,57	8,54
641,027	8,58
641,483	8,43
641,94	8,3
642,396	8,31
642,852	8,09
643,309	7,88
643,765	7,96
644,221	7,67
644,676	7,59
645,132	7,47
645,588	7,35
646,043	7,27
646,499	7,09
646,954	7,13
647,409	7
647,864	6,82
648,319	6,74
648,774	6,62
649,229	6,53
649,684	6,5
650,139	6,39
650,593	6,38
651,047	6,35
651,502	6,28
651,956	6,17
652,41	6,19
652,864	6,14
653,318	6,06
653,772	5,98
654,225	6,06
654,679	5,94
655,133	5,79
655,586	5,89
656,039	5,77
656,492	5,77
656,946	5,7
657,399	5,57
657,851	5,52
658,304	5,5
658,757	5,47
659,209	5,42
659,662	5,24
660,114	5,2
660,567	5,12
661,019	5,06
661,471	4,95
661,923	4,89
662,375	4,76
662,826	4,69
663,278	4,7
663,73	4,61
664,181	4,6
664,632	4,57
665,084	4,43
665,535	4,39
665,986	4,41
666,437	4,33
666,888	4,31
667,338	4,29
667,789	4,23
668,24	4,19
668,69	4,23
669,14	4,19
669,591	4,24
670,041	4,22
670,491	4,17
670,941	4,2
671,391	4,33
671,84	4,33
672,29	4,35
672,74	4,34
673,189	4,43
673,638	4,44
674,088	4,47
674,537	4,57
674,986	4,59
675,435	4,61
675,883	4,71
676,332	4,8
676,781	4,82
677,229	4,94
677,678	5,02
678,126	5,13
678,574	5,2
679,022	5,29
679,47	5,38
679,918	5,46
680,366	5,51
680,814	5,73
681,261	5,77
681,709	5,91
682,156	5,92
682,604	6,12
683,051	6,21
683,498	6,36
683,945	6,45
684,392	6,6
684,839	6,69
685,286	6,9
685,732	6,99
686,179	7,2
686,625	7,34
687,071	7,55
687,518	7,86
687,964	8,02
688,41	8,28
688,856	8,63
689,301	8,91
689,747	9,22
690,193	9,46
690,638	9,91
691,084	10,32
691,529	10,67
691,974	11,18
692,419	11,55
692,864	12
693,309	12,45
693,754	13,1
694,199	13,49
694,643	13,99
695,088	14,61
695,532	15,08
695,977	15,72
696,421	16,08
696,865	16,67
697,309	17,31
697,753	17,76
698,197	18,31
698,64	18,88
699,084	19,43
699,527	19,96
699,971	20,55
700,414	20,84
700,857	21,43
701,3	21,9
701,743	22,37
702,186	22,84
702,629	23,4
703,072	23,92
703,515	24,24
703,957	24,54
704,399	25,01
704,842	25,47
705,284	25,83
705,726	26,23
706,168	26,75
706,61	27,16
707,052	27,53
707,494	27,68
707,935	28,26
708,377	28,74
708,818	28,86
709,26	29,23
709,701	29,58
710,142	29,71
710,583	30,34
711,024	30,47
711,465	31,07
711,905	31,14
712,346	31,48
712,787	31,8
713,227	32,08
713,667	32,61
714,108	32,82
714,548	33,1
714,988	33,19
715,428	33,54
715,868	33,8
716,307	33,84
716,747	34,32
717,186	34,78
717,626	34,92
718,065	35,12
718,504	35,24
718,944	35,65
719,383	35,83
719,822	35,93
720,261	36,15
720,699	36,45
721,138	36,53
721,576	36,68
722,015	36,89
722,453	37,41
722,892	37,56
723,33	37,55
723,768	37,85
724,206	38,01
724,644	37,96
725,081	38,32
725,519	38,46
725,957	38,63
726,394	38,84
726,832	38,61
727,269	38,97
727,706	39,28
728,143	39,35
728,58	39,38
729,017	39,37
729,454	39,83
729,89	39,54
730,327	39,75
730,764	40,18
731,2	39,91
731,636	40,15
732,072	40,47
732,509	40,43
732,945	40,27
733,38	40,48
733,816	40,53
734,252	40,31
734,688	40,57
735,123	40,7
735,559	40,96
735,994	40,97
736,429	41
736,864	40,75
737,299	40,79
737,734	40,94
738,169	40,94
738,604	41,01
739,038	40,92
739,473	40,97
739,907	41,41
740,342	41,26
740,776	41,12
741,21	41,33
741,644	41,23
742,078	41,43
742,512	41,36
742,946	41,54
743,379	41,36
743,813	41,36
744,246	41,35
744,68	41,46
745,113	41,54
745,546	41,25
745,979	41,17
746,412	41,28
746,845	41,08
747,278	41,44
747,711	41,28
748,143	41,21
748,576	41,31
749,008	41,08
749,441	41,16
749,873	41,28
750,305	41,06
750,737	41,11
751,169	41,09
751,601	41,27
752,032	41,17
752,464	41,12
752,896	41,16
753,327	41,09
753,758	41,05
754,19	41,1
754,621	41,04
755,052	40,87
755,483	40,87
755,914	40,92
756,344	41,06
756,775	41,09
757,206	40,93
757,636	40,63
758,066	40,84
758,497	40,85
758,927	40,69
759,357	40,83
759,787	40,78
760,217	40,83
760,647	40,71
761,076	40,75
761,506	40,62
761,935	40,42
762,365	40,79
762,794	40,59
763,223	40,56
763,653	40,48
764,082	40,59
764,51	40,59
764,939	40,48
765,368	40,53
765,797	40,6
766,225	40,51
766,654	40,39
767,082	40,37
767,51	40,31
767,938	40,28
768,367	40,12
768,795	40,27
769,222	40,47
769,65	40,4
770,078	40,32
770,505	39,93
770,933	40,19
771,36	40,16
771,788	40,34
772,215	40,43
772,642	40,23
773,069	40,23
773,496	40,26
773,923	39,9
774,349	40,17
774,776	40,03
775,203	40,05
775,629	40,05
776,055	40,11
776,482	39,96
776,908	39,88
777,334	39,91
777,76	40,02
778,186	39,69
778,611	39,89
779,037	39,92
779,463	39,81
779,888	39,76
780,314	39,98
780,739	39,83
781,164	39,89
781,589	39,62
782,014	39,71
782,439	39,98
782,864	39,8
783,289	39,78
783,713	39,75
784,138	39,75
784,562	39,84
784,987	39,81
785,411	39,54
785,835	39,86
786,259	39,73
786,683	39,77
787,107	39,74
787,531	39,81
787,954	39,65
788,378	40
788,802	39,75
789,225	39,6
789,648	39,79
790,071	39,65
790,495	39,47
790,918	39,84
791,34	39,58
791,763	39,68
792,186	39,52
792,609	39,74
793,031	39,61
793,454	39,6
793,876	39,52
794,298	39,58
794,721	39,58
795,143	39,69
795,565	39,48
795,986	39,76
796,408	39,47
796,83	39,49
797,252	39,59
797,673	39,47
798,094	39,5
798,516	39,4
798,937	39,54
799,358	39,66
799,779	39,27
800,2	39,53
800,621	39,45
801,042	39,55
801,462	39,41
801,883	39,49
802,303	39,47
802,724	39,23
803,144	39,75
803,564	39,46
803,984	39,54
804,404	39,46
804,824	39,39
805,244	39,35
805,664	39,63
806,084	39,54
806,503	39,61
806,923	39,36
807,342	39,46
807,761	39,4
808,18	39,49
808,599	39,51
809,018	39,41
809,437	39,43
809,856	39,58
810,275	39,42
810,693	39,2
811,112	39,25
811,53	39,47
811,949	39,58
812,367	39,31
812,785	39,37
813,203	39,45
813,621	39,46
814,039	39,31
814,457	39,12
814,874	39,51
815,292	39,4
815,709	39,31
816,127	39,39
816,544	39,44
816,961	39,41
817,378	39,35
817,795	39,38
818,212	39,32
818,629	39,29
819,046	39,23
819,462	39,13
819,879	39,34
820,295	39,33
820,712	39,2
821,128	39,22
821,544	39,33
821,96	39,4
822,376	39,28
822,792	39,25
823,208	39,18
823,624	39,24
824,039	39,07
824,455	39,32
824,87	39,18
825,286	39,09
825,701	39,25
826,116	39,24
826,531	39,11
826,946	39,25
827,361	39,22
827,776	38,99
828,19	39,2
828,605	39,36
829,02	39,4
829,434	39,16
829,848	39,35
830,263	39,37
830,677	39,19
831,091	39,29
831,505	39,32
831,919	39,05
832,332	39,04
832,746	39,2
833,16	39,16
833,573	39,21
833,987	39,3
834,4	39,08
834,813	38,97
835,226	39,21
835,639	39,08
836,052	39,23
836,465	39,25
836,878	39,32
837,29	39,21
837,703	39,15
838,116	39,1
838,528	39,06
838,94	39,2
839,352	39,13
839,765	39,24
840,177	39,24
840,589	39,23
841	39,22
841,412	39,08
841,824	38,98
842,235	39,01
842,647	39,24
843,058	39,26
843,47	39,07
