Data from C4__Relative__5__00025.txt Node

Date: Tue Jan 30 17:53:08 CET 2024
User: diatiterra
Spectrometer: HDX00911
Trigger mode: 0
Integration Time (sec): 6,000000E-3
Scans to average: 3
Nonlinearity correction enabled: true
Boxcar width: 0
Storing dark spectrum: false
XAxis mode: Wavelengths
Number of Pixels in Spectrum: 2068
>>>>>Begin Spectral Data<<<<<
194,468	82,47
195,025	63,85
195,581	67,36
196,138	61,31
196,694	70,66
197,251	61,78
197,807	59,25
198,363	57,65
198,919	55,66
199,474	61,97
200,03	63,73
200,586	56,96
201,141	56,06
201,696	59,39
202,251	55,39
202,806	58,85
203,361	62,15
203,916	54,81
204,471	63,5
205,025	55,66
205,58	61,21
206,134	58,44
206,688	56,62
207,242	56,96
207,796	67,07
208,35	62,31
208,904	55,83
209,457	55,4
210,011	60,12
210,564	54,64
211,117	59,42
211,67	65,36
212,223	67,47
212,776	57,56
213,329	59,87
213,881	63,1
214,434	51,18
214,986	59,1
215,538	56,5
216,09	53,54
216,642	55,55
217,194	52,05
217,746	58,78
218,297	56,36
218,849	62,02
219,4	56,02
219,951	61,98
220,502	63,5
221,053	57,75
221,604	53,13
222,155	60,16
222,705	54,47
223,256	55,39
223,806	61,19
224,356	58,99
224,906	62,63
225,456	56,14
226,006	55,35
226,556	56,24
227,106	61,75
227,655	58,41
228,204	58,91
228,754	62,13
229,303	58,66
229,852	59,57
230,401	63,96
230,949	58,05
231,498	58,03
232,047	58,8
232,595	58,03
233,143	60,38
233,691	61,42
234,239	55,22
234,787	57,87
235,335	60,49
235,883	62,61
236,43	57,76
236,978	54,87
237,525	55,44
238,072	58,15
238,619	59,13
239,166	54,64
239,713	53,74
240,26	58,67
240,806	55,71
241,353	59,83
241,899	59,37
242,445	58,56
242,991	57,08
243,537	57,5
244,083	56,58
244,629	62,62
245,174	58,86
245,72	57,35
246,265	59,08
246,81	60,49
247,355	56,36
247,9	61,64
248,445	57,67
248,99	59,13
249,534	59,15
250,079	63,66
250,623	56,5
251,168	59,91
251,712	48,4
252,256	49,99
252,8	62,36
253,343	56,63
253,887	53,15
254,43	59,73
254,974	59,74
255,517	61,53
256,06	57,6
256,603	63,12
257,146	59,7
257,689	55,15
258,232	61,69
258,774	55,79
259,317	58,24
259,859	54,75
260,401	67,35
260,943	58,26
261,485	56,17
262,027	62,23
262,569	62,32
263,11	59,34
263,652	60,29
264,193	57,53
264,734	59,91
265,275	56,51
265,816	56,11
266,357	57,49
266,898	55,41
267,438	58,52
267,979	58,97
268,519	63,66
269,059	57,77
269,6	57,78
270,14	59,23
270,68	53,43
271,219	59,46
271,759	57,46
272,298	56,37
272,838	58,17
273,377	59,4
273,916	53,57
274,455	53,75
274,994	57,18
275,533	57,56
276,072	54,17
276,61	54,28
277,149	54,56
277,687	60,48
278,225	56,87
278,763	57,76
279,301	54,94
279,839	54,78
280,377	59,65
280,914	56,99
281,452	59,14
281,989	58,7
282,526	54,78
283,064	60,43
283,601	58,53
284,137	54,67
284,674	54,22
285,211	57,7
285,747	61,25
286,284	60,97
286,82	54,66
287,356	60,96
287,892	58,78
288,428	57,05
288,964	53,73
289,5	58,23
290,035	57,63
290,571	57,66
291,106	60,4
291,641	60,19
292,176	58,63
292,711	51,4
293,246	58,08
293,781	55,93
294,315	51,05
294,85	59,69
295,384	63,16
295,918	53,16
296,453	50,11
296,987	52,25
297,52	51
298,054	46,93
298,588	58,23
299,121	52,72
299,655	51,5
300,188	57,42
300,721	50
301,254	55,58
301,787	51,69
302,32	62,13
302,853	52,67
303,385	52,67
303,918	58,15
304,45	53,56
304,982	54,78
305,514	55,73
306,046	53,47
306,578	54,1
307,11	56,96
307,641	57,25
308,173	56,38
308,704	58,21
309,236	60,8
309,767	55,75
310,298	53,58
310,829	57,41
311,359	57,05
311,89	54,16
312,421	55,46
312,951	57,27
313,481	55,97
314,012	49,69
314,542	60,84
315,072	56,08
315,601	50,85
316,131	56,06
316,661	57,77
317,19	55,27
317,72	53,64
318,249	54,16
318,778	54,31
319,307	49,55
319,836	57,95
320,365	56,79
320,893	63,08
321,422	49,78
321,95	54,14
322,479	55,12
323,007	48,5
323,535	47,96
324,063	56,03
324,591	51,82
325,118	58,25
325,646	52,95
326,173	50,34
326,701	57,3
327,228	57,78
327,755	55,57
328,282	51,28
328,809	43,2
329,336	57,25
329,862	51,74
330,389	53,23
330,915	54,99
331,441	58,56
331,968	51,81
332,494	50,9
333,02	57,64
333,545	52,27
334,071	52
334,597	53,02
335,122	54,49
335,648	53,74
336,173	53,95
336,698	49,48
337,223	53,27
337,748	52,52
338,272	50,74
338,797	54,72
339,322	58,61
339,846	54,21
340,37	57,85
340,894	50
341,419	51,98
341,942	56,04
342,466	49,71
342,99	51,54
343,514	59,3
344,037	50,54
344,56	55,44
345,084	52,07
345,607	56,55
346,13	49,89
346,653	48,68
347,175	50,74
347,698	52,16
348,221	47,48
348,743	53,78
349,265	47,31
349,787	52,38
350,309	51,41
350,831	55,29
351,353	47,07
351,875	49,3
352,397	45,94
352,918	48,27
353,439	52,39
353,961	52,27
354,482	45,05
355,003	52,38
355,524	47,93
356,044	51,52
356,565	49,64
357,086	50,65
357,606	44,6
358,126	47,97
358,646	46,53
359,167	49,95
359,687	49,25
360,206	46,27
360,726	49,36
361,246	50,91
361,765	46,79
362,285	48,79
362,804	46,45
363,323	47,46
363,842	50,02
364,361	49,54
364,88	46,69
365,398	48
365,917	48,93
366,435	48,41
366,954	45,92
367,472	46,33
367,99	47,39
368,508	45,93
369,026	43,64
369,544	47,06
370,061	46,81
370,579	44,05
371,096	47,45
371,613	45,32
372,131	49,71
372,648	46,24
373,165	43,99
373,681	45,31
374,198	45,05
374,715	44,54
375,231	44,52
375,747	44,38
376,264	41,79
376,78	45,87
377,296	45,58
377,812	43,83
378,327	40,07
378,843	43,17
379,359	40,89
379,874	45
380,389	41,03
380,905	41,74
381,42	41,1
381,935	40,6
382,449	39,98
382,964	39,93
383,479	42,13
383,993	39,58
384,508	35,97
385,022	36,29
385,536	42,79
386,05	38,15
386,564	37,3
387,078	35,79
387,592	36,28
388,105	36,08
388,619	35,13
389,132	34,61
389,645	34,91
390,158	31,79
390,671	33,78
391,184	32,51
391,697	34,45
392,21	32,82
392,722	33,43
393,235	34,07
393,747	33,71
394,259	31,2
394,771	32,54
395,283	32,28
395,795	33,04
396,307	32,66
396,818	30,49
397,33	29,97
397,841	28,05
398,353	29,26
398,864	28,29
399,375	28,82
399,886	27,67
400,397	28,33
400,907	26,18
401,418	25
401,928	27,58
402,439	25,36
402,949	24,95
403,459	23,74
403,969	24,39
404,479	22,11
404,989	21,13
405,498	20,95
406,008	21,02
406,517	21,57
407,027	21,01
407,536	19,76
408,045	19,16
408,554	18,06
409,063	17,52
409,572	17,64
410,08	16,41
410,589	16,21
411,097	16,45
411,606	15,92
412,114	14,95
412,622	14,19
413,13	14,32
413,638	13,96
414,145	13,36
414,653	12,9
415,16	12,45
415,668	11,75
416,175	11,74
416,682	10,86
417,189	11,61
417,696	11,55
418,203	10,68
418,71	11,12
419,216	11,09
419,723	10,72
420,229	10,3
420,735	10,17
421,242	10,29
421,748	9,78
422,254	9,97
422,759	9,71
423,265	9,95
423,771	9,6
424,276	9,84
424,781	9,28
425,287	9,35
425,792	9,51
426,297	9,25
426,802	9,04
427,306	8,87
427,811	9,15
428,316	9,06
428,82	8,69
429,324	8,61
429,829	9,05
430,333	8,78
430,837	8,86
431,34	8,75
431,844	9
432,348	8,71
432,851	8,14
433,355	8,61
433,858	8,7
434,361	8,25
434,864	8,33
435,367	8,06
435,87	8,3
436,373	8,37
436,876	7,97
437,378	7,92
437,88	8,08
438,383	8,23
438,885	8,05
439,387	8,09
439,889	8,07
440,391	7,81
440,892	7,91
441,394	8,29
441,896	8,22
442,397	8,51
442,898	8,16
443,399	7,98
443,9	8,32
444,401	8,3
444,902	7,91
445,403	8,31
445,903	8,44
446,404	8,47
446,904	8,22
447,405	8,51
447,905	8,31
448,405	8,78
448,905	8,75
449,404	8,79
449,904	8,83
450,404	8,9
450,903	9,08
451,403	9
451,902	8,92
452,401	9,16
452,9	8,88
453,399	9,33
453,898	9,51
454,396	9,2
454,895	9,67
455,393	9,47
455,892	9,64
456,39	9,66
456,888	9,75
457,386	9,69
457,884	9,53
458,382	9,66
458,879	9,4
459,377	9,56
459,874	10
460,372	9,7
460,869	9,66
461,366	9,9
461,863	9,7
462,36	9,69
462,857	9,85
463,353	9,97
463,85	9,86
464,346	9,45
464,843	9,8
465,339	9,72
465,835	9,45
466,331	9,82
466,827	9,72
467,323	9,48
467,818	9,6
468,314	9,79
468,809	9,67
469,305	9,47
469,8	10,06
470,295	9,78
470,79	9,56
471,285	9,95
471,78	9,67
472,274	9,83
472,769	9,87
473,263	9,56
473,758	9,77
474,252	9,66
474,746	9,92
475,24	9,76
475,734	10,09
476,228	9,98
476,721	9,89
477,215	10,06
477,708	10,12
478,202	9,92
478,695	10,08
479,188	10,22
479,681	9,99
480,174	9,92
480,667	10,16
481,159	10,04
481,652	10,21
482,144	10,1
482,637	10,2
483,129	10,17
483,621	10,22
484,113	10,23
484,605	10,23
485,097	10,51
485,588	10,45
486,08	10,5
486,571	10,54
487,063	10,69
487,554	10,74
488,045	10,74
488,536	10,91
489,027	10,87
489,518	11,01
490,008	10,68
490,499	11,29
490,989	11,23
491,48	11,13
491,97	11,3
492,46	11,31
492,95	11,49
493,44	11,72
493,93	11,85
494,419	11,73
494,909	11,88
495,398	12,02
495,888	12,39
496,377	12,36
496,866	12,46
497,355	12,45
497,844	12,89
498,333	12,78
498,821	13,26
499,31	13,47
499,798	13,47
500,287	13,81
500,775	13,91
501,263	14,31
501,751	14,48
502,239	14,83
502,727	15,12
503,215	15,3
503,702	15,61
504,19	15,56
504,677	16,04
505,164	16,37
505,651	16,59
506,139	16,94
506,625	17,28
507,112	17,43
507,599	17,93
508,086	17,93
508,572	18,47
509,058	18,71
509,545	19,02
510,031	19,69
510,517	19,57
511,003	20
511,489	20,6
511,974	20,57
512,46	21,1
512,946	21,76
513,431	21,87
513,916	22,32
514,401	22,62
514,887	23,25
515,371	23,32
515,856	23,84
516,341	24,57
516,826	24,65
517,31	25,1
517,795	25,73
518,279	26,3
518,763	26,24
519,247	26,57
519,731	27,46
520,215	28,01
520,699	27,96
521,182	28,45
521,666	28,91
522,149	29,37
522,633	30,02
523,116	29,86
523,599	30,5
524,082	31,06
524,565	31,16
525,048	31,46
525,53	31,81
526,013	32,04
526,495	32,31
526,978	32,76
527,46	32,83
527,942	33,38
528,424	33,65
528,906	33,88
529,388	33,43
529,87	34,19
530,351	34,31
530,833	34,63
531,314	34,79
531,795	34,94
532,277	35,41
532,758	35,56
533,238	35,51
533,719	35,47
534,2	35,49
534,681	35,81
535,161	36,12
535,642	35,71
536,122	35,97
536,602	36,16
537,082	36,42
537,562	36,41
538,042	36,28
538,522	36,52
539,001	36,57
539,481	37,19
539,96	36,76
540,44	36,9
540,919	37,06
541,398	36,95
541,877	37,04
542,356	37,43
542,835	37,04
543,313	37,1
543,792	37,16
544,27	37,1
544,749	37,74
545,227	37,8
545,705	37,76
546,183	37,6
546,661	37,22
547,139	37,49
547,616	37,6
548,094	37,64
548,571	37,75
549,049	37,69
549,526	37,9
550,003	37,99
550,48	38,09
550,957	38,09
551,434	37,68
551,911	37,96
552,387	38,35
552,864	37,96
553,34	38,12
553,817	38,45
554,293	38,01
554,769	38,6
555,245	38,31
555,721	37,79
556,197	37,68
556,672	38,31
557,148	38,09
557,623	38,09
558,099	37,93
558,574	37,93
559,049	37,88
559,524	37,87
559,999	37,81
560,474	37,61
560,948	37,38
561,423	37,75
561,897	37,49
562,372	37,21
562,846	36,91
563,32	36,8
563,794	37,04
564,268	36,96
564,742	36,94
565,216	36,78
565,69	36,38
566,163	36,64
566,636	36,19
567,11	36,35
567,583	35,69
568,056	35,83
568,529	35,69
569,002	35,44
569,475	35,27
569,947	35,32
570,42	34,89
570,892	34,6
571,365	34,45
571,837	34,51
572,309	34,24
572,781	34,29
573,253	33,82
573,725	33,58
574,197	33,15
574,668	33,62
575,14	32,96
575,611	32,77
576,082	32,41
576,554	32,44
577,025	32,4
577,496	32,06
577,967	32,13
578,437	31,98
578,908	31,55
579,379	31,38
579,849	31,41
580,319	31,2
580,79	30,87
581,26	30,89
581,73	30,74
582,2	30,54
582,669	30,4
583,139	30,16
583,609	30,23
584,078	30,08
584,548	29,94
585,017	29,84
585,486	29,82
585,955	29,3
586,424	29,46
586,893	29,27
587,362	29,11
587,83	29,16
588,299	28,84
588,767	28,95
589,236	28,85
589,704	28,82
590,172	28,87
590,64	28,72
591,108	28,39
591,576	28,68
592,043	28,43
592,511	28,31
592,978	28,27
593,446	27,85
593,913	27,84
594,38	27,99
594,847	28,12
595,314	27,68
595,781	27,73
596,248	27,75
596,715	27,57
597,181	27,7
597,647	27,49
598,114	27,43
598,58	27,64
599,046	27,36
599,512	27,3
599,978	27,23
600,444	27,35
600,91	27,2
601,375	27,27
601,841	27,22
602,306	27,13
602,771	27,14
603,236	27,11
603,702	27
604,167	26,9
604,631	26,63
605,096	26,85
605,561	26,58
606,025	26,61
606,49	26,34
606,954	26,39
607,418	26,24
607,882	26,18
608,347	25,93
608,81	26,06
609,274	25,61
609,738	25,73
610,202	25,63
610,665	25,29
611,128	25,16
611,592	25,23
612,055	25,19
612,518	24,93
612,981	24,76
613,444	24,56
613,907	24,6
614,369	24,38
614,832	24,72
615,294	24,26
615,757	24,1
616,219	24,04
616,681	24,01
617,143	23,99
617,605	23,47
618,067	23,72
618,529	23,41
618,99	23,35
619,452	23,34
619,913	23,21
620,375	22,94
620,836	23,06
621,297	22,97
621,758	22,88
622,219	22,74
622,68	22,76
623,14	22,82
623,601	22,74
624,061	22,6
624,522	22,56
624,982	22,41
625,442	22,53
625,902	22,43
626,362	22,26
626,822	22,49
627,282	22,2
627,742	22,21
628,201	22,25
628,661	22,29
629,12	22,11
629,579	22,16
630,038	22,26
630,497	22,31
630,956	22,13
631,415	22,02
631,874	22,15
632,332	22
632,791	21,85
633,249	21,79
633,708	21,7
634,166	21,75
634,624	21,56
635,082	21,37
635,54	21,56
635,998	21,23
636,455	21,08
636,913	20,99
637,37	20,84
637,828	20,79
638,285	20,59
638,742	20,46
639,199	20,22
639,656	20,15
640,113	19,98
640,57	19,49
641,027	19,55
641,483	19,36
641,94	19,09
642,396	18,86
642,852	18,73
643,309	18,61
643,765	18,23
644,221	18,06
644,676	17,86
645,132	17,71
645,588	17,61
646,043	17,16
646,499	17,22
646,954	16,96
647,409	16,75
647,864	16,57
648,319	16,38
648,774	16,1
649,229	16,06
649,684	15,96
650,139	15,69
650,593	15,72
651,047	15,71
651,502	15,5
651,956	15,34
652,41	15,35
652,864	15,12
653,318	15,08
653,772	15,02
654,225	15,12
654,679	14,99
655,133	14,79
655,586	14,67
656,039	14,47
656,492	14,52
656,946	14,45
657,399	14,26
657,851	14,22
658,304	14,05
658,757	13,8
659,209	13,68
659,662	13,56
660,114	13,45
660,567	13,31
661,019	13,16
661,471	12,79
661,923	12,72
662,375	12,5
662,826	12,38
663,278	12,1
663,73	12,06
664,181	11,84
664,632	11,65
665,084	11,55
665,535	11,35
665,986	11,15
666,437	11,16
666,888	11,05
667,338	10,88
667,789	10,81
668,24	10,67
668,69	10,58
669,14	10,59
669,591	10,5
670,041	10,4
670,491	10,29
670,941	10,43
671,391	10,29
671,84	10,36
672,29	10,33
672,74	10,36
673,189	10,42
673,638	10,26
674,088	10,41
674,537	10,4
674,986	10,47
675,435	10,43
675,883	10,55
676,332	10,61
676,781	10,67
677,229	10,69
677,678	10,89
678,126	10,96
678,574	11,03
679,022	11,13
679,47	11,33
679,918	11,36
680,366	11,45
680,814	11,76
681,261	11,86
681,709	11,99
682,156	12,26
682,604	12,39
683,051	12,61
683,498	12,89
683,945	12,98
684,392	13,48
684,839	13,71
685,286	14,01
685,732	14,3
686,179	14,75
686,625	15,17
687,071	15,45
687,518	15,99
687,964	16,42
688,41	16,91
688,856	17,56
689,301	18,1
689,747	18,56
690,193	19,35
690,638	19,83
691,084	20,53
691,529	21,24
691,974	21,96
692,419	22,6
692,864	23,47
693,309	24,2
693,754	24,95
694,199	25,63
694,643	26,26
695,088	27,07
695,532	27,81
695,977	28,56
696,421	29,11
696,865	29,83
697,309	30,7
697,753	31,24
698,197	32,07
698,64	32,54
699,084	33,23
699,527	33,93
699,971	34,4
700,414	34,97
700,857	35,65
701,3	36,25
701,743	36,66
702,186	37,25
702,629	37,68
703,072	38,19
703,515	38,62
703,957	38,96
704,399	39,71
704,842	40,27
705,284	40,54
705,726	40,8
706,168	41,16
706,61	41,7
707,052	42,09
707,494	42,25
707,935	42,85
708,377	43,18
708,818	43,41
709,26	43,83
709,701	44,22
710,142	44,41
710,583	44,73
711,024	45,31
711,465	45,42
711,905	45,57
712,346	45,92
712,787	46,03
713,227	46,62
713,667	47,01
714,108	46,95
714,548	47,1
714,988	47,24
715,428	47,69
715,868	48,04
716,307	47,97
716,747	48,36
717,186	48,49
717,626	48,92
718,065	49,19
718,504	49,05
718,944	49,51
719,383	49,59
719,822	49,88
720,261	49,81
720,699	50,1
721,138	50,24
721,576	50,57
722,015	50,63
722,453	50,92
722,892	50,91
723,33	51,41
723,768	51,28
724,206	51,61
724,644	51,67
725,081	51,78
725,519	51,9
725,957	51,82
726,394	52,15
726,832	52,05
727,269	52,41
727,706	52,35
728,143	52,5
728,58	52,58
729,017	52,52
729,454	52,93
729,89	52,74
730,327	52,71
730,764	52,93
731,2	52,94
731,636	53,09
732,072	53,19
732,509	53,22
732,945	53,29
733,38	53,13
733,816	53,28
734,252	53,26
734,688	53,22
735,123	53,35
735,559	53,73
735,994	53,55
736,429	53,51
736,864	53,55
737,299	53,32
737,734	53,59
738,169	53,56
738,604	53,75
739,038	53,8
739,473	53,71
739,907	53,91
740,342	53,55
740,776	53,32
741,21	53,79
741,644	53,82
742,078	53,88
742,512	53,79
742,946	53,95
743,379	53,6
743,813	53,73
744,246	53,63
744,68	53,68
745,113	53,74
745,546	53,4
745,979	53,29
746,412	53,56
746,845	53,33
747,278	53,62
747,711	53,76
748,143	53,63
748,576	53,3
749,008	53,52
749,441	53,47
749,873	53,34
750,305	53,38
750,737	53,37
751,169	53,28
751,601	53,39
752,032	53,2
752,464	53,41
752,896	53,04
753,327	53,16
753,758	53,3
754,19	53,05
754,621	53,35
755,052	53,19
755,483	53,06
755,914	52,95
756,344	53,22
756,775	52,94
757,206	53,14
757,636	52,8
758,066	52,73
758,497	52,87
758,927	52,67
759,357	52,62
759,787	53
760,217	52,73
760,647	52,55
761,076	52,76
761,506	52,58
761,935	52,37
762,365	52,54
762,794	52,67
763,223	52,37
763,653	52,53
764,082	52,52
764,51	52,63
764,939	52,38
765,368	52,51
765,797	52,6
766,225	52,2
766,654	52,11
767,082	52,23
767,51	52,19
767,938	52,32
768,367	52,26
768,795	52,35
769,222	52,29
769,65	52,21
770,078	52,09
770,505	51,96
770,933	51,92
771,36	51,97
771,788	52,04
772,215	52,14
772,642	52,05
773,069	51,97
773,496	51,87
773,923	51,85
774,349	51,73
774,776	52,05
775,203	51,74
775,629	51,82
776,055	51,89
776,482	51,9
776,908	51,86
777,334	51,8
777,76	51,81
778,186	51,48
778,611	51,75
779,037	51,97
779,463	51,65
779,888	51,59
780,314	51,6
780,739	51,99
781,164	51,67
781,589	51,59
782,014	51,7
782,439	51,52
782,864	51,67
783,289	51,58
783,713	51,57
784,138	51,38
784,562	51,6
784,987	51,45
785,411	51,7
785,835	51,65
786,259	51,48
786,683	51,56
787,107	51,51
787,531	51,25
787,954	51,25
788,378	51,69
788,802	51,67
789,225	51,5
789,648	51,81
790,071	51,53
790,495	51,46
790,918	51,32
791,34	51,57
791,763	51,47
792,186	51,6
792,609	51,69
793,031	51,38
793,454	51,35
793,876	51,36
794,298	51,39
794,721	51,3
795,143	51,34
795,565	51,15
795,986	51,37
796,408	51,37
796,83	51,25
797,252	51,19
797,673	51,33
798,094	51,31
798,516	51,15
798,937	51,21
799,358	51,26
799,779	51,29
800,2	51,36
800,621	51,26
801,042	51,34
801,462	51,16
801,883	51,4
802,303	51,35
802,724	51,04
803,144	51,36
803,564	51,05
803,984	51,44
804,404	51,04
804,824	51,35
805,244	51,24
805,664	51,27
806,084	51,23
806,503	51,22
806,923	51,2
807,342	51,16
807,761	51,15
808,18	50,99
808,599	51,15
809,018	50,98
809,437	50,99
809,856	50,9
810,275	50,95
810,693	51,18
811,112	51,05
811,53	51,08
811,949	51,15
812,367	50,85
812,785	51,3
813,203	51,26
813,621	51,29
814,039	51,18
814,457	50,89
814,874	51,17
815,292	50,96
815,709	50,98
816,127	51,02
816,544	51,07
816,961	51
817,378	50,98
817,795	50,94
818,212	51,15
818,629	51,02
819,046	50,89
819,462	51,07
819,879	51,08
820,295	50,87
820,712	50,69
821,128	51,24
821,544	50,88
821,96	51,03
822,376	51,01
822,792	51,08
823,208	50,78
823,624	50,91
824,039	50,83
824,455	50,79
824,87	50,85
825,286	51,06
825,701	51,08
826,116	50,91
826,531	50,84
826,946	51,01
827,361	50,86
827,776	50,58
828,19	50,8
828,605	50,82
829,02	51
829,434	50,78
829,848	50,96
830,263	50,88
830,677	50,77
831,091	50,88
831,505	51
831,919	50,76
832,332	50,69
832,746	50,84
833,16	50,98
833,573	50,88
833,987	50,71
834,4	51,02
834,813	50,69
835,226	50,93
835,639	50,8
836,052	50,8
836,465	50,95
836,878	50,84
837,29	50,84
