Data from D1__Relative__7__00046.txt Node

Date: Tue Jan 30 17:54:59 CET 2024
User: diatiterra
Spectrometer: HDX00911
Trigger mode: 0
Integration Time (sec): 6,000000E-3
Scans to average: 3
Nonlinearity correction enabled: true
Boxcar width: 0
Storing dark spectrum: false
XAxis mode: Wavelengths
Number of Pixels in Spectrum: 2068
>>>>>Begin Spectral Data<<<<<
194,468	85,15
195,025	69,17
195,581	76,07
196,138	65,85
196,694	69,16
197,251	57,03
197,807	56,52
198,363	52,83
198,919	60,44
199,474	63,34
200,03	54,72
200,586	53,53
201,141	54,85
201,696	48,4
202,251	55,8
202,806	57,63
203,361	57,71
203,916	57,22
204,471	57,73
205,025	58,49
205,58	59,19
206,134	56,96
206,688	55,81
207,242	55,98
207,796	51,42
208,35	57,71
208,904	55,63
209,457	56,54
210,011	56,33
210,564	55,63
211,117	53,48
211,67	64,04
212,223	58,94
212,776	54,83
213,329	63,95
213,881	59,54
214,434	54,37
214,986	57,81
215,538	51,21
216,09	49,89
216,642	59,87
217,194	54,72
217,746	58,57
218,297	57,16
218,849	56,87
219,4	58,98
219,951	55,37
220,502	58,35
221,053	53,2
221,604	57,05
222,155	59,34
222,705	59,46
223,256	53,55
223,806	58,79
224,356	57,32
224,906	59,66
225,456	48,2
226,006	60,42
226,556	52,14
227,106	62,61
227,655	52,38
228,204	57,02
228,754	56,48
229,303	59,47
229,852	58,91
230,401	61,46
230,949	60,53
231,498	52,67
232,047	56,14
232,595	58,03
233,143	61,02
233,691	59,43
234,239	55,41
234,787	57,46
235,335	57,37
235,883	56,86
236,43	52,58
236,978	50,4
237,525	55,23
238,072	48,32
238,619	59,57
239,166	57,22
239,713	49,68
240,26	51,18
240,806	56,73
241,353	55,01
241,899	57,02
242,445	57,08
242,991	55,23
243,537	55,18
244,083	54,56
244,629	61,81
245,174	54,64
245,72	54,15
246,265	57,45
246,81	53,87
247,355	51,4
247,9	56,4
248,445	55,84
248,99	58,05
249,534	58,93
250,079	57,27
250,623	58,51
251,168	56,4
251,712	54,35
252,256	51,02
252,8	58,07
253,343	54,1
253,887	50,98
254,43	58,34
254,974	58,85
255,517	57,28
256,06	57,15
256,603	61,62
257,146	58,61
257,689	56,3
258,232	55,63
258,774	58,37
259,317	54,28
259,859	54,54
260,401	58,84
260,943	62,5
261,485	54,18
262,027	55,34
262,569	58,45
263,11	54,41
263,652	56,36
264,193	54,65
264,734	51,39
265,275	51,65
265,816	55,21
266,357	53,54
266,898	56,49
267,438	56,06
267,979	59,65
268,519	58,6
269,059	54,49
269,6	54,45
270,14	56,04
270,68	53,64
271,219	60,37
271,759	57,02
272,298	48,16
272,838	55,34
273,377	54,48
273,916	55,25
274,455	56,04
274,994	62,92
275,533	54
276,072	58,12
276,61	59,24
277,149	52,44
277,687	52,84
278,225	50,83
278,763	56,86
279,301	53,87
279,839	54,78
280,377	54,66
280,914	54,03
281,452	58
281,989	61,52
282,526	51,12
283,064	59,79
283,601	55,29
284,137	59,56
284,674	53,38
285,211	57,47
285,747	53,96
286,284	54,35
286,82	56,66
287,356	57,83
287,892	55,23
288,428	53,52
288,964	54,56
289,5	54,55
290,035	54,71
290,571	54,47
291,106	57,53
291,641	53,85
292,176	54,68
292,711	53,35
293,246	57,45
293,781	57,05
294,315	50,21
294,85	62,23
295,384	57,52
295,918	53,16
296,453	51,64
296,987	50,96
297,52	51,44
298,054	50
298,588	51,89
299,121	54,76
299,655	54,51
300,188	50,87
300,721	48,46
301,254	54,05
301,787	55,72
302,32	50,36
302,853	56,96
303,385	48,44
303,918	55,99
304,45	49,46
304,982	56,6
305,514	48,54
306,046	52,84
306,578	51,51
307,11	52,54
307,641	56,34
308,173	55,67
308,704	51,51
309,236	52,21
309,767	50,64
310,298	49,02
310,829	56,06
311,359	50,83
311,89	50,79
312,421	50,42
312,951	50,88
313,481	50,24
314,012	55,58
314,542	52,52
315,072	52,24
315,601	51,27
316,131	56,29
316,661	52,96
317,19	57,43
317,72	50,72
318,249	49,47
318,778	51,08
319,307	55,38
319,836	51,24
320,365	55,85
320,893	54,73
321,422	51,52
321,95	45,43
322,479	53,34
323,007	48,29
323,535	45,82
324,063	46,43
324,591	57,51
325,118	52,44
325,646	49,67
326,173	47,86
326,701	55,12
327,228	57,11
327,755	48,81
328,282	46,15
328,809	48,03
329,336	53,85
329,862	47,39
330,389	52,77
330,915	54,55
331,441	50,32
331,968	47,33
332,494	51,1
333,02	51,4
333,545	52,92
334,071	52
334,597	49,26
335,122	52,08
335,648	49,37
336,173	52,91
336,698	47,43
337,223	49,99
337,748	47,46
338,272	45,44
338,797	45,06
339,322	47,72
339,846	51,13
340,37	50,23
340,894	46,79
341,419	47,39
341,942	44,71
342,466	44,97
342,99	50,96
343,514	44,17
344,037	41,62
344,56	48,9
345,084	45,61
345,607	43,63
346,13	42,81
346,653	45,72
347,175	41,43
347,698	49,7
348,221	45,26
348,743	39,45
349,265	46,57
349,787	44,19
350,309	45,34
350,831	43,4
351,353	44,6
351,875	41,14
352,397	38,67
352,918	43,83
353,439	44,96
353,961	39,84
354,482	38,66
355,003	36,32
355,524	39,66
356,044	40,86
356,565	38,41
357,086	37,87
357,606	36,77
358,126	39,11
358,646	39,05
359,167	38,75
359,687	36,76
360,206	34,89
360,726	38,1
361,246	38,66
361,765	39,77
362,285	36,92
362,804	37,16
363,323	35,67
363,842	38,09
364,361	38,07
364,88	34,61
365,398	37,65
365,917	34,48
366,435	34,18
366,954	32,09
367,472	35,99
367,99	37,96
368,508	32,84
369,026	32,15
369,544	34,56
370,061	33,83
370,579	32,64
371,096	33,89
371,613	36,45
372,131	35,72
372,648	34,57
373,165	35,77
373,681	35,11
374,198	32,77
374,715	31,14
375,231	34,01
375,747	32,88
376,264	31,46
376,78	30,54
377,296	31,87
377,812	31,06
378,327	30,5
378,843	28,93
379,359	30,99
379,874	28,62
380,389	29,31
380,905	29,88
381,42	28,3
381,935	30,36
382,449	28,76
382,964	28,63
383,479	24,84
383,993	27,88
384,508	28,23
385,022	24,5
385,536	27,54
386,05	25,56
386,564	25,64
387,078	25,14
387,592	25,69
388,105	23,69
388,619	25,03
389,132	22,31
389,645	23,6
390,158	21,56
390,671	22,69
391,184	23,19
391,697	21,83
392,21	21,61
392,722	21,91
393,235	22,66
393,747	20,7
394,259	19,86
394,771	22,17
395,283	20,52
395,795	22,09
396,307	21,77
396,818	20,54
397,33	21,23
397,841	19,1
398,353	19,73
398,864	18,56
399,375	18,44
399,886	18,5
400,397	16,93
400,907	17,1
401,418	17,64
401,928	17,49
402,439	16,95
402,949	16,84
403,459	16,77
403,969	15,76
404,479	14,65
404,989	14,98
405,498	14,15
406,008	13,6
406,517	13,38
407,027	13,32
407,536	13,18
408,045	12,36
408,554	11,13
409,063	11,39
409,572	11,73
410,08	11,68
410,589	10,51
411,097	10,54
411,606	9,95
412,114	10,17
412,622	9,89
413,13	9,66
413,638	8,78
414,145	9,04
414,653	8,23
415,16	8,03
415,668	8,31
416,175	7,92
416,682	7,24
417,189	7,77
417,696	7,41
418,203	7,3
418,71	7,23
419,216	6,96
419,723	6,75
420,229	6,53
420,735	7,03
421,242	6,92
421,748	6,46
422,254	6,27
422,759	6,39
423,265	6,6
423,771	6,35
424,276	6,13
424,781	6,05
425,287	6,03
425,792	6,24
426,297	6,24
426,802	5,98
427,306	5,76
427,811	5,55
428,316	5,81
428,82	5,71
429,324	5,59
429,829	5,56
430,333	5,49
430,837	5,55
431,34	5,58
431,844	5,76
432,348	5,65
432,851	5,45
433,355	5,5
433,858	5,35
434,361	5,48
434,864	5,24
435,367	5,18
435,87	5,3
436,373	5,34
436,876	5,13
437,378	5,22
437,88	5,3
438,383	5
438,885	5,19
439,387	5,23
439,889	5,47
440,391	4,94
440,892	5,03
441,394	5,05
441,896	5,08
442,397	5,34
442,898	4,82
443,399	4,79
443,9	5,01
444,401	4,87
444,902	4,86
445,403	5,12
445,903	4,93
446,404	4,98
446,904	4,96
447,405	5,19
447,905	5,07
448,405	5,28
448,905	5,02
449,404	5,05
449,904	4,89
450,404	5,34
450,903	5,22
451,403	5,34
451,902	5,21
452,401	5,27
452,9	5,28
453,399	5,22
453,898	5,37
454,396	5,35
454,895	5,37
455,393	5,07
455,892	5,36
456,39	5,5
456,888	5,21
457,386	5,31
457,884	5,3
458,382	5,26
458,879	5,08
459,377	5,47
459,874	5,15
460,372	5,26
460,869	5,44
461,366	5,26
461,863	5,45
462,36	5,29
462,857	5,39
463,353	5,31
463,85	5,33
464,346	5,2
464,843	5,28
465,339	5,34
465,835	5,3
466,331	5,26
466,827	5,23
467,323	5,14
467,818	5,12
468,314	5,18
468,809	5,17
469,305	5,38
469,8	5,61
470,295	5,28
470,79	5,19
471,285	5,35
471,78	5,56
472,274	5,32
472,769	5,3
473,263	5,27
473,758	5,25
474,252	5,31
474,746	5,34
475,24	5,24
475,734	5,24
476,228	5,3
476,721	5,34
477,215	5,45
477,708	5,51
478,202	5,39
478,695	5,15
479,188	5,34
479,681	5,33
480,174	5,25
480,667	5,47
481,159	5,5
481,652	5,35
482,144	5,07
482,637	5,69
483,129	5,47
483,621	5,49
484,113	5,41
484,605	5,2
485,097	5,61
485,588	5,33
486,08	5,47
486,571	5,48
487,063	5,44
487,554	5,6
488,045	5,6
488,536	5,81
489,027	5,56
489,518	5,57
490,008	5,69
490,499	5,71
490,989	5,78
491,48	5,81
491,97	5,75
492,46	6,01
492,95	5,84
493,44	6
493,93	5,99
494,419	5,89
494,909	6,02
495,398	6,22
495,888	6,27
496,377	6,28
496,866	6,48
497,355	6,35
497,844	6,39
498,333	6,54
498,821	6,62
499,31	6,69
499,798	6,94
500,287	6,89
500,775	7,03
501,263	7,25
501,751	7,15
502,239	7,39
502,727	7,44
503,215	7,56
503,702	7,64
504,19	7,77
504,677	8,02
505,164	8,09
505,651	8,36
506,139	8,45
506,625	8,49
507,112	8,86
507,599	8,91
508,086	9,17
508,572	9,51
509,058	9,68
509,545	9,72
510,031	10,03
510,517	10,3
511,003	10,43
511,489	10,81
511,974	10,98
512,46	10,82
512,946	11,16
513,431	11,46
513,916	11,7
514,401	12,08
514,887	12,32
515,371	12,51
515,856	12,8
516,341	13,27
516,826	13,53
517,31	13,7
517,795	14,16
518,279	14,57
518,763	14,67
519,247	14,97
519,731	15,41
520,215	15,74
520,699	15,76
521,182	16,29
521,666	16,66
522,149	16,88
522,633	17,41
523,116	17,39
523,599	17,92
524,082	18,29
524,565	18,37
525,048	18,77
525,53	19,1
526,013	19,35
526,495	19,29
526,978	20,02
527,46	20,06
527,942	20,43
528,424	20,39
528,906	20,78
529,388	20,73
529,87	21,24
530,351	21,22
530,833	21,59
531,314	21,99
531,795	21,86
532,277	22,14
532,758	22,13
533,238	22,49
533,719	22,53
534,2	22,56
534,681	22,82
535,161	22,94
535,642	23,19
536,122	22,86
536,602	22,67
537,082	23,3
537,562	23,31
538,042	23,55
538,522	23,37
539,001	23,43
539,481	23,44
539,96	23,47
540,44	23,7
540,919	23,72
541,398	23,74
541,877	24,05
542,356	23,85
542,835	23,99
543,313	23,91
543,792	24,1
544,27	24
544,749	24,38
545,227	24,15
545,705	24,27
546,183	24,26
546,661	24,08
547,139	24,18
547,616	24,62
548,094	24,31
548,571	24,42
549,049	24,49
549,526	24,85
550,003	24,68
550,48	24,37
550,957	24,74
551,434	24,67
551,911	24,6
552,387	24,38
552,864	24,6
553,34	24,61
553,817	24,83
554,293	24,61
554,769	24,86
555,245	24,78
555,721	24,58
556,197	24,48
556,672	24,54
557,148	24,68
557,623	24,74
558,099	24,35
558,574	24,45
559,049	24,4
559,524	24,36
559,999	24,37
560,474	24,12
560,948	23,88
561,423	24,15
561,897	23,71
562,372	23,63
562,846	23,96
563,32	23,79
563,794	23,52
564,268	23,5
564,742	23,38
565,216	23,24
565,69	23,18
566,163	22,8
566,636	22,76
567,11	22,63
567,583	22,39
568,056	22,41
568,529	21,98
569,002	21,86
569,475	21,73
569,947	21,59
570,42	21,3
570,892	21,15
571,365	20,9
571,837	20,94
572,309	20,64
572,781	20,55
573,253	20,42
573,725	20,33
574,197	20,01
574,668	20,02
575,14	19,54
575,611	19,55
576,082	19,13
576,554	19,26
577,025	19,06
577,496	18,92
577,967	18,99
578,437	18,79
578,908	18,51
579,379	18,46
579,849	18,28
580,319	18,34
580,79	18,06
581,26	18,1
581,73	17,73
582,2	17,71
582,669	17,67
583,139	17,44
583,609	17,31
584,078	17,48
584,548	17,07
585,017	17,11
585,486	17,05
585,955	16,85
586,424	16,83
586,893	16,88
587,362	16,68
587,83	16,55
588,299	16,29
588,767	16,56
589,236	16,26
589,704	16,33
590,172	16,22
590,64	16,09
591,108	15,94
591,576	15,79
592,043	15,93
592,511	15,96
592,978	15,75
593,446	15,65
593,913	15,75
594,38	15,42
594,847	15,55
595,314	15,57
595,781	15,36
596,248	15,33
596,715	15,53
597,181	15,42
597,647	15,3
598,114	15,32
598,58	15,37
599,046	15,39
599,512	15,21
599,978	15,2
600,444	15,16
600,91	15,14
601,375	15,01
601,841	14,96
602,306	14,82
602,771	15,02
603,236	14,79
603,702	14,79
604,167	14,72
604,631	14,54
605,096	14,66
605,561	14,59
606,025	14,39
606,49	14,41
606,954	14,35
607,418	14,47
607,882	14,11
608,347	14,08
608,81	14,06
609,274	13,89
609,738	13,79
610,202	13,76
610,665	13,68
611,128	13,58
611,592	13,42
612,055	13,46
612,518	13,31
612,981	13,25
613,444	13,18
613,907	13,06
614,369	12,8
614,832	12,97
615,294	12,74
615,757	12,72
616,219	12,61
616,681	12,58
617,143	12,55
617,605	12,34
618,067	12,4
618,529	12,07
618,99	12,18
619,452	12,2
619,913	12
620,375	11,8
620,836	11,85
621,297	11,93
621,758	11,97
622,219	11,71
622,68	11,8
623,14	11,65
623,601	11,68
624,061	11,61
624,522	11,65
624,982	11,37
625,442	11,5
625,902	11,49
626,362	11,44
626,822	11,49
627,282	11,42
627,742	11,45
628,201	11,4
628,661	11,44
629,12	11,32
629,579	11,25
630,038	11,34
630,497	11,27
630,956	11,32
631,415	11,35
631,874	11,25
632,332	11,31
632,791	11,16
633,249	11,19
633,708	11,07
634,166	11,11
634,624	11,04
635,082	10,91
635,54	10,87
635,998	10,8
636,455	10,7
636,913	10,51
637,37	10,47
637,828	10,53
638,285	10,43
638,742	10,21
639,199	10,13
639,656	9,95
640,113	9,86
640,57	9,75
641,027	9,6
641,483	9,61
641,94	9,38
642,396	9,3
642,852	9,2
643,309	9,04
643,765	8,99
644,221	8,79
644,676	8,7
645,132	8,63
645,588	8,45
646,043	8,38
646,499	8,19
646,954	8,15
647,409	8,01
647,864	7,94
648,319	7,83
648,774	7,79
649,229	7,71
649,684	7,74
650,139	7,54
650,593	7,52
651,047	7,4
651,502	7,38
651,956	7,28
652,41	7,21
652,864	7,22
653,318	7,19
653,772	7,19
654,225	7,16
654,679	7,16
655,133	6,88
655,586	6,97
656,039	6,95
656,492	6,91
656,946	6,85
657,399	6,85
657,851	6,75
658,304	6,67
658,757	6,55
659,209	6,47
659,662	6,42
660,114	6,41
660,567	6,33
661,019	6,24
661,471	6,19
661,923	6,1
662,375	6,04
662,826	5,91
663,278	5,88
663,73	5,78
664,181	5,8
664,632	5,75
665,084	5,77
665,535	5,68
665,986	5,61
666,437	5,61
666,888	5,61
667,338	5,63
667,789	5,5
668,24	5,53
668,69	5,49
669,14	5,51
669,591	5,58
670,041	5,58
670,491	5,51
670,941	5,65
671,391	5,61
671,84	5,64
672,29	5,74
672,74	5,67
673,189	5,73
673,638	5,77
674,088	5,87
674,537	5,89
674,986	5,91
675,435	6,06
675,883	6,04
676,332	6,1
676,781	6,18
677,229	6,38
677,678	6,39
678,126	6,43
678,574	6,6
679,022	6,61
679,47	6,78
679,918	6,82
680,366	6,84
680,814	7,05
681,261	7,07
681,709	7,2
682,156	7,35
682,604	7,4
683,051	7,49
683,498	7,55
683,945	7,8
684,392	7,9
684,839	7,93
685,286	8,15
685,732	8,26
686,179	8,43
686,625	8,58
687,071	8,75
687,518	9,03
687,964	9,23
688,41	9,46
688,856	9,59
689,301	9,87
689,747	10,17
690,193	10,51
690,638	11,07
691,084	11,27
691,529	11,63
691,974	12,1
692,419	12,48
692,864	12,85
693,309	13,53
693,754	14,01
694,199	14,42
694,643	14,84
695,088	15,57
695,532	16,24
695,977	16,77
696,421	17,32
696,865	17,76
697,309	18,4
697,753	18,96
698,197	19,65
698,64	20,11
699,084	20,68
699,527	21,2
699,971	21,68
700,414	22,42
700,857	22,88
701,3	23,58
701,743	23,98
702,186	24,49
702,629	24,99
703,072	25,51
703,515	26,15
703,957	26,51
704,399	27,18
704,842	27,69
705,284	27,99
705,726	28,42
706,168	28,98
706,61	29,58
707,052	29,76
707,494	30,22
707,935	30,63
708,377	31,18
708,818	31,63
709,26	31,96
709,701	32,31
710,142	32,61
710,583	33,2
711,024	33,58
711,465	34,16
711,905	34,17
712,346	34,62
712,787	34,95
713,227	35,39
713,667	35,98
714,108	36,28
714,548	36,47
714,988	36,66
715,428	37,15
715,868	37,47
716,307	37,69
716,747	38,38
717,186	38,47
717,626	38,66
718,065	39,38
718,504	39,31
718,944	39,77
719,383	40,01
719,822	40,36
720,261	40,3
720,699	40,74
721,138	40,99
721,576	41,24
722,015	41,57
722,453	41,94
722,892	42,04
723,33	42,47
723,768	42,56
724,206	42,83
724,644	43,06
725,081	43,36
725,519	43,35
725,957	43,64
726,394	43,7
726,832	43,83
727,269	44,13
727,706	44,06
728,143	44,54
728,58	44,8
729,017	44,71
729,454	45,06
729,89	45,31
730,327	45,07
730,764	45,35
731,2	45,3
731,636	45,78
732,072	45,84
732,509	46,06
732,945	45,88
733,38	46,06
733,816	46,08
734,252	46,14
734,688	46,02
735,123	46,31
735,559	46,56
735,994	46,4
736,429	46,46
736,864	46,82
737,299	46,36
737,734	46,91
738,169	46,83
738,604	46,99
739,038	46,91
739,473	46,97
739,907	46,99
740,342	47
740,776	47,01
741,21	47,11
741,644	47,16
742,078	47,28
742,512	47,25
742,946	47,34
743,379	47,23
743,813	47,24
744,246	47,25
744,68	47,12
745,113	47,19
745,546	47,12
745,979	47,07
746,412	47,35
746,845	47,08
747,278	47,26
747,711	47,46
748,143	47,43
748,576	47,27
749,008	47,16
749,441	47,37
749,873	47,11
750,305	47,34
750,737	47,14
751,169	47,13
751,601	47,07
752,032	47,16
752,464	47,05
752,896	47,01
753,327	46,86
753,758	46,76
754,19	46,94
754,621	47,05
755,052	47,06
755,483	46,98
755,914	47,16
756,344	47,1
756,775	46,94
757,206	47,03
757,636	46,65
758,066	46,96
758,497	46,87
758,927	46,83
759,357	46,56
759,787	46,77
760,217	46,66
760,647	46,39
761,076	46,62
761,506	46,68
761,935	46,48
762,365	46,61
762,794	46,71
763,223	46,49
763,653	46,62
764,082	46,47
764,51	46,51
764,939	46,38
765,368	46,39
765,797	46,56
766,225	46,59
766,654	46,39
767,082	46,24
767,51	46,26
767,938	46,34
768,367	46,21
768,795	46,17
769,222	46,41
769,65	46,22
770,078	46,25
770,505	46,15
770,933	46,09
771,36	46,03
771,788	46,22
772,215	46,25
772,642	46,01
773,069	45,94
773,496	45,97
773,923	45,87
774,349	46,01
774,776	45,84
775,203	45,89
775,629	45,83
776,055	46,03
776,482	45,89
776,908	45,75
777,334	45,89
777,76	45,98
778,186	45,88
778,611	45,92
779,037	46,04
779,463	45,84
779,888	45,67
780,314	45,6
780,739	46
781,164	45,82
781,589	45,98
782,014	45,73
782,439	45,83
782,864	45,74
783,289	45,68
783,713	45,5
784,138	45,55
784,562	45,65
784,987	45,67
785,411	45,6
785,835	45,66
786,259	45,58
786,683	45,75
787,107	45,63
787,531	45,47
787,954	45,44
788,378	45,68
788,802	45,65
789,225	45,76
789,648	45,67
790,071	45,45
790,495	45,54
790,918	45,76
791,34	45,68
791,763	45,47
792,186	45,56
792,609	45,75
793,031	45,56
793,454	45,55
793,876	45,71
794,298	45,63
794,721	45,54
795,143	45,58
795,565	45,53
795,986	45,98
796,408	45,52
796,83	45,28
797,252	45,52
797,673	45,42
798,094	45,29
798,516	45,41
798,937	45,53
799,358	45,59
799,779	45,25
800,2	45,6
800,621	45,41
801,042	45,32
801,462	45,52
801,883	45,59
802,303	45,29
802,724	45,33
803,144	45,7
803,564	45,25
803,984	45,53
804,404	45,59
804,824	45,47
805,244	45,45
805,664	45,52
806,084	45,42
806,503	45,84
806,923	45,5
807,342	45,43
807,761	45,34
808,18	45,42
808,599	45,46
809,018	45,28
809,437	45,46
809,856	45,39
810,275	45,23
810,693	45,43
811,112	45,24
811,53	45,47
811,949	45,48
812,367	45,34
812,785	45,29
813,203	45,56
813,621	45,39
814,039	45,19
814,457	45,15
814,874	45,38
815,292	45,38
815,709	45,3
816,127	45,33
816,544	45,59
816,961	45,11
817,378	45,41
817,795	45,34
818,212	45,27
818,629	45,33
819,046	45,31
819,462	45,47
819,879	45,44
820,295	45,36
820,712	45,2
821,128	45,36
821,544	45,2
821,96	45,19
822,376	45,29
822,792	45,37
823,208	45,1
823,624	45,33
824,039	45,48
824,455	45,31
824,87	45,43
825,286	45,09
825,701	45,14
826,116	45,16
826,531	45,23
826,946	45,25
827,361	45,09
827,776	45,11
828,19	45,15
828,605	45,24
829,02	45,51
829,434	45,34
829,848	45,16
830,263	45,28
830,677	45,18
831,091	45,06
831,505	45,23
831,919	45,04
832,332	44,96
832,746	45,24
833,16	45,38
833,573	45,26
833,987	45,36
834,4	45,22
834,813	44,9
835,226	45,27
835,639	45,11
836,052	45,16
836,465	45,28
836,878	45,16
837,29	45,32
837,703	45,08
838,116	45,12
838,528	45
838,94	45,11
839,352	44,96
839,765	45,21
840,177	45,31
840,589	45,12
841	45,05
841,412	44,96
841,824	45,13
