Data from D5__Relative__2__00057.txt Node

Date: Tue Jan 30 17:56:00 CET 2024
User: diatiterra
Spectrometer: HDX00911
Trigger mode: 0
Integration Time (sec): 6,000000E-3
Scans to average: 3
Nonlinearity correction enabled: true
Boxcar width: 0
Storing dark spectrum: false
XAxis mode: Wavelengths
Number of Pixels in Spectrum: 2068
>>>>>Begin Spectral Data<<<<<
194,468	99,86
195,025	79,81
195,581	87,98
196,138	71,76
196,694	76,68
197,251	66,06
197,807	65,34
198,363	62,48
198,919	61,75
199,474	68,36
200,03	63,1
200,586	61,81
201,141	58,7
201,696	59,95
202,251	62,32
202,806	64,76
203,361	61,31
203,916	62,24
204,471	62,88
205,025	59,71
205,58	64,24
206,134	59,49
206,688	62,84
207,242	59,91
207,796	61,78
208,35	63,32
208,904	60,19
209,457	63,18
210,011	64,98
210,564	60,19
211,117	60,65
211,67	65,58
212,223	61,78
212,776	64,07
213,329	65,45
213,881	61,42
214,434	59,55
214,986	61,03
215,538	63,61
216,09	58,81
216,642	61,72
217,194	62,13
217,746	61,92
218,297	57,16
218,849	59,44
219,4	67,44
219,951	58,67
220,502	63,5
221,053	55,89
221,604	58,61
222,155	63,86
222,705	61,33
223,256	58,24
223,806	61,79
224,356	60,46
224,906	60,93
225,456	55,94
226,006	54,77
226,556	58,19
227,106	62,61
227,655	58,21
228,204	61,42
228,754	64,43
229,303	58,66
229,852	63,7
230,401	62,29
230,949	62,39
231,498	58,61
232,047	49,38
232,595	63,81
233,143	66,32
233,691	58,64
234,239	56,99
234,787	62,37
235,335	63,82
235,883	61,5
236,43	62,73
236,978	60,97
237,525	58,93
238,072	58,57
238,619	61,31
239,166	59,39
239,713	55,57
240,26	61,67
240,806	58,97
241,353	60,43
241,899	60,93
242,445	63,21
242,991	58,72
243,537	59,62
244,083	60,24
244,629	58,78
245,174	64,98
245,72	56,5
246,265	64,2
246,81	63,8
247,355	63,06
247,9	62,06
248,445	58,13
248,99	58,92
249,534	63,62
250,079	56,61
250,623	53,1
251,168	65,7
251,712	57,32
252,256	51,43
252,8	61,34
253,343	60,42
253,887	53,95
254,43	64,36
254,974	61,95
255,517	60,19
256,06	65,09
256,603	61,84
257,146	63,4
257,689	64,76
258,232	58,66
258,774	61,16
259,317	59,91
259,859	56,02
260,401	64,44
260,943	63,14
261,485	61,23
262,027	60,45
262,569	56,21
263,11	56,46
263,652	58,9
264,193	60,85
264,734	61,19
265,275	54,52
265,816	54,75
266,357	56,24
266,898	60,17
267,438	60,99
267,979	68,26
268,519	64,32
269,059	64,12
269,6	59,11
270,14	57,18
270,68	56,87
271,219	60,83
271,759	61,84
272,298	59,39
272,838	58,61
273,377	53,2
273,916	60,5
274,455	57,29
274,994	66,23
275,533	55,78
276,072	62,95
276,61	56,08
277,149	57,11
277,687	58,08
278,225	54,16
278,763	62,48
279,301	58,16
279,839	59,55
280,377	57,05
280,914	57,2
281,452	61,65
281,989	61,52
282,526	53,56
283,064	57,85
283,601	59,18
284,137	57,12
284,674	62,66
285,211	63,58
285,747	58,03
286,284	60,51
286,82	51,77
287,356	58,25
287,892	61,86
288,428	54,18
288,964	62,65
289,5	57,58
290,035	63,91
290,571	60,85
291,106	62,78
291,641	55,89
292,176	58,63
292,711	57,02
293,246	60,43
293,781	59,96
294,315	58,23
294,85	64,76
295,384	65,51
295,918	53,37
296,453	58,86
296,987	59,1
297,52	55,63
298,054	52,63
298,588	59,64
299,121	62
299,655	59,87
300,188	55,89
300,721	60,79
301,254	62,37
301,787	54,45
302,32	69,67
302,853	54,17
303,385	53,33
303,918	60,78
304,45	57,45
304,982	56,6
305,514	62,7
306,046	51,79
306,578	55,61
307,11	58,5
307,641	62,23
308,173	60,15
308,704	61,68
309,236	58,48
309,767	55,32
310,298	54,01
310,829	62,79
311,359	60,99
311,89	62,48
312,421	60,08
312,951	56,39
313,481	57,58
314,012	57,9
314,542	61,27
315,072	56,51
315,601	57,44
316,131	58,98
316,661	56,24
317,19	56,95
317,72	52,39
318,249	59,27
318,778	56,04
319,307	53,81
319,836	61,98
320,365	63,8
320,893	60,66
321,422	54,35
321,95	62,84
322,479	59,34
323,007	53,84
323,535	54,81
324,063	59,83
324,591	62,96
325,118	64,75
325,646	57,33
326,173	65,7
326,701	57,74
327,228	59,78
327,755	63,3
328,282	57,26
328,809	58,55
329,336	63,13
329,862	61,52
330,389	58,53
330,915	56,32
331,441	58,14
331,968	60,34
332,494	53,53
333,02	62,15
333,545	59,4
334,071	61,34
334,597	58,24
335,122	56,46
335,648	53,74
336,173	63,75
336,698	57,08
337,223	62,49
337,748	55,82
338,272	54,91
338,797	59,35
339,322	62,97
339,846	57,29
340,37	60,54
340,894	61,97
341,419	58,24
341,942	54,87
342,466	52,99
342,99	52,71
343,514	57,87
344,037	52,58
344,56	55,04
345,084	52,6
345,607	54,13
346,13	54,91
346,653	52,57
347,175	52,26
347,698	59,56
348,221	51,54
348,743	55,19
349,265	53,39
349,787	52,74
350,309	49,98
350,831	57,09
351,353	49,72
351,875	52,13
352,397	48,57
352,918	53,04
353,439	58,27
353,961	53,29
354,482	53,47
355,003	48,64
355,524	52,93
356,044	49,72
356,565	48,99
357,086	54,66
357,606	49,08
358,126	52,4
358,646	49,73
359,167	51,28
359,687	48,69
360,206	50,42
360,726	50,55
361,246	50,18
361,765	51,74
362,285	54,44
362,804	50,76
363,323	50,59
363,842	50,73
364,361	47,11
364,88	48,05
365,398	48,52
365,917	48,65
366,435	49,35
366,954	50,62
367,472	49,94
367,99	49,27
368,508	48,89
369,026	46,33
369,544	49,88
370,061	44,49
370,579	46,24
371,096	45,3
371,613	48,99
372,131	47,97
372,648	44,37
373,165	47,44
373,681	46,82
374,198	46,26
374,715	46,97
375,231	47,54
375,747	47
376,264	43,71
376,78	46,17
377,296	48,09
377,812	46,63
378,327	46,42
378,843	45,58
379,359	48,41
379,874	43,34
380,389	44,77
380,905	41,57
381,42	42,03
381,935	43,01
382,449	40,38
382,964	41,28
383,479	41,66
383,993	39,96
384,508	38,44
385,022	39,31
385,536	43,08
386,05	38,96
386,564	38,56
387,078	39,75
387,592	38,37
388,105	38,31
388,619	36,61
389,132	35,64
389,645	37,26
390,158	35,51
390,671	34,4
391,184	36,83
391,697	34,34
392,21	35,71
392,722	32,78
393,235	35,77
393,747	35,3
394,259	33,26
394,771	34,61
395,283	33,3
395,795	33,76
396,307	34,36
396,818	33,89
397,33	32,6
397,841	30,3
398,353	31,82
398,864	30,5
399,375	30,29
399,886	28,89
400,397	28,45
400,907	28,21
401,418	27,32
401,928	28,07
402,439	27,34
402,949	27
403,459	27,09
403,969	25,51
404,479	25,2
404,989	23,79
405,498	23,26
406,008	23,37
406,517	23,45
407,027	21,7
407,536	20,47
408,045	20,83
408,554	19,85
409,063	18,38
409,572	18,44
410,08	18,74
410,589	17,95
411,097	17,1
411,606	17,66
412,114	16,23
412,622	16,49
413,13	15,2
413,638	15,39
414,145	15,07
414,653	14,67
415,16	13,78
415,668	14,04
416,175	13,52
416,682	13,15
417,189	13,13
417,696	12,21
418,203	12,87
418,71	12,77
419,216	12,03
419,723	12,2
420,229	11,6
420,735	11,54
421,242	11,65
421,748	11,46
422,254	11,37
422,759	11,36
423,265	11,17
423,771	11,16
424,276	10,73
424,781	10,87
425,287	10,94
425,792	10,89
426,297	10,47
426,802	10,46
427,306	10,69
427,811	10,33
428,316	10,28
428,82	10,61
429,324	10,32
429,829	9,94
430,333	10,33
430,837	10,45
431,34	10,19
431,844	10,11
432,348	10,31
432,851	9,96
433,355	9,87
433,858	9,65
434,361	9,92
434,864	9,68
435,367	9,73
435,87	9,79
436,373	10,06
436,876	9,55
437,378	9,85
437,88	9,41
438,383	9,58
438,885	9,54
439,387	9,32
439,889	9,59
440,391	9,62
440,892	9,3
441,394	9,64
441,896	9,62
442,397	9,68
442,898	9,5
443,399	9,67
443,9	9,26
444,401	9,79
444,902	9,5
445,403	9,53
445,903	9,44
446,404	9,63
446,904	9,43
447,405	9,56
447,905	9,57
448,405	9,57
448,905	9,84
449,404	9,69
449,904	9,39
450,404	9,96
450,903	9,89
451,403	9,63
451,902	9,83
452,401	9,71
452,9	10,07
453,399	9,81
453,898	10,12
454,396	9,66
454,895	10,01
455,393	9,67
455,892	9,91
456,39	10,04
456,888	9,97
457,386	9,83
457,884	10,12
458,382	10
458,879	9,97
459,377	9,87
459,874	10,18
460,372	10,17
460,869	10,03
461,366	10,04
461,863	9,97
462,36	10,19
462,857	10,03
463,353	9,8
463,85	10,03
464,346	9,99
464,843	9,93
465,339	10,14
465,835	10,02
466,331	10,09
466,827	9,95
467,323	9,94
467,818	10,01
468,314	9,94
468,809	10,04
469,305	9,9
469,8	9,86
470,295	10,06
470,79	9,76
471,285	9,88
471,78	10,15
472,274	10,29
472,769	9,78
473,263	9,76
473,758	10,17
474,252	9,92
474,746	9,88
475,24	9,96
475,734	9,78
476,228	9,97
476,721	10,08
477,215	9,97
477,708	10,14
478,202	10,22
478,695	10,03
479,188	10,13
479,681	10,11
480,174	10,01
480,667	10,12
481,159	10,29
481,652	9,85
482,144	10,15
482,637	10,23
483,129	10,22
483,621	10,29
484,113	10,15
484,605	10,14
485,097	10,12
485,588	10,44
486,08	10,34
486,571	10,17
487,063	10,32
487,554	10,33
488,045	10,24
488,536	10,35
489,027	10,29
489,518	10,4
490,008	10,46
490,499	10,44
490,989	10,52
491,48	10,57
491,97	10,62
492,46	10,52
492,95	10,68
493,44	10,72
493,93	10,76
494,419	10,7
494,909	11,08
495,398	10,86
495,888	10,92
496,377	11,03
496,866	10,92
497,355	10,97
497,844	11,06
498,333	11,15
498,821	11,23
499,31	11,36
499,798	11,51
500,287	11,58
500,775	11,67
501,263	11,79
501,751	11,96
502,239	11,95
502,727	12,19
503,215	12,29
503,702	12,37
504,19	12,31
504,677	12,57
505,164	12,7
505,651	12,86
506,139	13,03
506,625	13
507,112	13,15
507,599	13,26
508,086	13,56
508,572	13,67
509,058	13,99
509,545	13,99
510,031	14,13
510,517	14,46
511,003	14,88
511,489	14,63
511,974	14,92
512,46	15,27
512,946	15,72
513,431	15,8
513,916	16,22
514,401	16,61
514,887	16,57
515,371	16,84
515,856	17,2
516,341	17,53
516,826	18,13
517,31	18,07
517,795	18,32
518,279	18,58
518,763	19
519,247	19,44
519,731	19,76
520,215	20,13
520,699	20,48
521,182	20,68
521,666	21,23
522,149	21,29
522,633	21,77
523,116	22,2
523,599	22,32
524,082	22,73
524,565	23,07
525,048	23,47
525,53	23,76
526,013	23,85
526,495	24,26
526,978	24,75
527,46	24,51
527,942	25,33
528,424	25,32
528,906	25,26
529,388	25,47
529,87	26,04
530,351	26,17
530,833	26,36
531,314	26,46
531,795	26,53
532,277	26,63
532,758	27,14
533,238	27,35
533,719	27,25
534,2	27,25
534,681	27,5
535,161	28,2
535,642	27,59
536,122	27,69
536,602	27,69
537,082	27,87
537,562	28,19
538,042	28,29
538,522	28,17
539,001	28,44
539,481	28,47
539,96	28,89
540,44	28,71
540,919	28,69
541,398	28,79
541,877	28,87
542,356	28,92
542,835	28,95
543,313	29,12
543,792	29,11
544,27	29,03
544,749	29,15
545,227	29,36
545,705	29,51
546,183	29,14
546,661	29,48
547,139	29,45
547,616	29,4
548,094	29,05
548,571	29,62
549,049	29,41
549,526	29,59
550,003	29,69
550,48	29,47
550,957	29,82
551,434	29,3
551,911	29,74
552,387	29,65
552,864	29,76
553,34	29,72
553,817	29,68
554,293	29,7
554,769	29,79
555,245	29,74
555,721	29,39
556,197	29,51
556,672	29,85
557,148	29,68
557,623	29,67
558,099	29,63
558,574	29,5
559,049	29,52
559,524	29,43
559,999	29,4
560,474	29,41
560,948	29,38
561,423	28,9
561,897	28,92
562,372	28,81
562,846	28,79
563,32	28,81
563,794	28,77
564,268	28,75
564,742	28,29
565,216	28,29
565,69	28,15
566,163	28,03
566,636	27,57
567,11	27,63
567,583	27,28
568,056	27,28
568,529	27,3
569,002	26,9
569,475	26,66
569,947	26,53
570,42	26,62
570,892	26,23
571,365	26,17
571,837	25,92
572,309	25,79
572,781	25,55
573,253	25,49
573,725	25,37
574,197	24,87
574,668	24,91
575,14	24,63
575,611	24,43
576,082	24,3
576,554	24,05
577,025	23,96
577,496	23,59
577,967	23,73
578,437	23,74
578,908	23,51
579,379	23,18
579,849	23,2
580,319	23,04
580,79	22,7
581,26	22,64
581,73	22,66
582,2	22,39
582,669	22,29
583,139	22,15
583,609	22,07
584,078	21,89
584,548	21,82
585,017	21,7
585,486	21,86
585,955	21,42
586,424	21,41
586,893	21,52
587,362	21,21
587,83	21,11
588,299	21,08
588,767	21,08
589,236	20,89
589,704	20,92
590,172	20,83
590,64	20,83
591,108	20,72
591,576	20,59
592,043	20,74
592,511	20,5
592,978	20,35
593,446	20,24
593,913	20,1
594,38	20,06
594,847	20,23
595,314	20,13
595,781	20,12
596,248	20,21
596,715	19,97
597,181	20,13
597,647	19,97
598,114	19,99
598,58	19,92
599,046	19,8
599,512	20
599,978	19,67
600,444	19,85
600,91	19,73
601,375	19,52
601,841	19,68
602,306	19,57
602,771	19,54
603,236	19,4
603,702	19,32
604,167	19,32
604,631	19,19
605,096	19,17
605,561	19,13
606,025	18,97
606,49	18,75
606,954	18,96
607,418	18,82
607,882	18,72
608,347	18,66
608,81	18,51
609,274	18,39
609,738	18,38
610,202	18,15
610,665	18,15
611,128	18,01
611,592	17,94
612,055	17,75
612,518	17,82
612,981	17,73
613,444	17,69
613,907	17,48
614,369	17,45
614,832	17,41
615,294	17,3
615,757	17,11
616,219	16,99
616,681	17,09
617,143	16,91
617,605	16,65
618,067	16,82
618,529	16,58
618,99	16,53
619,452	16,63
619,913	16,53
620,375	16,42
620,836	16,25
621,297	16,06
621,758	16,29
622,219	16,15
622,68	16,07
623,14	16,14
623,601	16,16
624,061	15,97
624,522	15,86
624,982	15,85
625,442	15,97
625,902	15,81
626,362	15,92
626,822	15,78
627,282	15,92
627,742	15,65
628,201	15,74
628,661	15,83
629,12	15,79
629,579	15,75
630,038	15,67
630,497	15,69
630,956	15,59
631,415	15,46
631,874	15,59
632,332	15,44
632,791	15,43
633,249	15,34
633,708	15,37
634,166	15,27
634,624	15,26
635,082	15,35
635,54	15,1
635,998	15,07
636,455	14,85
636,913	14,82
637,37	14,78
637,828	14,78
638,285	14,64
638,742	14,52
639,199	14,4
639,656	14,18
640,113	14,22
640,57	14,16
641,027	13,96
641,483	13,85
641,94	13,69
642,396	13,56
642,852	13,51
643,309	13,38
643,765	13,37
644,221	13,12
644,676	13,16
645,132	12,92
645,588	12,87
646,043	12,7
646,499	12,63
646,954	12,5
647,409	12,42
647,864	12,23
648,319	12,1
648,774	12,19
649,229	12,14
649,684	12,06
650,139	11,97
650,593	11,89
651,047	11,84
651,502	11,72
651,956	11,57
652,41	11,58
652,864	11,51
653,318	11,62
653,772	11,55
654,225	11,5
654,679	11,4
655,133	11,43
655,586	11,35
656,039	11,13
656,492	11,14
656,946	11,22
657,399	11,06
657,851	11,01
658,304	10,98
658,757	10,96
659,209	10,72
659,662	10,71
660,114	10,77
660,567	10,57
661,019	10,62
661,471	10,48
661,923	10,47
662,375	10,5
662,826	10,42
663,278	10,26
663,73	10,25
664,181	10,26
664,632	10,18
665,084	10,12
665,535	10,13
665,986	10,13
666,437	10,02
666,888	10,01
667,338	10,1
667,789	10,04
668,24	10,06
668,69	9,99
669,14	10,03
669,591	10,07
670,041	10,08
670,491	10,04
670,941	10,11
671,391	10,05
671,84	10,22
672,29	10,16
672,74	10,28
673,189	10,34
673,638	10,29
674,088	10,38
674,537	10,51
674,986	10,55
675,435	10,68
675,883	10,63
676,332	10,68
676,781	10,82
677,229	10,88
677,678	11,06
678,126	11,07
678,574	11,18
679,022	11,19
679,47	11,41
679,918	11,42
680,366	11,49
680,814	11,72
681,261	11,81
681,709	11,89
682,156	11,97
682,604	11,95
683,051	12,2
683,498	12,2
683,945	12,38
684,392	12,39
684,839	12,5
685,286	12,69
685,732	12,76
686,179	12,84
686,625	12,82
687,071	13,12
687,518	13,35
687,964	13,4
688,41	13,63
688,856	14
689,301	14,06
689,747	14,22
690,193	14,61
690,638	14,87
691,084	15,15
691,529	15,46
691,974	15,98
692,419	16,27
692,864	16,73
693,309	17,28
693,754	17,72
694,199	18,09
694,643	18,67
695,088	19,15
695,532	19,74
695,977	20,33
696,421	20,73
696,865	21,43
697,309	22,13
697,753	22,63
698,197	23,31
698,64	23,69
699,084	24,27
699,527	24,87
699,971	25,57
700,414	26,03
700,857	26,54
701,3	27,11
701,743	27,62
702,186	28,16
702,629	28,67
703,072	29,23
703,515	29,99
703,957	30,31
704,399	30,96
704,842	31,45
705,284	31,78
705,726	32,36
706,168	32,67
706,61	33,44
707,052	33,86
707,494	34,23
707,935	34,76
708,377	35,1
708,818	35,64
709,26	36,05
709,701	36,43
710,142	36,89
710,583	37,42
711,024	37,75
711,465	38,37
711,905	38,42
712,346	38,96
712,787	39,39
713,227	39,82
713,667	40,15
714,108	40,7
714,548	40,88
714,988	41,09
715,428	41,63
715,868	42,05
716,307	42,03
716,747	42,65
717,186	43,06
717,626	43,28
718,065	43,93
718,504	43,98
718,944	44,35
719,383	44,67
719,822	45,1
720,261	45,18
720,699	45,46
721,138	45,7
721,576	46,05
722,015	46,32
722,453	46,75
722,892	46,81
723,33	47,14
723,768	47,46
724,206	47,7
724,644	47,74
725,081	47,99
725,519	48,05
725,957	48,26
726,394	48,56
726,832	48,9
727,269	49
727,706	49,2
728,143	49,39
728,58	49,46
729,017	49,59
729,454	50,25
729,89	50,05
730,327	50,06
730,764	50,25
731,2	50,24
731,636	50,7
732,072	50,81
732,509	50,65
732,945	50,79
733,38	51,19
733,816	51
734,252	51,12
734,688	51,13
735,123	51,08
735,559	51,67
735,994	51,19
736,429	51,67
736,864	51,66
737,299	51,33
737,734	51,72
738,169	51,78
738,604	51,94
739,038	51,96
739,473	51,99
739,907	51,94
740,342	51,81
740,776	51,99
741,21	51,95
741,644	51,94
742,078	52,08
742,512	52,32
742,946	52,27
743,379	51,96
743,813	52,17
744,246	52,14
744,68	52,31
745,113	52,22
745,546	52,01
745,979	52,14
746,412	52,15
746,845	52,21
747,278	52,39
747,711	52,09
748,143	52,29
748,576	51,94
749,008	52,09
749,441	52,14
749,873	52,16
750,305	52,16
750,737	52,04
751,169	52,06
751,601	52,08
752,032	51,86
752,464	51,8
752,896	51,91
753,327	51,6
753,758	51,66
754,19	51,58
754,621	51,71
755,052	51,74
755,483	51,55
755,914	51,65
756,344	51,87
756,775	51,59
757,206	51,94
757,636	51,31
758,066	51,61
758,497	51,56
758,927	51,5
759,357	51,6
759,787	51,38
760,217	51,38
760,647	51,2
761,076	51,39
761,506	51,37
761,935	51,04
762,365	51,39
762,794	51,35
763,223	51,22
763,653	51,18
764,082	51
764,51	51,21
764,939	51,04
765,368	51,14
765,797	51,23
766,225	51,12
766,654	50,85
767,082	50,78
767,51	51
767,938	50,81
768,367	50,8
768,795	50,78
769,222	50,89
769,65	50,85
770,078	50,94
770,505	50,67
770,933	50,63
771,36	50,69
771,788	50,7
772,215	50,8
772,642	50,56
773,069	50,59
773,496	50,49
773,923	50,38
774,349	50,37
774,776	50,44
775,203	50,43
775,629	50,51
776,055	50,36
776,482	50,42
776,908	50,62
777,334	50,2
777,76	50,42
778,186	50,36
778,611	50,4
779,037	50,31
779,463	50,2
779,888	50,17
780,314	50
780,739	50,43
781,164	50,29
781,589	50,05
782,014	50
782,439	50,21
782,864	50,16
783,289	50,23
783,713	50,11
784,138	50,15
784,562	50,16
784,987	50,16
785,411	50,19
785,835	50,29
786,259	50,06
786,683	50,09
787,107	50,13
787,531	50,11
787,954	49,92
788,378	50,13
788,802	50,04
789,225	49,96
789,648	50,17
790,071	50,05
790,495	49,86
790,918	50,12
791,34	50
791,763	49,83
792,186	49,9
792,609	50,06
793,031	49,94
793,454	49,97
793,876	49,98
794,298	49,88
794,721	49,96
795,143	50,11
795,565	49,86
795,986	49,92
796,408	49,9
796,83	50,15
797,252	49,95
797,673	49,86
798,094	49,59
798,516	49,73
798,937	49,66
799,358	49,88
799,779	49,76
800,2	49,83
800,621	49,82
801,042	49,67
801,462	49,64
801,883	50,07
802,303	49,82
802,724	49,84
803,144	49,84
803,564	49,71
803,984	49,73
804,404	49,79
804,824	49,86
805,244	49,84
805,664	49,67
806,084	49,75
806,503	49,89
806,923	49,82
807,342	49,74
807,761	49,71
808,18	49,82
808,599	49,83
809,018	49,55
809,437	49,74
809,856	49,6
810,275	49,51
810,693	49,55
811,112	49,53
811,53	49,81
811,949	49,67
812,367	49,54
812,785	49,57
813,203	49,72
813,621	49,77
814,039	49,68
814,457	49,39
814,874	49,73
815,292	49,54
815,709	49,42
816,127	49,65
816,544	49,63
816,961	49,68
817,378	49,89
817,795	49,73
818,212	49,6
818,629	49,54
819,046	49,51
819,462	49,6
819,879	49,6
820,295	49,5
820,712	49,59
821,128	49,71
821,544	49,69
821,96	49,65
822,376	49,51
822,792	49,53
823,208	49,28
823,624	49,83
824,039	49,63
824,455	49,57
824,87	49,55
825,286	49,55
825,701	49,62
826,116	49,35
826,531	49,33
826,946	49,61
827,361	49,49
827,776	49,29
828,19	49,32
828,605	49,34
829,02	49,64
829,434	49,45
829,848	49,86
830,263	49,5
830,677	49,38
831,091	49,75
831,505	49,49
831,919	49,3
832,332	49,41
832,746	49,37
833,16	49,37
833,573	49,44
833,987	49,44
834,4	49,23
834,813	49,29
835,226	49,26
835,639	49,57
