Data from E2__Relative__1__00067.txt Node

Date: Tue Jan 30 17:56:45 CET 2024
User: diatiterra
Spectrometer: HDX00911
Trigger mode: 0
Integration Time (sec): 6,000000E-3
Scans to average: 3
Nonlinearity correction enabled: true
Boxcar width: 0
Storing dark spectrum: false
XAxis mode: Wavelengths
Number of Pixels in Spectrum: 2068
>>>>>Begin Spectral Data<<<<<
194,468	102,98
195,025	69,17
195,581	89,36
196,138	69,94
196,694	74,27
197,251	63,21
197,807	63,45
198,363	67,72
198,919	59,79
199,474	69,49
200,03	61,42
200,586	61,41
201,141	59,91
201,696	55,67
202,251	58,04
202,806	60,48
203,361	64,48
203,916	63,04
204,471	62,27
205,025	63,55
205,58	62,62
206,134	62,66
206,688	61,43
207,242	61,67
207,796	65,64
208,35	58,51
208,904	64,54
209,457	64,31
210,011	65,4
210,564	54,64
211,117	62,7
211,67	72,6
212,223	68,49
212,776	65,12
213,329	65,24
213,881	63,94
214,434	60,94
214,986	61,67
215,538	61,58
216,09	56,99
216,642	66,45
217,194	62,13
217,746	59,83
218,297	60,15
218,849	68,46
219,4	61,1
219,951	59,91
220,502	68,45
221,053	62,31
221,604	59,79
222,155	66,11
222,705	63,82
223,256	60,07
223,806	64,39
224,356	65,06
224,906	62,63
225,456	59,71
226,006	58,27
226,556	62,1
227,106	67,31
227,655	60,7
228,204	62,89
228,754	64,22
229,303	60,28
229,852	64,57
230,401	68,54
230,949	64,46
231,498	63,4
232,047	60,24
232,595	65,1
233,143	61,23
233,691	59,63
234,239	61,92
234,787	64,62
235,335	63,19
235,883	61,06
236,43	63,97
236,978	60,97
237,525	63,44
238,072	62,75
238,619	60,22
239,166	55,83
239,713	58,61
240,26	58,88
240,806	58,97
241,353	57,02
241,899	59,56
242,445	63,21
242,991	58,72
243,537	59,83
244,083	59,42
244,629	64,24
245,174	60,55
245,72	60,76
246,265	64,9
246,81	62,04
247,355	55,93
247,9	63,11
248,445	67,97
248,99	62,39
249,534	59,82
250,079	65,86
250,623	58,71
251,168	57,85
251,712	55,62
252,256	55,77
252,8	58,68
253,343	65,26
253,887	59,68
254,43	66,45
254,974	67,04
255,517	65,33
256,06	59,64
256,603	59,92
257,146	61,88
257,689	66,82
258,232	65,15
258,774	62,02
259,317	60,96
259,859	61,94
260,401	63,54
260,943	61,23
261,485	57,71
262,027	62,89
262,569	59,06
263,11	59,13
263,652	64,68
264,193	62,84
264,734	56,5
265,275	60,71
265,816	63,8
266,357	59,79
266,898	54,98
267,438	60,54
267,979	64,86
268,519	63,66
269,059	61,05
269,6	61,56
270,14	61,05
270,68	61,94
271,219	61,06
271,759	61,62
272,298	61,12
272,838	59,7
273,377	62,82
273,916	58,19
274,455	59,16
274,994	61,16
275,533	62,22
276,072	63,17
276,61	61,94
277,149	59,87
277,687	61,36
278,225	60,62
278,763	62,7
279,301	62,02
279,839	55,68
280,377	60,09
280,914	61,02
281,452	64,16
281,989	62,22
282,526	58,65
283,064	70,54
283,601	57,67
284,137	64,23
284,674	64,77
285,211	68,11
285,747	67,03
286,284	62,8
286,82	57,33
287,356	64,72
287,892	63,05
288,428	59,03
288,964	67,43
289,5	65,8
290,035	64,58
290,571	62,34
291,106	66,6
291,641	59,74
292,176	60,08
292,711	58,53
293,246	57,45
293,781	61,75
294,315	55,06
294,85	70,76
295,384	68,8
295,918	66,24
296,453	61,71
296,987	60,6
297,52	62,26
298,054	61,18
298,588	60,11
299,121	62,68
299,655	63,95
300,188	59,39
300,721	55,51
301,254	62,59
301,787	61,65
302,32	63,55
302,853	60,17
303,385	64,67
303,918	60,54
304,45	53,99
304,982	64,56
305,514	61,35
306,046	61,05
306,578	63,15
307,11	58,72
307,641	69,47
308,173	63,22
308,704	67,68
309,236	64,05
309,767	62,77
310,298	58,13
310,829	60,32
311,359	60,79
311,89	59,56
312,421	58,4
312,951	57,71
313,481	64,46
314,012	59,37
314,542	60,84
315,072	63,76
315,601	55,74
316,131	61,89
316,661	58,43
317,19	64,61
317,72	60,91
318,249	57,36
318,778	63,15
319,307	60,76
319,836	60,41
320,365	61,69
320,893	64,84
321,422	53,26
321,95	58,39
322,479	60,67
323,007	57,26
323,535	53,96
324,063	61,84
324,591	60,69
325,118	62,19
325,646	62,36
326,173	61,18
326,701	56,43
327,228	57,56
327,755	65,24
328,282	55,98
328,809	56,14
329,336	64,03
329,862	59,13
330,389	59,46
330,915	59,43
331,441	60,68
331,968	57,99
332,494	58,38
333,02	55,27
333,545	57,45
334,071	56,45
334,597	62
335,122	62,81
335,648	57,7
336,173	60,62
336,698	57,9
337,223	55,94
337,748	54,85
338,272	51,31
338,797	58,34
339,322	57,09
339,846	58,72
340,37	58,53
340,894	57,91
341,419	54,28
341,942	55,84
342,466	57,54
342,99	59,52
343,514	55,41
344,037	54,81
344,56	57,61
345,084	52,95
345,607	54,13
346,13	57,89
346,653	52,38
347,175	58,34
347,698	58,23
348,221	51,73
348,743	50,24
349,265	54,86
349,787	50,6
350,309	56,94
350,831	54,39
351,353	49,39
351,875	49,8
352,397	48,57
352,918	51,68
353,439	50,14
353,961	50,05
354,482	49,26
355,003	46,92
355,524	49,18
356,044	51,69
356,565	47,52
357,086	52,66
357,606	48,76
358,126	49,65
358,646	48,66
359,167	46,27
359,687	48,41
360,206	45,96
360,726	50,25
361,246	46,04
361,765	43,35
362,285	49,08
362,804	48,87
363,323	46,47
363,842	48,03
364,361	47,25
364,88	49,13
365,398	44,77
365,917	49,33
366,435	43,36
366,954	47,93
367,472	46,7
367,99	46,18
368,508	44,44
369,026	43,15
369,544	45,96
370,061	44,61
370,579	45,09
371,096	46,32
371,613	46,98
372,131	45,31
372,648	44,7
373,165	40,96
373,681	48
374,198	43,08
374,715	42,64
375,231	43,58
375,747	44,38
376,264	40,74
376,78	46,07
377,296	40,94
377,812	43,73
378,327	41,77
378,843	42,06
379,359	40,06
379,874	42,42
380,389	40,68
380,905	38,58
381,42	38,9
381,935	42,26
382,449	40,3
382,964	36,99
383,479	37,96
383,993	38,44
384,508	35,54
385,022	35,86
385,536	38,6
386,05	36,25
386,564	37,44
387,078	36,2
387,592	34,71
388,105	34,16
388,619	33,07
389,132	32,92
389,645	35,47
390,158	32,43
390,671	32,18
391,184	32,45
391,697	31,59
392,21	31,69
392,722	31,55
393,235	30,64
393,747	30,73
394,259	30,56
394,771	30,78
395,283	28,23
395,795	30,08
396,307	29,32
396,818	29,55
397,33	28,42
397,841	28,61
398,353	27,51
398,864	28,53
399,375	28,14
399,886	25,01
400,397	25,34
400,907	25,05
401,418	24,36
401,928	25,08
402,439	23,08
402,949	23,27
403,459	24,51
403,969	23,65
404,479	22,18
404,989	21,23
405,498	21,53
406,008	20,18
406,517	19,57
407,027	19,2
407,536	19,36
408,045	18,05
408,554	17,7
409,063	17,35
409,572	15,39
410,08	16,96
410,589	15,44
411,097	15,44
411,606	14,54
412,114	14,05
412,622	13,05
413,13	13,96
413,638	13,67
414,145	12,82
414,653	12,26
415,16	12,48
415,668	12,13
416,175	11,82
416,682	10,93
417,189	11,02
417,696	10,8
418,203	10,95
418,71	10,78
419,216	10,8
419,723	10,15
420,229	10,21
420,735	9,89
421,242	9,82
421,748	9,69
422,254	9,52
422,759	9,78
423,265	9,74
423,771	9,08
424,276	9,45
424,781	8,89
425,287	8,88
425,792	9,11
426,297	8,92
426,802	8,75
427,306	9,14
427,811	8,75
428,316	8,63
428,82	8,68
429,324	8,65
429,829	8,46
430,333	8,38
430,837	8,38
431,34	8,54
431,844	8,13
432,348	8,15
432,851	8,25
433,355	8,21
433,858	8,25
434,361	8,52
434,864	7,73
435,367	8,12
435,87	7,98
436,373	7,98
436,876	7,72
437,378	7,98
437,88	8,02
438,383	7,94
438,885	7,93
439,387	8,04
439,889	7,84
440,391	7,8
440,892	7,64
441,394	7,82
441,896	7,82
442,397	8,11
442,898	7,77
443,399	7,74
443,9	8,01
444,401	8,03
444,902	7,7
445,403	7,43
445,903	7,79
446,404	7,79
446,904	7,89
447,405	7,67
447,905	7,79
448,405	8,23
448,905	7,85
449,404	7,81
449,904	7,81
450,404	7,89
450,903	7,93
451,403	8,05
451,902	7,84
452,401	7,85
452,9	7,87
453,399	8,27
453,898	8,09
454,396	8,11
454,895	7,94
455,393	7,98
455,892	8,3
456,39	8,45
456,888	8,12
457,386	8,15
457,884	8,08
458,382	8,07
458,879	8,17
459,377	8,51
459,874	8,23
460,372	8,18
460,869	7,98
461,366	8,17
461,863	8,08
462,36	8,28
462,857	8,29
463,353	8,08
463,85	8,05
464,346	8
464,843	8,35
465,339	8,43
465,835	8,3
466,331	8,13
466,827	8,19
467,323	8,12
467,818	8,03
468,314	8,18
468,809	8,02
469,305	8,32
469,8	8,12
470,295	8,04
470,79	8,15
471,285	8,26
471,78	8,15
472,274	8,27
472,769	8,36
473,263	8,29
473,758	7,96
474,252	8,19
474,746	8,22
475,24	8,14
475,734	8,08
476,228	7,93
476,721	8,08
477,215	8,26
477,708	8,27
478,202	8,2
478,695	8,1
479,188	8,31
479,681	7,97
480,174	8,29
480,667	8,38
481,159	8,25
481,652	8,33
482,144	8,31
482,637	8,17
483,129	8,24
483,621	8,34
484,113	8,31
484,605	8,28
485,097	8,26
485,588	8,33
486,08	8,58
486,571	8,58
487,063	8,58
487,554	8,56
488,045	8,71
488,536	8,38
489,027	8,55
489,518	8,56
490,008	8,41
490,499	8,73
490,989	8,75
491,48	8,62
491,97	8,69
492,46	8,85
492,95	8,79
493,44	8,93
493,93	9,17
494,419	9,04
494,909	9,03
495,398	9,1
495,888	9,25
496,377	9,27
496,866	9,41
497,355	9,47
497,844	9,59
498,333	9,7
498,821	9,64
499,31	9,73
499,798	9,87
500,287	10,03
500,775	9,91
501,263	10,2
501,751	10,41
502,239	10,76
502,727	10,69
503,215	10,65
503,702	10,7
504,19	10,86
504,677	11,29
505,164	11,33
505,651	11,35
506,139	11,7
506,625	11,86
507,112	12,41
507,599	12,38
508,086	12,43
508,572	12,69
509,058	13,07
509,545	13,09
510,031	13,3
510,517	13,44
511,003	13,81
511,489	13,93
511,974	14,51
512,46	14,53
512,946	15,22
513,431	15,18
513,916	15,54
514,401	15,78
514,887	16,28
515,371	16,45
515,856	16,63
516,341	17,19
516,826	17,33
517,31	17,79
517,795	18,27
518,279	18,46
518,763	18,97
519,247	19,06
519,731	19,69
520,215	20,08
520,699	20,23
521,182	20,56
521,666	21,04
522,149	21,47
522,633	21,7
523,116	22,03
523,599	22,48
524,082	23,15
524,565	23,1
525,048	23,7
525,53	23,79
526,013	24,1
526,495	24,49
526,978	24,52
527,46	24,9
527,942	25,2
528,424	25,44
528,906	25,59
529,388	25,76
529,87	26,56
530,351	26,58
530,833	26,44
531,314	26,85
531,795	26,89
532,277	27,18
532,758	27,21
533,238	27,46
533,719	27,73
534,2	27,83
534,681	27,79
535,161	28,09
535,642	28,26
536,122	28,24
536,602	28,36
537,082	28,6
537,562	28,5
538,042	28,66
538,522	28,64
539,001	28,79
539,481	28,84
539,96	28,99
540,44	29,16
540,919	29,19
541,398	28,83
541,877	29,4
542,356	29,37
542,835	29,55
543,313	29,27
543,792	29,31
544,27	29,74
544,749	29,4
545,227	29,59
545,705	29,77
546,183	29,67
546,661	29,86
547,139	29,79
547,616	29,52
548,094	30,02
548,571	29,82
549,049	29,74
549,526	30,13
550,003	29,95
550,48	30,2
550,957	29,81
551,434	29,86
551,911	30,07
552,387	30,38
552,864	29,92
553,34	29,98
553,817	30,2
554,293	29,97
554,769	30,62
555,245	30,05
555,721	30,22
556,197	30,02
556,672	30,24
557,148	30,17
557,623	30,19
558,099	29,87
558,574	29,75
559,049	29,92
559,524	29,68
559,999	29,81
560,474	29,67
560,948	29,57
561,423	29,64
561,897	29,24
562,372	29,36
562,846	29,25
563,32	29,1
563,794	28,94
564,268	28,92
564,742	28,56
565,216	28,81
565,69	28,55
566,163	28,39
566,636	27,94
567,11	28,13
567,583	27,52
568,056	27,6
568,529	27,47
569,002	27,08
569,475	27,24
569,947	26,96
570,42	26,61
570,892	26,28
571,365	26,27
571,837	26,1
572,309	25,64
572,781	25,67
573,253	25,51
573,725	25,28
574,197	25,07
574,668	24,81
575,14	24,84
575,611	24,44
576,082	24,37
576,554	24,22
577,025	24,2
577,496	23,79
577,967	23,78
578,437	23,58
578,908	23,52
579,379	23,11
579,849	22,83
580,319	23,03
580,79	22,56
581,26	22,64
581,73	22,31
582,2	22,7
582,669	22,09
583,139	22,1
583,609	22,17
584,078	21,94
584,548	21,63
585,017	21,65
585,486	21,72
585,955	21,14
586,424	21,32
586,893	21,22
587,362	21,16
587,83	21,09
588,299	20,8
588,767	20,69
589,236	20,65
589,704	20,66
590,172	20,73
590,64	20,47
591,108	20,48
591,576	20,36
592,043	20,4
592,511	20,4
592,978	20,01
593,446	20,06
593,913	19,87
594,38	19,96
594,847	19,92
595,314	19,78
595,781	19,81
596,248	19,76
596,715	19,69
597,181	19,52
597,647	19,7
598,114	19,67
598,58	19,79
599,046	19,48
599,512	19,48
599,978	19,36
600,444	19,43
600,91	19,22
601,375	19,16
601,841	19,3
602,306	19,24
602,771	19,09
603,236	19,18
603,702	19,08
604,167	18,95
604,631	18,86
605,096	18,73
605,561	18,78
606,025	18,65
606,49	18,51
606,954	18,53
607,418	18,34
607,882	18,39
608,347	18,16
608,81	18,02
609,274	17,87
609,738	17,79
610,202	17,81
610,665	17,68
611,128	17,81
611,592	17,46
612,055	17,3
612,518	17,32
612,981	17,21
613,444	16,91
613,907	17,01
614,369	16,75
614,832	16,77
615,294	16,61
615,757	16,45
616,219	16,48
616,681	16,29
617,143	16,24
617,605	16,05
618,067	16,06
618,529	15,81
618,99	15,9
619,452	15,75
619,913	15,85
620,375	15,67
620,836	15,61
621,297	15,55
621,758	15,45
622,219	15,47
622,68	15,33
623,14	15,49
623,601	15,28
624,061	15,33
624,522	15,34
624,982	15,28
625,442	15,23
625,902	15,15
626,362	15,1
626,822	15,19
627,282	15,15
627,742	15,05
628,201	14,88
628,661	14,92
629,12	14,88
629,579	14,91
630,038	14,94
630,497	14,93
630,956	14,86
631,415	14,98
631,874	14,72
632,332	14,69
632,791	14,79
633,249	14,72
633,708	14,65
634,166	14,6
634,624	14,55
635,082	14,4
635,54	14,27
635,998	14,18
636,455	14,1
636,913	14,03
637,37	13,9
637,828	13,77
638,285	13,77
638,742	13,52
639,199	13,59
639,656	13,29
640,113	13,39
640,57	13,19
641,027	12,93
641,483	12,91
641,94	12,6
642,396	12,65
642,852	12,48
643,309	12,26
643,765	12,15
644,221	12,12
644,676	11,92
645,132	11,78
645,588	11,86
646,043	11,48
646,499	11,45
646,954	11,3
647,409	11,21
647,864	11,13
648,319	10,9
648,774	10,92
649,229	10,87
649,684	10,77
650,139	10,6
650,593	10,54
651,047	10,57
651,502	10,49
651,956	10,41
652,41	10,32
652,864	10,38
653,318	10,29
653,772	10,23
654,225	10,2
654,679	10,11
655,133	9,99
655,586	10,02
656,039	10,02
656,492	9,9
656,946	9,91
657,399	9,79
657,851	9,55
658,304	9,61
658,757	9,43
659,209	9,23
659,662	9,35
660,114	9,16
660,567	9,13
661,019	9,09
661,471	8,95
661,923	9,03
662,375	8,79
662,826	8,8
663,278	8,76
663,73	8,6
664,181	8,63
664,632	8,48
665,084	8,47
665,535	8,47
665,986	8,49
666,437	8,31
666,888	8,28
667,338	8,35
667,789	8,27
668,24	8,26
668,69	8,22
669,14	8,3
669,591	8,3
670,041	8,28
670,491	8,31
670,941	8,25
671,391	8,46
671,84	8,33
672,29	8,36
672,74	8,42
673,189	8,55
673,638	8,59
674,088	8,67
674,537	8,69
674,986	8,88
675,435	8,85
675,883	8,9
676,332	9,18
676,781	9,18
677,229	9,14
677,678	9,32
678,126	9,34
678,574	9,55
679,022	9,57
679,47	9,74
679,918	9,8
680,366	9,89
680,814	10,01
681,261	10,11
681,709	10,3
682,156	10,46
682,604	10,59
683,051	10,73
683,498	10,83
683,945	10,99
684,392	11,16
684,839	11,15
685,286	11,42
685,732	11,55
686,179	11,74
686,625	11,85
687,071	12
687,518	12,27
687,964	12,5
688,41	12,69
688,856	13
689,301	13,4
689,747	13,72
690,193	13,95
690,638	14,38
691,084	14,8
691,529	15,2
691,974	15,62
692,419	16,13
692,864	16,49
693,309	17,15
693,754	17,73
694,199	18,28
694,643	18,81
695,088	19,45
695,532	20,01
695,977	20,6
696,421	21,1
696,865	21,77
697,309	22,5
697,753	23,2
698,197	23,75
698,64	24,38
699,084	24,78
699,527	25,48
699,971	26,16
700,414	26,73
700,857	27,41
701,3	28,15
701,743	28,44
702,186	29,23
702,629	29,55
703,072	30,19
703,515	30,82
703,957	31,25
704,399	31,86
704,842	32,36
705,284	32,75
705,726	33,42
706,168	33,72
706,61	34,42
707,052	34,79
707,494	35,16
707,935	35,87
708,377	36,15
708,818	36,64
709,26	37,26
709,701	37,66
710,142	37,99
710,583	38,42
711,024	38,95
711,465	39,22
711,905	39,69
712,346	39,83
712,787	40,36
713,227	40,77
713,667	41,43
714,108	41,7
714,548	41,92
714,988	42,33
715,428	42,51
715,868	43,02
716,307	43,16
716,747	43,78
717,186	43,96
717,626	44,24
718,065	44,72
718,504	44,82
718,944	45,33
719,383	45,81
719,822	45,82
720,261	46,13
720,699	46,38
721,138	46,41
721,576	46,87
722,015	47,25
722,453	47,58
722,892	47,7
723,33	48,05
723,768	48,12
724,206	48,4
724,644	48,51
725,081	48,89
725,519	48,83
725,957	49,07
726,394	49,21
726,832	49,45
727,269	49,73
727,706	49,82
728,143	49,95
728,58	50,22
729,017	50,27
729,454	50,69
729,89	50,65
730,327	50,6
730,764	51,02
731,2	50,97
731,636	51,06
732,072	51,35
732,509	51,77
732,945	51,47
733,38	51,67
733,816	51,54
734,252	51,71
734,688	51,45
735,123	51,82
735,559	52,02
735,994	52,01
736,429	52,12
736,864	52,26
737,299	51,97
737,734	52,2
738,169	52,16
738,604	52,1
739,038	52,37
739,473	52,14
739,907	52,55
740,342	52,4
740,776	52,54
741,21	52,45
741,644	52,63
742,078	52,55
742,512	52,74
742,946	52,45
743,379	52,69
743,813	52,52
744,246	52,5
744,68	52,81
745,113	52,7
745,546	52,38
745,979	52,63
746,412	52,57
746,845	52,5
747,278	52,62
747,711	52,35
748,143	52,5
748,576	52,33
749,008	52,6
749,441	52,35
749,873	52,29
750,305	52,27
750,737	52,4
751,169	52,54
751,601	52,42
752,032	52,36
752,464	52,26
752,896	52,28
753,327	52,2
753,758	52,15
754,19	52,17
754,621	52,06
755,052	52,09
755,483	51,99
755,914	52,07
756,344	52,1
756,775	52,01
757,206	52,03
757,636	51,88
758,066	51,62
758,497	51,84
758,927	51,62
759,357	51,76
759,787	51,6
760,217	51,9
760,647	51,47
761,076	51,86
761,506	51,68
761,935	51,41
762,365	51,57
762,794	51,3
763,223	51,31
763,653	51,72
764,082	51,51
764,51	51,43
764,939	51,19
765,368	51,32
765,797	51,5
766,225	51,19
766,654	51,11
767,082	51,1
767,51	51,16
767,938	50,97
768,367	51,22
768,795	50,95
769,222	51,12
769,65	51,31
770,078	50,97
770,505	50,84
770,933	50,93
771,36	50,81
771,788	50,85
772,215	51,13
772,642	50,57
773,069	50,8
773,496	50,66
773,923	50,47
774,349	50,57
774,776	50,63
775,203	50,54
775,629	50,72
776,055	50,52
776,482	50,73
776,908	50,66
777,334	50,64
777,76	50,54
778,186	50,47
778,611	50,64
779,037	50,47
779,463	50,43
779,888	50,24
780,314	50,46
780,739	50,47
781,164	50,41
781,589	50,39
782,014	50,24
782,439	50,56
782,864	50,48
783,289	50,4
783,713	49,94
784,138	50,28
784,562	50,38
784,987	50,16
785,411	50,29
785,835	50,16
786,259	50,11
786,683	50,46
787,107	50,19
787,531	50,01
787,954	50,03
788,378	50,16
788,802	50,24
789,225	50,12
789,648	50,34
790,071	50,22
790,495	49,98
790,918	50,19
791,34	50,47
791,763	49,8
792,186	50,22
792,609	50,2
793,031	49,9
793,454	50,12
793,876	50,05
794,298	50,08
794,721	49,95
795,143	50,04
795,565	49,86
795,986	50,03
796,408	49,92
796,83	50,18
797,252	49,95
797,673	50,09
798,094	49,75
798,516	49,73
798,937	49,9
799,358	49,83
799,779	49,7
800,2	49,68
800,621	50,02
801,042	49,8
801,462	49,59
801,883	49,88
802,303	49,79
802,724	49,73
803,144	49,84
803,564	49,74
803,984	49,9
804,404	49,85
804,824	49,96
805,244	49,91
805,664	49,87
806,084	49,71
806,503	50
806,923	49,87
807,342	49,66
807,761	49,64
808,18	49,77
808,599	49,87
809,018	49,75
809,437	49,75
809,856	49,56
810,275	49,55
810,693	49,7
811,112	49,57
811,53	49,51
811,949	50,21
812,367	49,55
812,785	49,58
813,203	49,55
813,621	49,76
814,039	49,91
814,457	49,42
814,874	49,9
815,292	49,91
815,709	49,63
816,127	49,59
816,544	49,97
816,961	49,67
817,378	49,74
817,795	49,77
818,212	49,7
818,629	49,45
819,046	49,52
819,462	49,58
819,879	49,65
820,295	49,58
820,712	49,28
821,128	49,56
821,544	49,51
821,96	49,48
822,376	49,52
822,792	49,58
823,208	49,42
823,624	49,56
824,039	49,55
824,455	49,42
824,87	49,58
825,286	49,34
825,701	49,51
826,116	49,33
826,531	49,31
826,946	49,58
827,361	49,47
827,776	49,39
828,19	49,22
828,605	49,51
829,02	49,48
829,434	49,4
829,848	49,38
830,263	49,4
830,677	49,2
831,091	49,48
831,505	49,21
831,919	49,22
832,332	49,07
832,746	49,36
833,16	49,03
833,573	49,42
833,987	49,34
834,4	49,17
834,813	49,2
835,226	49,21
835,639	49,33
836,052	49,27
836,465	49,36
836,878	49,56
837,29	49,28
837,703	49,45
838,116	49,24
838,528	49,37
838,94	49,38
839,352	49,25
839,765	49,33
