Data from E4__Relative__3__00078.txt Node

Date: Tue Jan 30 17:57:44 CET 2024
User: diatiterra
Spectrometer: HDX00911
Trigger mode: 0
Integration Time (sec): 6,000000E-3
Scans to average: 3
Nonlinearity correction enabled: true
Boxcar width: 0
Storing dark spectrum: false
XAxis mode: Wavelengths
Number of Pixels in Spectrum: 2068
>>>>>Begin Spectral Data<<<<<
194,468	107
195,025	96,74
195,581	99,44
196,138	94,01
196,694	85,1
197,251	71,05
197,807	69,75
198,363	70,23
198,919	67,18
199,474	76,79
200,03	67,71
200,586	66,26
201,141	66,59
201,696	60,32
202,251	68,43
202,806	70,06
203,361	67,86
203,916	64,65
204,471	69,07
205,025	65,78
205,58	69,69
206,134	73
206,688	63,64
207,242	63,64
207,796	69,51
208,35	64,32
208,904	66,13
209,457	67,54
210,011	69,62
210,564	66,72
211,117	70,08
211,67	71,06
212,223	69,3
212,776	70,8
213,329	70,82
213,881	71,07
214,434	63,13
214,986	69,59
215,538	72,55
216,09	63,89
216,642	65,43
217,194	63,57
217,746	67,36
218,297	62,94
218,849	70,82
219,4	69,56
219,951	69,42
220,502	69,69
221,053	63,34
221,604	66,46
222,155	72,07
222,705	61,12
223,256	63,74
223,806	68,4
224,356	65,69
224,906	66,66
225,456	62,29
226,006	64,12
226,556	63,07
227,106	69,45
227,655	66,11
228,204	67,5
228,754	65,69
229,303	63,5
229,852	68,7
230,401	69,59
230,949	65,91
231,498	63,97
232,047	67,2
232,595	68,1
233,143	70,13
233,691	72,35
234,239	64,49
234,787	67,89
235,335	68,39
235,883	70,58
236,43	66,04
236,978	62,39
237,525	66,11
238,072	67,78
238,619	71,31
239,166	65,53
239,713	62,87
240,26	69,59
240,806	62,64
241,353	68,26
241,899	65,81
242,445	73,57
242,991	67,14
243,537	68,71
244,083	68,96
244,629	67,07
245,174	64,98
245,72	68,44
246,265	74,2
246,81	71,09
247,355	65,65
247,9	67,72
248,445	70,94
248,99	73,92
249,534	68,98
250,079	73,57
250,623	65,92
251,168	66,11
251,712	63,9
252,256	58,25
252,8	70,14
253,343	68
253,887	60,27
254,43	74,09
254,974	67,26
255,517	66
256,06	72,12
256,603	66,95
257,146	65,8
257,689	70,26
258,232	71
258,774	68,24
259,317	67,85
259,859	65,96
260,401	81,44
260,943	71,82
261,485	72,47
262,027	72,67
262,569	69,04
263,11	66,12
263,652	79
264,193	67,48
264,734	67,17
265,275	64,68
265,816	66,97
266,357	65,62
266,898	66,67
267,438	63,45
267,979	79,15
268,519	66,75
269,059	67,18
269,6	73,78
270,14	70,4
270,68	62,95
271,219	73,13
271,759	70,84
272,298	64,57
272,838	70,16
273,377	67,09
273,916	69,53
274,455	68,54
274,994	69,1
275,533	64,89
276,072	70,4
276,61	76,36
277,149	65,6
277,687	64,41
278,225	66,87
278,763	68,55
279,301	67,6
279,839	68,87
280,377	66,16
280,914	65,25
281,452	69,19
281,989	69,03
282,526	63,34
283,064	66,46
283,601	61,34
284,137	70,9
284,674	66,03
285,211	69,01
285,747	64,67
286,284	68,5
286,82	62,44
287,356	67,22
287,892	73,48
288,428	61,89
288,964	66,39
289,5	63,21
290,035	69,52
290,571	62,34
291,106	69,71
291,641	68,79
292,176	67,57
292,711	61,99
293,246	66,38
293,781	68,02
294,315	63,08
294,85	70,53
295,384	67,15
295,918	59,27
296,453	67,18
296,987	67,67
297,52	62,7
298,054	67,33
298,588	72,55
299,121	61,77
299,655	69,1
300,188	67,9
300,721	63
301,254	65
301,787	64,41
302,32	69,67
302,853	61,02
303,385	66,89
303,918	66,28
304,45	60,04
304,982	65,24
305,514	66,75
306,046	58,94
306,578	62,07
307,11	64,24
307,641	74,45
308,173	64,87
308,704	73,46
309,236	65,21
309,767	62,13
310,298	64,21
310,829	62,12
311,359	68,88
311,89	65,85
312,421	61,76
312,951	59,47
313,481	70,89
314,012	64
314,542	63,46
315,072	68,88
315,601	65,53
316,131	67,28
316,661	63,9
317,19	70,59
317,72	61,33
318,249	62,69
318,778	64,87
319,307	58,3
319,836	66
320,365	64,03
320,893	62,2
321,422	60,43
321,95	60,93
322,479	62,45
323,007	58,76
323,535	59,74
324,063	68,54
324,591	68,42
325,118	66,14
325,646	66,08
326,173	68,63
326,701	64,71
327,228	65,56
327,755	72,73
328,282	58,76
328,809	62,06
329,336	67,43
329,862	64,57
330,389	65,68
330,915	64,75
331,441	69,13
331,968	61,4
332,494	62,01
333,02	62,37
333,545	65,88
334,071	61,34
334,597	59,08
335,122	65,21
335,648	63,12
336,173	62,08
336,698	60,57
337,223	62,9
337,748	61,27
338,272	54,72
338,797	59,75
339,322	66,89
339,846	62,01
340,37	67,72
340,894	61,75
341,419	58,24
341,942	54,09
342,466	57,17
342,99	64,38
343,514	60,32
344,037	56,67
344,56	64,15
345,084	54,87
345,607	65,44
346,13	57,89
346,653	57,2
347,175	59,29
347,698	62,41
348,221	55,43
348,743	57,85
349,265	58,72
349,787	58,62
350,309	59,26
350,831	61,24
351,353	55,66
351,875	53,97
352,397	52,9
352,918	63,28
353,439	58,1
353,961	52,78
354,482	56,12
355,003	55,34
355,524	51,83
356,044	56,12
356,565	54,68
357,086	56,81
357,606	49,88
358,126	55,92
358,646	52,94
359,167	55,11
359,687	53,04
360,206	52,11
360,726	57,37
361,246	52,54
361,765	52,15
362,285	52,99
362,804	52,37
363,323	52,72
363,842	55
364,361	50,76
364,88	48,05
365,398	53,05
365,917	52,74
366,435	48,41
366,954	52,5
367,472	50,44
367,99	55,6
368,508	49,38
369,026	48,77
369,544	50
370,061	48,32
370,579	49,13
371,096	49,26
371,613	49,82
372,131	49,36
372,648	49,11
373,165	46,36
373,681	51,76
374,198	49,33
374,715	46,76
375,231	50,76
375,747	46,7
376,264	44,85
376,78	49,47
377,296	48,57
377,812	46,15
378,327	46,99
378,843	44,93
379,359	48,22
379,874	45,09
380,389	44,77
380,905	43,85
381,42	42,37
381,935	44,26
382,449	43,1
382,964	44,46
383,479	41,97
383,993	40,04
384,508	41,98
385,022	38,95
385,536	40,77
386,05	40,72
386,564	39,9
387,078	40,82
387,592	37,91
388,105	37,1
388,619	39,45
389,132	35,76
389,645	38,31
390,158	36,62
390,671	33,72
391,184	36,15
391,697	34,67
392,21	33,41
392,722	34,23
393,235	34,34
393,747	33,76
394,259	33,95
394,771	34,77
395,283	33,96
395,795	33,4
396,307	33,26
396,818	33,1
397,33	33,72
397,841	30,39
398,353	31,49
398,864	30,35
399,375	31,84
399,886	29,66
400,397	28,05
400,907	27,42
401,418	28,55
401,928	27,24
402,439	28,29
402,949	27,18
403,459	26
403,969	25,8
404,479	24,03
404,989	24,65
405,498	24,1
406,008	23,71
406,517	23,14
407,027	21,18
407,536	20,69
408,045	20,48
408,554	20,13
409,063	19,09
409,572	18,69
410,08	18,14
410,589	17,33
411,097	17,49
411,606	16,44
412,114	16,53
412,622	15,2
413,13	15,39
413,638	15,53
414,145	14,69
414,653	14,46
415,16	13,42
415,668	13,18
416,175	13,17
416,682	13,62
417,189	12,8
417,696	12,42
418,203	12,17
418,71	11,69
419,216	11,92
419,723	11,88
420,229	11,45
420,735	11,51
421,242	11,69
421,748	11,23
422,254	11,29
422,759	11,13
423,265	10,79
423,771	10,65
424,276	10,84
424,781	10,41
425,287	10,22
425,792	10,09
426,297	10,24
426,802	9,56
427,306	10,13
427,811	10,4
428,316	9,91
428,82	10,11
429,324	9,8
429,829	9,42
430,333	9,55
430,837	9,56
431,34	9,97
431,844	9,65
432,348	9,69
432,851	9,38
433,355	9,42
433,858	9,23
434,361	9,51
434,864	9,21
435,367	9,11
435,87	8,88
436,373	9,4
436,876	9,3
437,378	9,29
437,88	9,14
438,383	9,2
438,885	9,2
439,387	9,32
439,889	9,11
440,391	9,15
440,892	8,95
441,394	9,32
441,896	8,94
442,397	9,14
442,898	9,19
443,399	9,14
443,9	9,23
444,401	9,23
444,902	9,16
445,403	8,8
445,903	9,22
446,404	9,22
446,904	9,08
447,405	9,14
447,905	8,83
448,405	9,33
448,905	9,66
449,404	9,66
449,904	9,16
450,404	9,4
450,903	9,6
451,403	9,55
451,902	9,37
452,401	9,65
452,9	9,59
453,399	9,48
453,898	9,44
454,396	9,61
454,895	9,64
455,393	9,59
455,892	9,65
456,39	9,76
456,888	9,72
457,386	9,38
457,884	9,49
458,382	9,87
458,879	9,67
459,377	9,77
459,874	9,9
460,372	9,97
460,869	9,74
461,366	10,08
461,863	9,76
462,36	9,68
462,857	9,82
463,353	9,92
463,85	9,64
464,346	9,68
464,843	9,85
465,339	9,71
465,835	9,81
466,331	9,71
466,827	9,73
467,323	9,63
467,818	9,76
468,314	9,74
468,809	9,44
469,305	9,82
469,8	9,8
470,295	9,87
470,79	9,94
471,285	9,73
471,78	9,75
472,274	9,97
472,769	9,91
473,263	9,84
473,758	9,82
474,252	9,81
474,746	9,7
475,24	9,55
475,734	9,78
476,228	9,69
476,721	9,99
477,215	9,66
477,708	10,13
478,202	9,83
478,695	9,75
479,188	9,87
479,681	9,73
480,174	9,78
480,667	10,15
481,159	10,01
481,652	9,86
482,144	9,88
482,637	10,18
483,129	9,91
483,621	10,14
484,113	9,95
484,605	10,19
485,097	10,17
485,588	10,13
486,08	9,89
486,571	10,44
487,063	10,07
487,554	10,28
488,045	10,52
488,536	10,42
489,027	10,29
489,518	10,48
490,008	10,25
490,499	10,46
490,989	10,53
491,48	10,59
491,97	10,78
492,46	10,85
492,95	10,89
493,44	11,15
493,93	10,74
494,419	11,12
494,909	11,42
495,398	11,05
495,888	11,16
496,377	11,54
496,866	11,39
497,355	11,77
497,844	11,73
498,333	11,82
498,821	11,82
499,31	12,12
499,798	12,12
500,287	12,23
500,775	12,25
501,263	12,96
501,751	12,92
502,239	12,99
502,727	13,42
503,215	13,46
503,702	13,44
504,19	13,72
504,677	14,05
505,164	14,22
505,651	14,41
506,139	14,57
506,625	14,86
507,112	14,9
507,599	15,06
508,086	15,42
508,572	15,97
509,058	16,46
509,545	15,96
510,031	16,69
510,517	16,77
511,003	17,31
511,489	17,54
511,974	18,07
512,46	17,88
512,946	18,48
513,431	19,01
513,916	18,9
514,401	19,39
514,887	20,23
515,371	20,02
515,856	20,37
516,341	21,14
516,826	21,05
517,31	21,6
517,795	22,15
518,279	22,24
518,763	22,49
519,247	22,85
519,731	23,28
520,215	23,87
520,699	24,31
521,182	24,71
521,666	24,89
522,149	25,51
522,633	25,86
523,116	25,84
523,599	26,23
524,082	26,72
524,565	26,96
525,048	27,47
525,53	28,13
526,013	28,05
526,495	28,6
526,978	28,89
527,46	28,84
527,942	29,5
528,424	29,66
528,906	29,62
529,388	30,23
529,87	30,5
530,351	30,47
530,833	30,68
531,314	30,87
531,795	31,08
532,277	31,23
532,758	31,8
533,238	31,55
533,719	31,7
534,2	32,09
534,681	32,05
535,161	32,46
535,642	32,62
536,122	32,75
536,602	32,35
537,082	32,81
537,562	32,76
538,042	33,22
538,522	32,85
539,001	32,86
539,481	33,52
539,96	33,03
540,44	33,21
540,919	32,96
541,398	33,12
541,877	33,54
542,356	33,61
542,835	33,52
543,313	33,3
543,792	33,89
544,27	33,52
544,749	33,39
545,227	33,54
545,705	34,02
546,183	33,95
546,661	33,65
547,139	34,07
547,616	33,91
548,094	33,93
548,571	33,95
549,049	33,92
549,526	34,05
550,003	34,08
550,48	33,99
550,957	34,42
551,434	34,2
551,911	34,35
552,387	34,48
552,864	34,1
553,34	34,22
553,817	34,23
554,293	34,42
554,769	34,71
555,245	34,12
555,721	34
556,197	34,56
556,672	34,47
557,148	34,27
557,623	34,25
558,099	34,37
558,574	34,28
559,049	33,95
559,524	34,15
559,999	34,02
560,474	34,07
560,948	33,59
561,423	33,57
561,897	33,48
562,372	33,48
562,846	33,29
563,32	33,18
563,794	33,17
564,268	33,09
564,742	32,98
565,216	32,67
565,69	32,77
566,163	32,57
566,636	32,3
567,11	32,17
567,583	31,92
568,056	31,83
568,529	31,38
569,002	31,38
569,475	31,12
569,947	30,8
570,42	30,79
570,892	30,36
571,365	30,46
571,837	30,58
572,309	29,93
572,781	29,86
573,253	29,74
573,725	29,25
574,197	29,17
574,668	29,28
575,14	28,94
575,611	28,44
576,082	28,35
576,554	28,58
577,025	28,37
577,496	27,92
577,967	28,01
578,437	27,5
578,908	27,64
579,379	27,31
579,849	27,17
580,319	27,24
580,79	26,86
581,26	26,56
581,73	26,47
582,2	26,64
582,669	26,29
583,139	25,96
583,609	26,17
584,078	25,81
584,548	25,41
585,017	25,73
585,486	25,28
585,955	25,19
586,424	25,37
586,893	25,12
587,362	25,15
587,83	25,02
588,299	24,69
588,767	24,7
589,236	24,68
589,704	24,7
590,172	24,63
590,64	24,35
591,108	24,3
591,576	24,18
592,043	24,26
592,511	24,09
592,978	23,89
593,446	23,68
593,913	23,76
594,38	23,57
594,847	23,77
595,314	23,28
595,781	23,56
596,248	23,57
596,715	23,46
597,181	23,38
597,647	23,44
598,114	23,37
598,58	23,38
599,046	23,25
599,512	23,21
599,978	22,98
600,444	23,32
600,91	23,09
601,375	23,05
601,841	23,24
602,306	23,09
602,771	22,98
603,236	22,78
603,702	22,71
604,167	22,54
604,631	22,46
605,096	22,73
605,561	22,58
606,025	22,18
606,49	22,09
606,954	22,35
607,418	22,1
607,882	21,97
608,347	21,84
608,81	21,87
609,274	21,56
609,738	21,69
610,202	21,48
610,665	21,42
611,128	21,39
611,592	21,3
612,055	21,02
612,518	20,95
612,981	21,02
613,444	20,62
613,907	20,67
614,369	20,62
614,832	20,61
615,294	20,39
615,757	20,21
616,219	20,12
616,681	20,13
617,143	19,9
617,605	19,82
618,067	19,7
618,529	19,69
618,99	19,56
619,452	19,44
619,913	19,29
620,375	19,18
620,836	19,33
621,297	19,23
621,758	19,09
622,219	18,97
622,68	19,06
623,14	19,12
623,601	19,02
624,061	18,76
624,522	18,68
624,982	18,66
625,442	18,84
625,902	18,62
626,362	18,7
626,822	18,54
627,282	18,6
627,742	18,48
628,201	18,56
628,661	18,54
629,12	18,52
629,579	18,46
630,038	18,36
630,497	18,24
630,956	18,44
631,415	18,25
631,874	18,27
632,332	18,3
632,791	18,2
633,249	18,01
633,708	18,03
634,166	18,02
634,624	17,86
635,082	17,8
635,54	17,88
635,998	17,56
636,455	17,37
636,913	17,34
637,37	17,22
637,828	17,14
638,285	17,07
638,742	16,96
639,199	16,55
639,656	16,52
640,113	16,54
640,57	16,12
641,027	16,09
641,483	15,92
641,94	15,75
642,396	15,66
642,852	15,43
643,309	15,39
643,765	15
644,221	14,96
644,676	14,74
645,132	14,73
645,588	14,47
646,043	14,27
646,499	14,12
646,954	14,07
647,409	13,92
647,864	13,7
648,319	13,48
648,774	13,52
649,229	13,36
649,684	13,22
650,139	13,17
650,593	13,23
651,047	13,14
651,502	12,96
651,956	12,92
652,41	12,83
652,864	12,74
653,318	12,54
653,772	12,73
654,225	12,64
654,679	12,5
655,133	12,52
655,586	12,4
656,039	12,45
656,492	12,38
656,946	12,29
657,399	12,26
657,851	12,08
658,304	12,03
658,757	11,96
659,209	11,7
659,662	11,79
660,114	11,54
660,567	11,55
661,019	11,48
661,471	11,15
661,923	11,09
662,375	11,16
662,826	11,01
663,278	10,9
663,73	10,79
664,181	10,74
664,632	10,64
665,084	10,59
665,535	10,44
665,986	10,45
666,437	10,38
666,888	10,21
667,338	10,27
667,789	10,26
668,24	10,21
668,69	10,02
669,14	10,24
669,591	10,19
670,041	10,29
670,491	10,16
670,941	10,29
671,391	10,24
671,84	10,28
672,29	10,29
672,74	10,56
673,189	10,43
673,638	10,43
674,088	10,48
674,537	10,55
674,986	10,61
675,435	10,76
675,883	10,77
676,332	10,88
676,781	10,96
677,229	11,07
677,678	11,26
678,126	11,29
678,574	11,49
679,022	11,54
679,47	11,62
679,918	11,78
680,366	11,97
680,814	12,04
681,261	12,19
681,709	12,36
682,156	12,48
682,604	12,63
683,051	12,76
683,498	13,01
683,945	13,14
684,392	13,37
684,839	13,57
685,286	13,57
685,732	13,95
686,179	14,26
686,625	14,39
687,071	14,67
687,518	14,96
687,964	15,18
688,41	15,7
688,856	15,95
689,301	16,33
689,747	16,75
690,193	17,44
690,638	17,72
691,084	18,25
691,529	18,68
691,974	19,35
692,419	19,92
692,864	20,62
693,309	21,11
693,754	21,77
694,199	22,44
694,643	23
695,088	23,75
695,532	24,5
695,977	25,07
696,421	25,86
696,865	26,43
697,309	27,36
697,753	27,8
698,197	28,56
698,64	29,08
699,084	29,89
699,527	30,64
699,971	31,09
700,414	31,77
700,857	32,34
701,3	32,94
701,743	33,48
702,186	33,98
702,629	34,71
703,072	35,25
703,515	35,94
703,957	36,35
704,399	36,86
704,842	37,54
705,284	37,9
705,726	38,29
706,168	38,87
706,61	39,59
707,052	39,98
707,494	40,28
707,935	40,81
708,377	41,29
708,818	41,72
709,26	41,97
709,701	42,43
710,142	42,86
710,583	43,26
711,024	43,93
711,465	44,12
711,905	44,57
712,346	44,81
712,787	45,09
713,227	45,62
713,667	46,26
714,108	46,43
714,548	46,72
714,988	46,85
715,428	47,2
715,868	47,7
716,307	47,72
716,747	48,43
717,186	48,7
717,626	48,89
718,065	49,26
718,504	49,17
718,944	50
719,383	49,98
719,822	50,3
720,261	50,37
720,699	50,82
721,138	51,01
721,576	51,31
722,015	51,4
722,453	51,65
722,892	52,13
723,33	52,26
723,768	52,4
724,206	52,75
724,644	52,92
725,081	53,14
725,519	53,12
725,957	53,17
726,394	53,31
726,832	53,44
727,269	53,91
727,706	53,8
728,143	54,15
728,58	54,49
729,017	54,43
729,454	54,4
729,89	54,69
730,327	54,83
730,764	55,02
731,2	55,17
731,636	55,34
732,072	55,2
732,509	55,38
732,945	55,17
733,38	55,53
733,816	55,46
734,252	55,6
734,688	55,48
735,123	55,83
735,559	55,86
735,994	56,21
736,429	55,97
736,864	56,05
737,299	55,9
737,734	56,15
738,169	55,98
738,604	56,16
739,038	55,95
739,473	56,44
739,907	56,35
740,342	56,23
740,776	56,3
741,21	56,24
741,644	56,36
742,078	56,32
742,512	56,46
742,946	56,77
743,379	56,38
743,813	56,34
744,246	56,26
744,68	56,46
745,113	56,4
745,546	56,33
745,979	56,41
746,412	56,36
746,845	56,41
747,278	56,4
747,711	56,25
748,143	56,1
748,576	56,12
749,008	56,22
749,441	56,2
749,873	56,08
750,305	56,06
750,737	56,04
751,169	56,09
751,601	56,07
752,032	56,02
752,464	55,9
752,896	55,86
753,327	55,86
753,758	56,03
754,19	55,87
754,621	55,81
755,052	55,81
755,483	55,62
755,914	55,73
756,344	55,79
756,775	55,78
757,206	55,9
757,636	55,49
758,066	55,54
758,497	55,75
758,927	55,44
759,357	55,2
759,787	55,43
760,217	55,42
760,647	55,44
761,076	55,38
761,506	55,4
761,935	55,05
762,365	55,15
762,794	55,38
763,223	55,19
763,653	55,41
764,082	55,26
764,51	55,21
764,939	55,06
765,368	55,37
765,797	55,16
766,225	55,08
766,654	54,99
767,082	54,9
767,51	54,79
767,938	54,9
768,367	54,84
768,795	54,5
769,222	54,87
769,65	54,6
770,078	54,65
770,505	54,62
770,933	54,63
771,36	54,81
771,788	54,49
772,215	54,71
772,642	54,41
773,069	54,5
773,496	54,59
773,923	54,36
774,349	54,38
774,776	54,48
775,203	54,42
775,629	54,52
776,055	54,5
776,482	54,26
776,908	54,33
777,334	54,4
777,76	54,36
778,186	54,48
778,611	54,37
779,037	54,25
779,463	54,15
779,888	54,22
780,314	54,15
780,739	54,31
781,164	54,04
781,589	54,12
782,014	54,25
782,439	54,31
782,864	53,99
783,289	54,32
783,713	53,99
784,138	54,04
784,562	54,05
784,987	53,85
785,411	54,1
785,835	54
786,259	53,97
786,683	54,18
787,107	53,91
787,531	53,92
787,954	53,87
788,378	53,87
788,802	54,1
789,225	53,79
789,648	54,13
790,071	54,11
790,495	53,66
790,918	53,97
791,34	53,94
791,763	53,76
792,186	53,81
792,609	54,03
793,031	53,64
793,454	53,78
793,876	53,84
794,298	53,87
794,721	53,85
795,143	53,91
795,565	53,68
795,986	53,8
796,408	53,79
796,83	53,61
797,252	53,64
797,673	53,93
798,094	53,6
798,516	53,66
798,937	53,71
799,358	53,72
799,779	53,43
800,2	53,71
800,621	53,91
801,042	53,68
801,462	53,61
801,883	53,75
802,303	53,6
802,724	53,69
803,144	53,86
803,564	53,58
803,984	53,7
804,404	53,67
804,824	53,88
805,244	53,64
805,664	53,68
806,084	53,58
806,503	53,71
806,923	53,71
807,342	53,5
807,761	53,35
808,18	53,78
808,599	53,57
809,018	53,68
809,437	53,68
809,856	53,2
810,275	53,4
810,693	53,53
811,112	53,41
811,53	53,6
811,949	53,74
812,367	53,37
812,785	53,4
813,203	53,55
813,621	53,54
814,039	53,61
814,457	53,16
814,874	53,71
815,292	53,58
815,709	53,45
816,127	53,58
816,544	53,6
816,961	53,56
817,378	53,57
817,795	53,49
818,212	53,64
818,629	53,34
819,046	53,41
819,462	53,55
819,879	53,7
820,295	53,47
820,712	53,39
821,128	53,4
821,544	53,56
821,96	53,35
822,376	53,43
822,792	53,4
823,208	53,27
823,624	53,57
824,039	53,36
824,455	53,4
824,87	53,47
825,286	53,47
825,701	53,41
826,116	53,13
826,531	53,26
826,946	53,26
827,361	53,21
827,776	53,15
828,19	53,46
828,605	53,48
829,02	53,49
829,434	53,13
829,848	53,52
830,263	53,42
830,677	53,23
831,091	53,47
831,505	53,41
831,919	53,29
832,332	52,97
832,746	52,96
833,16	53,18
833,573	53,09
833,987	53,39
834,4	53,17
834,813	53,38
835,226	53,16
835,639	53,28
836,052	53,12
836,465	53,29
836,878	53,38
837,29	53,16
837,703	53,17
