Data from E6__Relative__3__00088.txt Node

Date: Tue Jan 30 17:59:14 CET 2024
User: diatiterra
Spectrometer: HDX00911
Trigger mode: 0
Integration Time (sec): 6,000000E-3
Scans to average: 3
Nonlinearity correction enabled: true
Boxcar width: 0
Storing dark spectrum: false
XAxis mode: Wavelengths
Number of Pixels in Spectrum: 2068
>>>>>Begin Spectral Data<<<<<
194,468	105,66
195,025	85,62
195,581	89,81
196,138	81,3
196,694	86
197,251	68,44
197,807	72,48
198,363	66,46
198,919	66,97
199,474	77,01
200,03	68,55
200,586	66,66
201,141	65,38
201,696	59,76
202,251	65,37
202,806	70,46
203,361	70,82
203,916	65,45
204,471	67,63
205,025	69,02
205,58	77,37
206,134	69,41
206,688	64,85
207,242	66,58
207,796	69,3
208,35	67,73
208,904	64,35
209,457	70,77
210,011	64,98
210,564	63,95
211,117	70,49
211,67	75,23
212,223	68,29
212,776	73,74
213,329	71,89
213,881	69,6
214,434	65,72
214,986	65,95
215,538	64,02
216,09	65,1
216,642	68,92
217,194	64,39
217,746	68,62
218,297	62,34
218,849	69,31
219,4	71,88
219,951	71,07
220,502	73,81
221,053	61,89
221,604	65,87
222,155	67,76
222,705	68,19
223,256	63,94
223,806	66,59
224,356	67,57
224,906	68,79
225,456	65,66
226,006	61,39
226,556	64,05
227,106	73,51
227,655	68,6
228,204	66,66
228,754	70,29
229,303	63,3
229,852	68,05
230,401	70
230,949	67,97
231,498	65,89
232,047	65,56
232,595	70,24
233,143	70,34
233,691	64,6
234,239	65,87
234,787	65,23
235,335	72,13
235,883	60,84
236,43	66,25
236,978	66,66
237,525	64,88
238,072	66,94
238,619	65,44
239,166	60,58
239,713	64,08
240,26	65,74
240,806	65,91
241,353	67,46
241,899	64,05
242,445	70,4
242,991	61,59
243,537	69,56
244,083	67,13
244,629	70,3
245,174	69,62
245,72	65,88
246,265	70,25
246,81	73,96
247,355	58,96
247,9	66,04
248,445	69,57
248,99	64,57
249,534	67,86
250,079	69,39
250,623	65,92
251,168	67,56
251,712	58,59
252,256	64,04
252,8	65,43
253,343	65,68
253,887	62,64
254,43	75,02
254,974	71,02
255,517	76,75
256,06	72,12
256,603	71,22
257,146	65,36
257,689	67,51
258,232	67,1
258,774	68,24
259,317	68,89
259,859	68,5
260,401	69,14
260,943	66,32
261,485	64,32
262,027	73,78
262,569	70,87
263,11	61,6
263,652	72,3
264,193	62,84
264,734	62,9
265,275	69,09
265,816	69,01
266,357	64,58
266,898	64,07
267,438	68,84
267,979	70,53
268,519	71,59
269,059	67,84
269,6	64,67
270,14	70,62
270,68	63,96
271,219	68,12
271,759	64,69
272,298	64,57
272,838	68,19
273,377	65,17
273,916	63,23
274,455	64,79
274,994	66,9
275,533	64,22
276,072	68,87
276,61	66,45
277,149	62,42
277,687	66,6
278,225	70,62
278,763	67,87
279,301	68,89
279,839	69,32
280,377	67,03
280,914	64,62
281,452	73,3
281,989	70,2
282,526	64,56
283,064	67,53
283,601	66,09
284,137	69,12
284,674	68,57
285,211	72,41
285,747	67,24
286,284	71,02
286,82	61,55
287,356	65,55
287,892	68,26
288,428	70,26
288,964	61,41
289,5	68,84
290,035	66,83
290,571	67,45
291,106	69,23
291,641	68,11
292,176	66,32
292,711	66,95
293,246	70,21
293,781	63,76
294,315	60,55
294,85	76,06
295,384	68,33
295,918	62,02
296,453	63,46
296,987	66,17
297,52	69,76
298,054	66,89
298,588	69,26
299,121	66,75
299,655	64,81
300,188	59,17
300,721	61,45
301,254	63,68
301,787	66,1
302,32	71,31
302,853	68,31
303,385	68
303,918	66,52
304,45	64,57
304,982	67,06
305,514	64,5
306,046	64,63
306,578	68,32
307,11	67,33
307,641	73,77
308,173	68,88
308,704	66,53
309,236	68,92
309,767	66,6
310,298	62,25
310,829	67,72
311,359	70,95
311,89	68,99
312,421	65,75
312,951	63,44
313,481	70,2
314,012	65,9
314,542	65,21
315,072	69,09
315,601	65,1
316,131	69,29
316,661	61,27
317,19	66,76
317,72	65,28
318,249	67,8
318,778	68,97
319,307	61,66
319,836	68,91
320,365	64,96
320,893	65,94
321,422	64,13
321,95	57,54
322,479	69,34
323,007	61,11
323,535	59,95
324,063	65,41
324,591	67,96
325,118	65,44
325,646	67,4
326,173	68,63
326,701	66,24
327,228	67,78
327,755	72,49
328,282	62,82
328,809	64,26
329,336	62,9
329,862	68,48
330,389	62,68
330,915	63,2
331,441	60,04
331,968	60,98
332,494	62,82
333,02	67,1
333,545	70,63
334,071	64,45
334,597	58,45
335,122	63,9
335,648	65,62
336,173	62,29
336,698	56,25
337,223	62,7
337,748	60,3
338,272	65,13
338,797	59,75
339,322	66,68
339,846	65,09
340,37	62,79
340,894	61,32
341,419	63,46
341,942	60,72
342,466	56,63
342,99	63,02
343,514	62,16
344,037	60,76
344,56	67,51
345,084	55,57
345,607	64,83
346,13	61,99
346,653	58,49
347,175	60,43
347,698	65,06
348,221	55,98
348,743	54,66
349,265	61,12
349,787	58,62
350,309	58,55
350,831	62,32
351,353	52,69
351,875	54,8
352,397	55,69
352,918	60,89
353,439	58,96
353,961	56,35
354,482	56,43
355,003	52,22
355,524	56,83
356,044	57,1
356,565	54,03
357,086	59,12
357,606	54,84
358,126	58,21
358,646	54,77
359,167	58,21
359,687	53,74
360,206	51,19
360,726	57,66
361,246	57,56
361,765	51,46
362,285	54,44
362,804	55,07
363,323	52,87
363,842	55,14
364,361	53,46
364,88	55,11
365,398	53,57
365,917	53,97
366,435	48,95
366,954	56,53
367,472	49,44
367,99	53,72
368,508	48,4
369,026	47,92
369,544	52,21
370,061	53,65
370,579	50,51
371,096	46,55
371,613	53,73
372,131	48,78
372,648	51,09
373,165	48,63
373,681	50,04
374,198	50,86
374,715	47,5
375,231	50,55
375,747	47,91
376,264	47,44
376,78	49,16
377,296	48,28
377,812	47,41
378,327	48,12
378,843	42,99
379,359	45,2
379,874	49,51
380,389	46,36
380,905	46,05
381,42	45,85
381,935	44,76
382,449	43,66
382,964	41,2
383,479	42,68
383,993	43,15
384,508	42,63
385,022	41,18
385,536	44,96
386,05	42,18
386,564	43,55
387,078	40,89
387,592	38,5
388,105	37,87
388,619	39,32
389,132	37,21
389,645	38,25
390,158	35,4
390,671	38,61
391,184	36,37
391,697	36,45
392,21	36,68
392,722	35,46
393,235	35,92
393,747	34,45
394,259	34,54
394,771	35,14
395,283	33,25
395,795	34,88
396,307	34,76
396,818	33
397,33	31,53
397,841	32,03
398,353	32,25
398,864	31,55
399,375	31,66
399,886	29,02
400,397	28,33
400,907	29,12
401,418	27,73
401,928	27,88
402,439	27,82
402,949	26,45
403,459	25,96
403,969	25,3
404,479	25,94
404,989	24,05
405,498	24,2
406,008	24,17
406,517	23,11
407,027	22,56
407,536	21,74
408,045	20,75
408,554	20,46
409,063	18,48
409,572	19,07
410,08	19,08
410,589	17,28
411,097	17,47
411,606	17,18
412,114	16,03
412,622	15,67
413,13	15,72
413,638	16,05
414,145	14,71
414,653	14,42
415,16	13,96
415,668	13,69
416,175	13,15
416,682	12,66
417,189	12,81
417,696	12,3
418,203	11,94
418,71	12,16
419,216	11,51
419,723	12,01
420,229	11,05
420,735	11,75
421,242	11,03
421,748	10,96
422,254	11,18
422,759	11,24
423,265	10,71
423,771	10,57
424,276	10,76
424,781	10,28
425,287	9,87
425,792	9,8
426,297	10,17
426,802	10,03
427,306	10,32
427,811	10,1
428,316	10,03
428,82	9,62
429,324	9,89
429,829	9,49
430,333	9,63
430,837	9,25
431,34	9,35
431,844	9,89
432,348	9,56
432,851	9,14
433,355	9,53
433,858	9,03
434,361	9,34
434,864	8,84
435,367	9,02
435,87	8,94
436,373	9,09
436,876	8,99
437,378	8,84
437,88	8,9
438,383	8,67
438,885	9,06
439,387	9,02
439,889	8,65
440,391	8,8
440,892	9,07
441,394	9,03
441,896	8,72
442,397	9,16
442,898	9,06
443,399	8,97
443,9	8,88
444,401	9,12
444,902	8,8
445,403	9,01
445,903	9,12
446,404	8,84
446,904	9,03
447,405	9,01
447,905	8,98
448,405	9,21
448,905	9,18
449,404	9,34
449,904	8,79
450,404	9,16
450,903	9,56
451,403	9,43
451,902	9,28
452,401	9,27
452,9	9,44
453,399	9,79
453,898	9,67
454,396	9,37
454,895	9,86
455,393	9,55
455,892	9,36
456,39	9,79
456,888	9,44
457,386	9,65
457,884	9,39
458,382	9,38
458,879	9,8
459,377	9,68
459,874	9,62
460,372	9,51
460,869	9,49
461,366	9,59
461,863	9,75
462,36	9,8
462,857	9,72
463,353	9,49
463,85	9,6
464,346	9,38
464,843	9,34
465,339	9,68
465,835	9,57
466,331	9,62
466,827	9,68
467,323	9,62
467,818	9,71
468,314	9,51
468,809	9,57
469,305	9,69
469,8	9,58
470,295	9,65
470,79	9,92
471,285	9,66
471,78	9,57
472,274	9,67
472,769	9,63
473,263	9,8
473,758	9,69
474,252	9,59
474,746	9,44
475,24	9,68
475,734	9,48
476,228	9,52
476,721	9,63
477,215	9,63
477,708	9,9
478,202	10,19
478,695	9,67
479,188	10,11
479,681	9,94
480,174	9,82
480,667	9,68
481,159	10,08
481,652	9,84
482,144	10,06
482,637	10,01
483,129	9,94
483,621	10,3
484,113	10,16
484,605	9,95
485,097	10,16
485,588	9,93
486,08	10,16
486,571	10,12
487,063	10,07
487,554	10,32
488,045	10,4
488,536	10,59
489,027	10,13
489,518	10,66
490,008	10,49
490,499	10,41
490,989	10,53
491,48	10,57
491,97	10,55
492,46	10,9
492,95	10,92
493,44	10,91
493,93	10,92
494,419	11,09
494,909	11,1
495,398	11,35
495,888	11,39
496,377	11,6
496,866	11,75
497,355	11,97
497,844	11,84
498,333	12,04
498,821	11,95
499,31	12,22
499,798	12,25
500,287	12,64
500,775	12,6
501,263	12,88
501,751	13,07
502,239	13,18
502,727	13,59
503,215	13,63
503,702	13,81
504,19	13,87
504,677	14,37
505,164	14,12
505,651	14,65
506,139	14,71
506,625	15,07
507,112	15,59
507,599	15,65
508,086	16,02
508,572	16,44
509,058	16,5
509,545	16,88
510,031	16,97
510,517	17,25
511,003	17,93
511,489	17,88
511,974	18,67
512,46	18,63
512,946	19,37
513,431	19,54
513,916	19,79
514,401	20,13
514,887	20,85
515,371	20,83
515,856	21,28
516,341	21,86
516,826	22,49
517,31	22,32
517,795	23,02
518,279	23,44
518,763	23,6
519,247	24,05
519,731	24,51
520,215	24,81
520,699	24,95
521,182	25,66
521,666	26,41
522,149	26,71
522,633	26,97
523,116	27,4
523,599	28,05
524,082	28,25
524,565	28,46
525,048	28,49
525,53	29,24
526,013	29,56
526,495	30,02
526,978	30,04
527,46	30,52
527,942	30,63
528,424	30,84
528,906	31,39
529,388	31,25
529,87	31,63
530,351	32,01
530,833	32,11
531,314	32,34
531,795	32,27
532,277	32,54
532,758	32,96
533,238	33,28
533,719	33,11
534,2	33,37
534,681	33,43
535,161	33,62
535,642	33,63
536,122	33,84
536,602	34,07
537,082	34,3
537,562	34,16
538,042	34,46
538,522	34,24
539,001	34,37
539,481	34,83
539,96	34,37
540,44	35,22
540,919	34,5
541,398	34,81
541,877	34,93
542,356	35,3
542,835	34,93
543,313	35,06
543,792	35,13
544,27	35,01
544,749	35,37
545,227	35,51
545,705	35,23
546,183	35,41
546,661	35,44
547,139	35,6
547,616	35,18
548,094	35,33
548,571	35,49
549,049	35,24
549,526	36,08
550,003	35,63
550,48	35,65
550,957	35,73
551,434	35,54
551,911	35,63
552,387	35,75
552,864	35,56
553,34	35,8
553,817	35,89
554,293	35,88
554,769	35,92
555,245	35,8
555,721	35,93
556,197	35,74
556,672	35,78
557,148	36,08
557,623	35,74
558,099	35,98
558,574	35,57
559,049	35,86
559,524	35,59
559,999	35,49
560,474	35,43
560,948	35,42
561,423	35,37
561,897	34,96
562,372	34,9
562,846	34,92
563,32	34,91
563,794	34,81
564,268	34,43
564,742	34,63
565,216	34,36
565,69	34,01
566,163	34,01
566,636	33,82
567,11	33,5
567,583	32,93
568,056	33,13
568,529	33,31
569,002	32,95
569,475	32,87
569,947	32,14
570,42	32,24
570,892	32,18
571,365	31,75
571,837	31,67
572,309	31,54
572,781	31,41
573,253	31,16
573,725	30,75
574,197	30,62
574,668	30,66
575,14	30,32
575,611	29,64
576,082	29,73
576,554	29,96
577,025	29,75
577,496	29,09
577,967	29,12
578,437	28,84
578,908	28,65
579,379	28,4
579,849	28,41
580,319	28,17
580,79	28,07
581,26	28,03
581,73	27,81
582,2	27,93
582,669	27,56
583,139	27,33
583,609	27,17
584,078	27,24
584,548	26,93
585,017	27,15
585,486	26,74
585,955	26,4
586,424	26,4
586,893	26,22
587,362	26,31
587,83	26,23
588,299	25,72
588,767	25,95
589,236	25,8
589,704	25,67
590,172	25,64
590,64	25,44
591,108	25,41
591,576	25,49
592,043	25,41
592,511	25,13
592,978	25,21
593,446	25,02
593,913	24,99
594,38	24,93
594,847	24,63
595,314	24,85
595,781	24,67
596,248	24,66
596,715	24,54
597,181	24,78
597,647	24,59
598,114	24,37
598,58	24,48
599,046	24,57
599,512	24,38
599,978	24,4
600,444	24,15
600,91	24,25
601,375	24
601,841	24
602,306	23,74
602,771	24,12
603,236	24,03
603,702	23,77
604,167	23,6
604,631	23,51
605,096	23,81
605,561	23,69
606,025	23,56
606,49	23,37
606,954	23,5
607,418	23,35
607,882	23,04
608,347	22,94
608,81	22,84
609,274	22,61
609,738	22,4
610,202	22,54
610,665	22,49
611,128	22,21
611,592	22,14
612,055	22,07
612,518	22,12
612,981	21,69
613,444	21,74
613,907	21,52
614,369	21,26
614,832	21,42
615,294	21,02
615,757	21,05
616,219	21,01
616,681	20,86
617,143	20,78
617,605	20,35
618,067	20,54
618,529	20,44
618,99	20,4
619,452	20,24
619,913	20,17
620,375	19,74
620,836	20,12
621,297	19,89
621,758	19,86
622,219	19,66
622,68	19,64
623,14	19,69
623,601	19,55
624,061	19,47
624,522	19,35
624,982	19,47
625,442	19,41
625,902	19,48
626,362	19,24
626,822	19,44
627,282	19,27
627,742	19,28
628,201	19,18
628,661	19,16
629,12	19,15
629,579	19,03
630,038	19,13
630,497	19,16
630,956	19,05
631,415	18,83
631,874	18,87
632,332	18,91
632,791	18,99
633,249	18,76
633,708	18,77
634,166	18,78
634,624	18,57
635,082	18,36
635,54	18,43
635,998	18,29
636,455	18,24
636,913	17,99
637,37	17,99
637,828	17,74
638,285	17,65
638,742	17,66
639,199	17,37
639,656	17,24
640,113	17
640,57	16,95
641,027	16,67
641,483	16,49
641,94	16,32
642,396	16,16
642,852	15,92
643,309	15,95
643,765	15,78
644,221	15,48
644,676	15,38
645,132	15,27
645,588	15,08
646,043	14,78
646,499	14,72
646,954	14,51
647,409	14,32
647,864	14,33
648,319	14,13
648,774	13,9
649,229	13,78
649,684	13,8
650,139	13,52
650,593	13,46
651,047	13,44
651,502	13,38
651,956	13,26
652,41	13,2
652,864	13,12
653,318	13,01
653,772	13,03
654,225	12,95
654,679	12,91
655,133	12,92
655,586	12,8
656,039	12,58
656,492	12,54
656,946	12,48
657,399	12,48
657,851	12,28
658,304	12,17
658,757	12,16
659,209	11,93
659,662	11,82
660,114	11,78
660,567	11,59
661,019	11,6
661,471	11,45
661,923	11,25
662,375	11,07
662,826	11,15
663,278	10,95
663,73	10,86
664,181	10,88
664,632	10,65
665,084	10,74
665,535	10,62
665,986	10,4
666,437	10,36
666,888	10,36
667,338	10,31
667,789	10,33
668,24	10,17
668,69	10,1
669,14	10,25
669,591	10,11
670,041	10,24
670,491	10,22
670,941	10,21
671,391	10,27
671,84	10,21
672,29	10,35
672,74	10,26
673,189	10,46
673,638	10,42
674,088	10,58
674,537	10,53
674,986	10,78
675,435	10,73
675,883	10,87
676,332	10,94
676,781	11,12
677,229	11,17
677,678	11,36
678,126	11,42
678,574	11,47
679,022	11,67
679,47	11,65
679,918	11,97
680,366	12,02
680,814	12,02
681,261	12,34
681,709	12,41
682,156	12,65
682,604	12,69
683,051	12,94
683,498	13,04
683,945	13,4
684,392	13,48
684,839	13,72
685,286	13,92
685,732	14,12
686,179	14,45
686,625	14,67
687,071	14,8
687,518	15,27
687,964	15,49
688,41	15,9
688,856	16,37
689,301	16,61
689,747	17,06
690,193	17,5
690,638	17,98
691,084	18,46
691,529	19,13
691,974	19,68
692,419	20,24
692,864	20,84
693,309	21,52
693,754	22,13
694,199	22,98
694,643	23,47
695,088	24,13
695,532	24,92
695,977	25,65
696,421	26,31
696,865	27,05
697,309	27,73
697,753	28,39
698,197	29,01
698,64	29,6
699,084	30,31
699,527	30,92
699,971	31,52
700,414	32,22
700,857	32,82
701,3	33,44
701,743	33,85
702,186	34,57
702,629	35,07
703,072	35,61
703,515	36,31
703,957	36,47
704,399	37,36
704,842	37,56
705,284	38,21
705,726	38,62
706,168	39,18
706,61	39,72
707,052	40,02
707,494	40,21
707,935	40,92
708,377	41,43
708,818	41,43
709,26	42,13
709,701	42,47
710,142	42,72
710,583	43,34
711,024	43,68
711,465	44,11
711,905	44,24
712,346	44,5
712,787	44,81
713,227	45,44
713,667	45,92
714,108	46,04
714,548	46,23
714,988	46,44
715,428	46,91
715,868	47,17
716,307	47,32
716,747	47,84
717,186	48
717,626	48,31
718,065	48,82
718,504	48,64
718,944	49,26
719,383	49,32
719,822	49,67
720,261	49,66
720,699	49,97
721,138	50,21
721,576	50,53
722,015	50,53
722,453	50,93
722,892	51,05
723,33	51,25
723,768	51,65
724,206	51,72
724,644	51,78
725,081	52,1
725,519	52,07
725,957	52,46
726,394	52,18
726,832	52,66
727,269	52,91
727,706	52,78
728,143	53,1
728,58	53,23
729,017	52,98
729,454	53,59
729,89	53,32
730,327	53,47
730,764	53,77
731,2	53,43
731,636	54,02
732,072	54,17
732,509	54,07
732,945	53,95
733,38	53,99
733,816	54,19
734,252	54,07
734,688	54,27
735,123	54,15
735,559	54,59
735,994	54,51
736,429	54,65
736,864	54,51
737,299	54,33
737,734	54,62
738,169	54,58
738,604	54,62
739,038	54,76
739,473	54,5
739,907	54,7
740,342	54,65
740,776	54,54
741,21	54,86
741,644	54,83
742,078	54,71
742,512	54,59
742,946	54,99
743,379	54,61
743,813	54,81
744,246	54,77
744,68	54,6
745,113	54,74
745,546	54,57
745,979	54,72
746,412	54,7
746,845	54,52
747,278	54,62
747,711	54,61
748,143	54,53
748,576	54,53
749,008	54,5
749,441	54,23
749,873	54,46
750,305	54,4
750,737	54,44
751,169	54,12
751,601	54,31
752,032	54,17
752,464	54,01
752,896	53,95
753,327	53,83
753,758	54,13
754,19	53,98
754,621	53,93
755,052	53,99
755,483	53,92
755,914	54,26
756,344	54,07
756,775	53,84
757,206	54,03
757,636	53,72
758,066	53,68
758,497	53,62
758,927	53,46
759,357	53,51
759,787	53,58
760,217	53,79
760,647	53,36
761,076	53,49
761,506	53,34
761,935	53,34
762,365	53,47
762,794	53,4
763,223	53,08
763,653	53,41
764,082	53,15
764,51	53,16
764,939	53,18
765,368	53,02
765,797	53,33
766,225	53,14
766,654	52,99
767,082	52,95
767,51	53,08
767,938	52,91
768,367	52,98
768,795	52,78
769,222	53,08
769,65	52,98
770,078	52,97
770,505	52,55
770,933	52,54
771,36	52,76
771,788	52,72
772,215	52,6
772,642	52,7
773,069	52,67
773,496	52,69
773,923	52,58
774,349	52,58
774,776	52,65
775,203	52,39
775,629	52,58
776,055	52,53
776,482	52,48
776,908	52,28
777,334	52,13
777,76	52,23
778,186	52,27
778,611	52,34
779,037	52,27
779,463	52,4
779,888	52,21
780,314	52,1
780,739	52,37
781,164	52,31
781,589	51,92
782,014	52,38
782,439	52,2
782,864	51,94
783,289	52,11
783,713	52,2
784,138	51,98
784,562	52,27
784,987	51,99
785,411	52,05
785,835	52,11
786,259	52,05
786,683	52,03
787,107	52,17
787,531	51,89
787,954	51,73
788,378	52,11
788,802	52,07
789,225	52,14
789,648	52,12
790,071	51,95
790,495	51,63
790,918	52,17
791,34	51,98
791,763	51,97
792,186	51,73
792,609	51,99
793,031	51,94
793,454	51,81
793,876	51,97
794,298	51,66
794,721	51,61
795,143	52
795,565	51,81
795,986	51,82
796,408	51,84
796,83	51,9
797,252	51,84
797,673	51,72
798,094	51,88
798,516	51,75
798,937	51,97
799,358	51,56
799,779	51,62
800,2	51,9
800,621	51,78
801,042	51,64
801,462	51,43
801,883	51,67
802,303	51,69
802,724	51,58
803,144	51,75
803,564	51,45
803,984	51,89
804,404	51,47
804,824	51,93
805,244	51,72
805,664	51,76
806,084	51,77
806,503	51,72
806,923	51,68
807,342	51,49
807,761	51,54
808,18	51,88
808,599	51,57
809,018	51,5
809,437	51,62
809,856	51,07
810,275	51,59
810,693	51,65
811,112	51,53
811,53	51,4
811,949	51,56
812,367	51,46
812,785	51,39
813,203	51,34
813,621	51,62
814,039	51,34
814,457	51,25
814,874	51,35
815,292	51,51
815,709	51,19
816,127	51,71
816,544	51,73
816,961	51,51
817,378	51,57
817,795	51,38
818,212	51,46
818,629	51,44
819,046	51,26
819,462	51,3
819,879	51,71
820,295	51,39
820,712	51,1
821,128	51,42
821,544	51,4
821,96	51,45
822,376	51,25
822,792	51,33
823,208	51,28
823,624	51,5
824,039	51,34
824,455	51,33
824,87	51,55
825,286	51,35
825,701	51,56
826,116	51,12
826,531	51,2
826,946	51,44
827,361	51,37
827,776	51,12
828,19	50,97
828,605	51,6
829,02	51,24
829,434	51,11
829,848	51,49
830,263	51,26
830,677	51,3
831,091	51,35
831,505	51,16
831,919	51,26
832,332	50,8
832,746	51,25
833,16	51,31
833,573	51,22
833,987	51,16
834,4	51,17
834,813	51,03
835,226	51,04
835,639	51,04
836,052	51,19
836,465	51,2
