Data from E6__Relative__6__00091.txt Node

Date: Tue Jan 30 17:59:34 CET 2024
User: diatiterra
Spectrometer: HDX00911
Trigger mode: 0
Integration Time (sec): 6,000000E-3
Scans to average: 3
Nonlinearity correction enabled: true
Boxcar width: 0
Storing dark spectrum: false
XAxis mode: Wavelengths
Number of Pixels in Spectrum: 2068
>>>>>Begin Spectral Data<<<<<
194,468	123,94
195,025	105,93
195,581	100,81
196,138	101,28
196,694	100,43
197,251	89,35
197,807	85,09
198,363	78,2
198,919	88,06
199,474	87,04
200,03	85,75
200,586	78,78
201,141	86,23
201,696	73,91
202,251	75,55
202,806	79,83
203,361	80,76
203,916	77,9
204,471	87,22
205,025	79,95
205,58	77,37
206,134	82,7
206,688	76,9
207,242	83,87
207,796	79,87
208,35	80,95
208,904	80,19
209,457	81,2
210,011	81,65
210,564	79,99
211,117	87,29
211,67	89,27
212,223	88,82
212,776	87,39
213,329	82,41
213,881	87,21
214,434	77,28
214,986	83,3
215,538	85,36
216,09	79,71
216,642	81,89
217,194	80,03
217,746	83,26
218,297	78,87
218,849	87,99
219,4	84,57
219,951	82,02
220,502	79,79
221,053	84,05
221,604	83,51
222,155	84,6
222,705	88,15
223,256	78,6
223,806	83,6
224,356	84,73
224,906	88,32
225,456	81,33
226,006	78,16
226,556	78,7
227,106	88,89
227,655	79,62
228,204	86,58
228,754	85,98
229,303	74,99
229,852	85,44
230,401	86,05
230,949	87,4
231,498	80,06
232,047	76,63
232,595	85,87
233,143	82,21
233,691	80,9
234,239	78,29
234,787	83,84
235,335	83,36
235,883	80,31
236,43	79,71
236,978	85,77
237,525	85,01
238,072	84,51
238,619	87,18
239,166	78,21
239,713	79,3
240,26	85,65
240,806	82,03
241,353	76,5
241,899	80,66
242,445	87,52
242,991	80,9
243,537	86,89
244,083	78,09
244,629	83,03
245,174	85,65
245,72	80,59
246,265	86,3
246,81	90,74
247,355	85,09
247,9	83,02
248,445	90,86
248,99	81,31
249,534	93,98
250,079	87,89
250,623	80,95
251,168	74,38
251,712	78,34
252,256	74,37
252,8	84,86
253,343	80,63
253,887	76,67
254,43	89,37
254,974	87,84
255,517	87,26
256,06	85,05
256,603	84,87
257,146	87,37
257,689	92,46
258,232	76,84
258,774	82,83
259,317	83,93
259,859	75,9
260,401	94,42
260,943	88,56
261,485	81,94
262,027	80,01
262,569	80,44
263,11	83,78
263,652	86,62
264,193	83,19
264,734	78,04
265,275	86,76
265,816	87,34
266,357	82,08
266,898	74,03
267,438	82,96
267,979	91,17
268,519	83,71
269,059	84,91
269,6	87,12
270,14	84,98
270,68	75,9
271,219	97,06
271,759	85,09
272,298	75,8
272,838	85,84
273,377	84,83
273,916	81,93
274,455	78,96
274,994	85,44
275,533	83,11
276,072	87,51
276,61	83,34
277,149	80,89
277,687	82,32
278,225	83,33
278,763	83,38
279,301	82,2
279,839	79,32
280,377	84,39
280,914	79,45
281,452	90,2
281,989	86,88
282,526	80,04
283,064	84,31
283,601	79,27
284,137	85,34
284,674	86,08
285,211	87,35
285,747	80,95
286,284	81,52
286,82	75,33
287,356	87,06
287,892	94,1
288,428	81,06
288,964	77,39
289,5	85,07
290,035	81,18
290,571	81,07
291,106	88,33
291,641	80,56
292,176	83,79
292,711	79,92
293,246	81,7
293,781	85,02
294,315	81,86
294,85	87,12
295,384	86,88
295,918	76,36
296,453	76,37
296,987	78,16
297,52	87,21
298,054	80,48
298,588	87,58
299,121	80,33
299,655	78,12
300,188	76,42
300,721	82,16
301,254	81,63
301,787	82,42
302,32	93,2
302,853	81,15
303,385	81,56
303,918	86,62
304,45	73,86
304,982	84,11
305,514	85,4
306,046	76,21
306,578	76,51
307,11	81,46
307,641	84,41
308,173	84,45
308,704	88,47
309,236	87,26
309,767	79,79
310,298	82,43
310,829	83,42
311,359	76,56
311,89	81,81
312,421	82,56
312,951	77,98
313,481	87,18
314,012	84,43
314,542	85,35
315,072	74,85
315,601	73,82
316,131	80,96
316,661	81,84
317,19	81,6
317,72	77,96
318,249	79,75
318,778	79,1
319,307	77,8
319,836	86,14
320,365	81,09
320,893	77,15
321,422	77,17
321,95	77,71
322,479	83,12
323,007	73,07
323,535	78,58
324,063	79,48
324,591	84,78
325,118	84,7
325,646	77,9
326,173	71,57
326,701	79,96
327,228	85,79
327,755	83,12
328,282	74,36
328,809	81,58
329,336	81,46
329,862	78,48
330,389	82,73
330,915	74,73
331,441	79,71
331,968	75,05
332,494	76,15
333,02	74,63
333,545	83,16
334,071	76
334,597	74,53
335,122	78,34
335,648	77,7
336,173	78,75
336,698	76,79
337,223	75,61
337,748	72,75
338,272	71,76
338,797	76,05
339,322	79,97
339,846	77
340,37	78,71
340,894	76,5
341,419	77,45
341,942	72,05
342,466	72,65
342,99	77,03
343,514	74,84
344,037	73,03
344,56	78,01
345,084	69,03
345,607	75,34
346,13	72,23
346,653	65,71
347,175	74,31
347,698	73,03
348,221	70,76
348,743	69,53
349,265	71,24
349,787	73,59
350,309	68,54
350,831	69,7
351,353	67,23
351,875	69,13
352,397	63,11
352,918	68,9
353,439	69,51
353,961	67,42
354,482	64,54
355,003	67,19
355,524	63,23
356,044	70,89
356,565	67,87
357,086	66,05
357,606	65,23
358,126	63,71
358,646	68,65
359,167	68,08
359,687	63,29
360,206	61,33
360,726	69,38
361,246	64,94
361,765	64,4
362,285	65,01
362,804	62,74
363,323	63,24
363,842	67,36
364,361	66,83
364,88	61,22
365,398	63,92
365,917	65,83
366,435	60,92
366,954	64,72
367,472	61,77
367,99	67,18
368,508	63,09
369,026	63,69
369,544	60,17
370,061	60,14
370,579	59,97
371,096	61,23
371,613	65,56
372,131	64,27
372,648	63,09
373,165	58,47
373,681	59,6
374,198	62,05
374,715	57,85
375,231	61,69
375,747	60,02
376,264	53,27
376,78	63,25
377,296	57,56
377,812	57,47
378,327	59,78
378,843	56,86
379,359	59,23
379,874	57,61
380,389	55,25
380,905	55,28
381,42	50,51
381,935	56,41
382,449	52,16
382,964	53,37
383,479	53,37
383,993	52,27
384,508	52,55
385,022	50,45
385,536	50,45
386,05	52
386,564	51,21
387,078	50,61
387,592	48,31
388,105	47,7
388,619	50,58
389,132	45,95
389,645	45,61
390,158	45,75
390,671	43,96
391,184	45,24
391,697	43,46
392,21	41,88
392,722	44,03
393,235	43,69
393,747	43,58
394,259	43,49
394,771	43,01
395,283	42,32
395,795	42,76
396,307	43,66
396,818	42,46
397,33	40,13
397,841	38,35
398,353	39,89
398,864	39,27
399,375	37,93
399,886	37,26
400,397	35,63
400,907	34,54
401,418	34,68
401,928	33,54
402,439	33,32
402,949	33,98
403,459	34,06
403,969	32,06
404,479	31,42
404,989	30,2
405,498	30,13
406,008	28,9
406,517	29,91
407,027	27,84
407,536	26,51
408,045	25,61
408,554	24,43
409,063	23,43
409,572	23,03
410,08	23,33
410,589	22,61
411,097	21,31
411,606	20,99
412,114	20,59
412,622	19,82
413,13	19,09
413,638	19,83
414,145	18,11
414,653	17,93
415,16	16,77
415,668	17,01
416,175	16,49
416,682	16,8
417,189	16,53
417,696	15,27
418,203	14,89
418,71	15,74
419,216	15,17
419,723	14,62
420,229	14,56
420,735	14,58
421,242	14,16
421,748	14,01
422,254	13,84
422,759	13,55
423,265	13,4
423,771	13,24
424,276	13,67
424,781	12,44
425,287	12,6
425,792	13,04
426,297	12,91
426,802	12,53
427,306	12,94
427,811	12,59
428,316	12,21
428,82	12,14
429,324	12,57
429,829	12,01
430,333	12,24
430,837	12,28
431,34	12,43
431,844	12,13
432,348	12,02
432,851	12,1
433,355	11,93
433,858	11,82
434,361	12
434,864	11,46
435,367	11,62
435,87	11,48
436,373	11,73
436,876	11,38
437,378	11,38
437,88	11,28
438,383	11,29
438,885	11,26
439,387	11,59
439,889	11,16
440,391	11,36
440,892	11,53
441,394	11,05
441,896	11,35
442,397	11,61
442,898	11,44
443,399	11,16
443,9	11,48
444,401	11,86
444,902	11,33
445,403	11,24
445,903	11,4
446,404	11,61
446,904	11,49
447,405	11,41
447,905	11,12
448,405	11,82
448,905	11,67
449,404	11,81
449,904	11,44
450,404	11,54
450,903	11,94
451,403	11,81
451,902	11,97
452,401	11,79
452,9	11,46
453,399	12
453,898	12,13
454,396	12,04
454,895	12,14
455,393	11,74
455,892	12,03
456,39	12,18
456,888	11,83
457,386	12,26
457,884	11,93
458,382	12,16
458,879	12,13
459,377	12,59
459,874	12,07
460,372	12,15
460,869	11,99
461,366	12,18
461,863	12,15
462,36	12,17
462,857	11,66
463,353	12,11
463,85	12,4
464,346	12,09
464,843	12,16
465,339	12,25
465,835	12,03
466,331	12,35
466,827	12,24
467,323	12,21
467,818	12,17
468,314	12,21
468,809	11,92
469,305	11,87
469,8	12,31
470,295	12,03
470,79	12,31
471,285	11,84
471,78	12,19
472,274	12,21
472,769	11,97
473,263	12,18
473,758	12,02
474,252	12,13
474,746	12,24
475,24	12,37
475,734	12,08
476,228	11,99
476,721	12,2
477,215	12,2
477,708	12,31
478,202	12,26
478,695	12,35
479,188	12,17
479,681	12,14
480,174	11,99
480,667	12,36
481,159	12,22
481,652	12,38
482,144	12,12
482,637	12,62
483,129	12,36
483,621	12,67
484,113	12,5
484,605	12,05
485,097	12,48
485,588	12,59
486,08	12,55
486,571	12,5
487,063	12,47
487,554	12,47
488,045	12,4
488,536	12,85
489,027	12,46
489,518	12,72
490,008	12,6
490,499	12,57
490,989	12,85
491,48	12,95
491,97	13,07
492,46	12,96
492,95	13,5
493,44	13,21
493,93	13,03
494,419	13,1
494,909	13,35
495,398	13,35
495,888	13,77
496,377	13,63
496,866	13,93
497,355	13,66
497,844	14,04
498,333	14,04
498,821	14,17
499,31	14,3
499,798	14,26
500,287	14,63
500,775	14,66
501,263	15,09
501,751	15,07
502,239	15,2
502,727	15,38
503,215	15,55
503,702	15,78
504,19	15,46
504,677	16,45
505,164	16,44
505,651	16,8
506,139	17,01
506,625	17
507,112	17,39
507,599	17,86
508,086	17,82
508,572	18,34
509,058	18,76
509,545	18,41
510,031	18,98
510,517	19,03
511,003	19,69
511,489	20,18
511,974	20,35
512,46	20,64
512,946	20,87
513,431	21,55
513,916	21,29
514,401	22,23
514,887	22,62
515,371	22,94
515,856	23,29
516,341	23,74
516,826	24,45
517,31	24,22
517,795	24,93
518,279	25,48
518,763	26,16
519,247	26,52
519,731	27,38
520,215	27,61
520,699	27,9
521,182	28,16
521,666	29,06
522,149	29,39
522,633	29,66
523,116	30
523,599	30,6
524,082	31,45
524,565	31,56
525,048	31,92
525,53	32,4
526,013	32,76
526,495	33,14
526,978	33,76
527,46	34,1
527,942	34,5
528,424	34,83
528,906	34,72
529,388	35,29
529,87	35,54
530,351	35,69
530,833	36,16
531,314	36,5
531,795	36,23
532,277	37,14
532,758	37,63
533,238	37,41
533,719	37,67
534,2	37,64
534,681	38,07
535,161	38,26
535,642	38,21
536,122	38,21
536,602	38,42
537,082	38,52
537,562	38,6
538,042	39
538,522	39,06
539,001	38,9
539,481	39,24
539,96	39,67
540,44	39,25
540,919	39,41
541,398	39,61
541,877	39,76
542,356	39,72
542,835	39,61
543,313	39,63
543,792	39,96
544,27	40,06
544,749	39,72
545,227	40,31
545,705	40,26
546,183	40,29
546,661	40,21
547,139	40,39
547,616	40,59
548,094	40,29
548,571	40,26
549,049	40,48
549,526	40,75
550,003	40,42
550,48	40,52
550,957	41,16
551,434	40,84
551,911	40,77
552,387	41,03
552,864	40,88
553,34	40,57
553,817	40,77
554,293	40,94
554,769	41,62
555,245	40,54
555,721	40,75
556,197	40,98
556,672	40,82
557,148	40,84
557,623	40,89
558,099	40,88
558,574	40,58
559,049	40,78
559,524	40,26
559,999	40,51
560,474	40,45
560,948	40,08
561,423	40,1
561,897	39,79
562,372	39,79
562,846	39,81
563,32	39,98
563,794	39,43
564,268	39,62
564,742	38,97
565,216	38,68
565,69	38,85
566,163	38,3
566,636	38,26
567,11	38,28
567,583	37,7
568,056	37,46
568,529	37,48
569,002	37,24
569,475	36,88
569,947	36,49
570,42	36,59
570,892	36,05
571,365	36,02
571,837	35,86
572,309	35,27
572,781	35,27
573,253	35,18
573,725	34,61
574,197	34,6
574,668	34,34
575,14	34,07
575,611	33,67
576,082	33,68
576,554	33,45
577,025	33,17
577,496	32,9
577,967	33,02
578,437	32,6
578,908	32,36
579,379	32,03
579,849	32,04
580,319	31,64
580,79	31,5
581,26	31,24
581,73	31,17
582,2	31,03
582,669	30,88
583,139	30,56
583,609	30,29
584,078	30,18
584,548	30,14
585,017	30,21
585,486	30,07
585,955	29,65
586,424	29,74
586,893	29,63
587,362	29,34
587,83	29,07
588,299	29,1
588,767	28,91
589,236	29,03
589,704	28,79
590,172	28,88
590,64	28,37
591,108	28,58
591,576	28,42
592,043	28,26
592,511	28,35
592,978	28,01
593,446	27,95
593,913	27,86
594,38	27,81
594,847	27,64
595,314	27,52
595,781	27,67
596,248	27,54
596,715	27,42
597,181	27,5
597,647	27,55
598,114	27,59
598,58	27,45
599,046	27,38
599,512	27,38
599,978	27,03
600,444	27,06
600,91	27
601,375	26,93
601,841	27,07
602,306	26,89
602,771	26,89
603,236	26,73
603,702	26,66
604,167	26,53
604,631	26,51
605,096	26,51
605,561	26,3
606,025	26,37
606,49	26,12
606,954	26,07
607,418	25,79
607,882	25,88
608,347	25,71
608,81	25,59
609,274	25,31
609,738	25,46
610,202	25,28
610,665	24,99
611,128	25,1
611,592	24,86
612,055	24,72
612,518	24,59
612,981	24,5
613,444	24,32
613,907	24,25
614,369	24
614,832	24,12
615,294	23,83
615,757	23,67
616,219	23,59
616,681	23,33
617,143	23,38
617,605	23,22
618,067	23,09
618,529	22,79
618,99	22,91
619,452	22,81
619,913	22,87
620,375	22,56
620,836	22,41
621,297	22,44
621,758	22,45
622,219	22,4
622,68	22,13
623,14	22,22
623,601	22,23
624,061	22,04
624,522	22,07
624,982	21,87
625,442	21,98
625,902	22,03
626,362	21,77
626,822	21,95
627,282	21,85
627,742	21,9
628,201	21,76
628,661	21,68
629,12	21,64
629,579	21,48
630,038	21,75
630,497	21,67
630,956	21,55
631,415	21,53
631,874	21,52
632,332	21,44
632,791	21,44
633,249	21,28
633,708	21,13
634,166	21,13
634,624	21,03
635,082	20,7
635,54	20,93
635,998	20,62
636,455	20,59
636,913	20,38
637,37	20,26
637,828	20,18
638,285	19,94
638,742	19,76
639,199	19,54
639,656	19,46
640,113	19,14
640,57	19,15
641,027	18,97
641,483	18,67
641,94	18,49
642,396	18,37
642,852	18,16
643,309	18,03
643,765	17,81
644,221	17,73
644,676	17,45
645,132	17,32
645,588	17,06
646,043	16,91
646,499	16,76
646,954	16,78
647,409	16,6
647,864	16,38
648,319	16,22
648,774	16,01
649,229	15,93
649,684	15,85
650,139	15,82
650,593	15,68
651,047	15,57
651,502	15,33
651,956	15,43
652,41	15,23
652,864	15,19
653,318	15,26
653,772	15,06
654,225	15,04
654,679	14,99
655,133	14,98
655,586	14,81
656,039	14,73
656,492	14,69
656,946	14,57
657,399	14,62
657,851	14,44
658,304	14,34
658,757	14,12
659,209	14
659,662	13,91
660,114	13,79
660,567	13,77
661,019	13,5
661,471	13,51
661,923	13,39
662,375	13,26
662,826	13,25
663,278	13,07
663,73	12,95
664,181	12,84
664,632	12,64
665,084	12,64
665,535	12,57
665,986	12,52
666,437	12,5
666,888	12,38
667,338	12,26
667,789	12,36
668,24	12,4
668,69	12,31
669,14	12,19
669,591	12,22
670,041	12,25
670,491	12,24
670,941	12,2
671,391	12,24
671,84	12,27
672,29	12,27
672,74	12,33
673,189	12,45
673,638	12,45
674,088	12,66
674,537	12,54
674,986	12,62
675,435	12,78
675,883	12,77
676,332	12,93
676,781	12,96
677,229	13
677,678	13,27
678,126	13,25
678,574	13,42
679,022	13,53
679,47	13,72
679,918	13,85
680,366	13,91
680,814	14
681,261	14,17
681,709	14,35
682,156	14,5
682,604	14,66
683,051	14,74
683,498	15
683,945	15,04
684,392	15,37
684,839	15,53
685,286	15,83
685,732	15,93
686,179	16,13
686,625	16,32
687,071	16,73
687,518	17,04
687,964	17,26
688,41	17,74
688,856	18,13
689,301	18,63
689,747	18,99
690,193	19,43
690,638	19,98
691,084	20,56
691,529	21,01
691,974	21,83
692,419	22,47
692,864	23,1
693,309	23,7
693,754	24,59
694,199	25,34
694,643	26,05
695,088	26,83
695,532	27,53
695,977	28,43
696,421	29,32
696,865	29,85
697,309	30,94
697,753	31,68
698,197	32,49
698,64	33,21
699,084	34,12
699,527	34,91
699,971	35,73
700,414	36,56
700,857	37,43
701,3	38,07
701,743	38,61
702,186	39,62
702,629	40,28
703,072	41
703,515	41,87
703,957	42,26
704,399	43,2
704,842	43,83
705,284	44,39
705,726	45,15
706,168	45,76
706,61	46,58
707,052	46,92
707,494	47,58
707,935	48,15
708,377	48,81
708,818	49,48
709,26	49,97
709,701	50,54
710,142	51,09
710,583	51,77
711,024	52,32
711,465	52,78
711,905	53,28
712,346	53,6
712,787	54,08
713,227	54,81
713,667	55,74
714,108	56
714,548	56,31
714,988	56,53
715,428	57,19
715,868	57,86
716,307	57,91
716,747	58,57
717,186	59,09
717,626	59,42
718,065	60,18
718,504	60,28
718,944	60,77
719,383	61,32
719,822	61,62
720,261	61,66
720,699	62,14
721,138	62,49
721,576	62,89
722,015	63,19
722,453	63,65
722,892	64,13
723,33	64,42
723,768	64,64
724,206	65,11
724,644	65,14
725,081	65,75
725,519	65,76
725,957	65,9
726,394	66,36
726,832	66,31
727,269	66,95
727,706	66,86
728,143	67,2
728,58	67,11
729,017	67,37
729,454	67,93
729,89	68,11
730,327	68,09
730,764	68,32
731,2	68,51
731,636	68,64
732,072	68,94
732,509	68,93
732,945	69,05
733,38	68,97
733,816	69,42
734,252	69,15
734,688	69,35
735,123	69,4
735,559	69,92
735,994	69,79
736,429	69,75
736,864	70,05
737,299	69,72
737,734	70,17
738,169	70,1
738,604	70,11
739,038	70,26
739,473	70,27
739,907	70,63
740,342	70,49
740,776	70,32
741,21	70,67
741,644	70,65
742,078	70,88
742,512	70,37
742,946	70,84
743,379	70,39
743,813	70,68
744,246	70,48
744,68	70,37
745,113	70,61
745,546	70,2
745,979	70,5
746,412	70,82
746,845	70,46
747,278	70,67
747,711	70,65
748,143	70,59
748,576	70,67
749,008	70,27
749,441	70,6
749,873	70,22
750,305	70,1
750,737	70,21
751,169	70,19
751,601	70,22
752,032	70,14
752,464	70,17
752,896	70,18
753,327	70,04
753,758	69,96
754,19	70,03
754,621	70,04
755,052	70,26
755,483	69,9
755,914	69,79
756,344	69,87
756,775	69,71
757,206	70,09
757,636	69,78
758,066	69,78
758,497	69,81
758,927	69,46
759,357	69,43
759,787	69,37
760,217	69,42
760,647	69,12
761,076	69,22
761,506	69,14
761,935	69,12
762,365	69,3
762,794	69,19
763,223	69,09
763,653	69,48
764,082	69
764,51	69,22
764,939	68,87
765,368	69
765,797	69,24
766,225	68,99
766,654	68,79
767,082	68,6
767,51	68,86
767,938	68,77
768,367	68,55
768,795	68,62
769,222	68,75
769,65	68,5
770,078	68,36
770,505	68,2
770,933	68,44
771,36	68,44
771,788	68,43
772,215	68,49
772,642	68,37
773,069	68,22
773,496	68,35
773,923	68,23
774,349	68,07
774,776	68,05
775,203	68,21
775,629	68,01
776,055	68,05
776,482	68,2
776,908	68,12
777,334	67,84
777,76	68,06
778,186	68,05
778,611	68,15
779,037	68,19
779,463	68
779,888	67,95
780,314	67,81
780,739	68,18
781,164	67,97
781,589	67,77
782,014	67,68
782,439	67,85
782,864	67,77
783,289	67,85
783,713	67,81
784,138	67,31
784,562	67,58
784,987	67,31
785,411	67,74
785,835	67,58
786,259	67,62
786,683	67,56
787,107	67,87
787,531	67,72
787,954	67,32
788,378	67,74
788,802	67,64
789,225	67,64
789,648	67,41
790,071	67,76
790,495	67,38
790,918	67,53
791,34	67,6
791,763	67,22
792,186	67,21
792,609	67,89
793,031	67,47
793,454	67,44
793,876	67,68
794,298	67,52
794,721	67,4
795,143	67,43
795,565	67,28
795,986	67,27
796,408	67,21
796,83	67,28
797,252	67,33
797,673	67,5
798,094	67,16
798,516	67,03
798,937	67,33
799,358	67,17
799,779	67,38
800,2	67,15
800,621	67,09
801,042	67,27
801,462	67,26
801,883	67,14
802,303	67,1
802,724	67
803,144	67,23
803,564	66,98
803,984	66,93
804,404	67,25
804,824	67,29
805,244	67,19
805,664	67,41
806,084	67,17
806,503	67,49
806,923	67,08
807,342	67,14
807,761	67,04
808,18	67,05
808,599	66,93
809,018	67,08
809,437	66,81
809,856	66,6
810,275	66,8
810,693	67,02
811,112	66,7
811,53	66,74
811,949	67,17
812,367	66,67
812,785	66,9
813,203	67,1
813,621	67,09
814,039	66,77
814,457	66,63
814,874	66,92
815,292	66,96
815,709	67,04
816,127	67
816,544	66,94
816,961	67,03
817,378	67,12
817,795	66,96
818,212	66,96
818,629	66,89
819,046	66,67
819,462	66,96
819,879	66,91
820,295	66,6
820,712	66,34
821,128	66,99
821,544	66,6
821,96	66,77
822,376	66,83
822,792	66,85
823,208	66,41
823,624	66,93
824,039	66,8
824,455	66,7
824,87	66,58
825,286	66,58
825,701	66,89
826,116	66,32
826,531	66,75
826,946	66,52
827,361	66,65
827,776	66,53
828,19	66,45
828,605	66,54
829,02	66,89
829,434	66,55
829,848	66,63
830,263	66,78
830,677	66,52
831,091	66,73
831,505	66,67
831,919	66,34
832,332	66,33
832,746	66,51
833,16	66,47
833,573	66,49
833,987	66,57
834,4	66,49
