Data from F1__Relative__9__00102.txt Node

Date: Tue Jan 30 18:00:51 CET 2024
User: diatiterra
Spectrometer: HDX00911
Trigger mode: 0
Integration Time (sec): 6,000000E-3
Scans to average: 3
Nonlinearity correction enabled: true
Boxcar width: 0
Storing dark spectrum: false
XAxis mode: Wavelengths
Number of Pixels in Spectrum: 2068
>>>>>Begin Spectral Data<<<<<
194,468	136,87
195,025	113,67
195,581	115,02
196,138	101,73
196,694	119,08
197,251	91,49
197,807	94,97
198,363	91,62
198,919	91,32
199,474	100,71
200,03	96,23
200,586	89,9
201,141	85,62
201,696	80,24
202,251	90,42
202,806	91,85
203,361	94,51
203,916	90,35
204,471	92,58
205,025	88,86
205,58	92,32
206,134	91,99
206,688	89,55
207,242	92,12
207,796	96,34
208,35	88,77
208,904	96,62
209,457	87,46
210,011	96,63
210,564	95,63
211,117	92,42
211,67	103,96
212,223	91,05
212,776	95,17
213,329	105,8
213,881	95,81
214,434	93,01
214,986	100,64
215,538	92,47
216,09	92,08
216,642	89,09
217,194	90,53
217,746	94,35
218,297	89,63
218,849	97,43
219,4	97,47
219,951	95,87
220,502	102,27
221,053	92,74
221,604	86,85
222,155	93,63
222,705	91,89
223,256	87,77
223,806	96,8
224,356	97,28
224,906	90,45
225,456	92,44
226,006	88,1
226,556	85,73
227,106	95,52
227,655	89,39
228,204	95,18
228,754	99,79
229,303	96,16
229,852	101,53
230,401	95,01
230,949	100,41
231,498	94,04
232,047	98,55
232,595	98,08
233,143	98,31
233,691	92,83
234,239	88,94
234,787	92,84
235,335	97,71
235,883	97,79
236,43	92,54
236,978	90,44
237,525	90,55
238,072	87,65
238,619	96,31
239,166	88,5
239,713	91,87
240,26	90,15
240,806	89,99
241,353	89,15
241,899	88,08
242,445	93,23
242,991	87,26
243,537	94,93
244,083	90,26
244,629	93,53
245,174	94,09
245,72	93,81
246,265	103,75
246,81	98,25
247,355	91,35
247,9	95,61
248,445	100,24
248,99	97,84
249,534	101,35
250,079	99,79
250,623	91,37
251,168	97,31
251,712	88,95
252,256	85,94
252,8	98,36
253,343	94,74
253,887	87,54
254,43	104,42
254,974	97,58
255,517	97,78
256,06	108,41
256,603	102,14
257,146	105,46
257,689	96,58
258,232	95,68
258,774	93,78
259,317	96,66
259,859	92,81
260,401	104,72
260,943	93,23
261,485	100,89
262,027	100,46
262,569	93,68
263,11	92,81
263,652	105,1
264,193	90,28
264,734	94,03
265,275	96,47
265,816	91,64
266,357	92,08
266,898	89,18
267,438	86,33
267,979	91,17
268,519	93,85
269,059	91,91
269,6	98,9
270,14	94,78
270,68	89,87
271,219	102,98
271,759	93,87
272,298	89,2
272,838	91,29
273,377	90,17
273,916	90,33
274,455	90,42
274,994	92,07
275,533	89,12
276,072	94,75
276,61	94,83
277,149	87,68
277,687	89,31
278,225	91,25
278,763	95,74
279,301	95,72
279,839	88,64
280,377	94,58
280,914	90,26
281,452	97,5
281,989	95,8
282,526	86,35
283,064	95,49
283,601	87,69
284,137	89,57
284,674	92,83
285,211	92,55
285,747	95,51
286,284	98,88
286,82	89,33
287,356	90,19
287,892	97,89
288,428	90,75
288,964	90,04
289,5	98,93
290,035	94,64
290,571	93,84
291,106	97,16
291,641	91,87
292,176	92,73
292,711	81
293,246	87,02
293,781	87,71
294,315	87,55
294,85	100,72
295,384	97,21
295,918	83,96
296,453	92,79
296,987	92,51
297,52	92,95
298,054	92,33
298,588	93,45
299,121	90,06
299,655	91,42
300,188	86,9
300,721	89,21
301,254	92,35
301,787	89,62
302,32	102,15
302,853	93,15
303,385	88,67
303,918	90,45
304,45	83,15
304,982	91,15
305,514	93,95
306,046	84,84
306,578	88,59
307,11	87,65
307,641	92,78
308,173	91,76
308,704	96,33
309,236	94,92
309,767	92,99
310,298	89,81
310,829	92,62
311,359	92,95
311,89	86,53
312,421	92,44
312,951	88,99
313,481	98,19
314,012	85,27
314,542	95,42
315,072	87
315,601	87,02
316,131	96,21
316,661	87,1
317,19	100,98
317,72	86,69
318,249	93,61
318,778	94,4
319,307	87,67
319,836	91,96
320,365	92,08
320,893	93,41
321,422	89,57
321,95	88,75
322,479	86,01
323,007	86,11
323,535	85,44
324,063	90,42
324,591	91,6
325,118	103,27
325,646	89,72
326,173	92,56
326,701	90,64
327,228	94,9
327,755	99,31
328,282	83,33
328,809	88,16
329,336	88,25
329,862	94,35
330,389	88,03
330,915	85,15
331,441	88,8
331,968	82,09
332,494	81,41
333,02	85,6
333,545	87,69
334,071	90,67
334,597	86,22
335,122	93,88
335,648	89,99
336,173	87,5
336,698	85,62
337,223	83,6
337,748	77,03
338,272	84,45
338,797	86,31
339,322	87,81
339,846	84,6
340,37	88,35
340,894	80,34
341,419	88,73
341,942	79,08
342,466	81,03
342,99	85
343,514	86,29
344,037	78,97
344,56	82,56
345,084	78,12
345,607	85,04
346,13	80,98
346,653	76,27
347,175	80,2
347,698	84,6
348,221	72,79
348,743	76,78
349,265	81,37
349,787	80,9
350,309	79,61
350,831	82,13
351,353	71,69
351,875	73,12
352,397	67,6
352,918	76,58
353,439	73,15
353,961	73,38
354,482	68,12
355,003	73,11
355,524	69,79
356,044	73,35
356,565	71,29
357,086	71,29
357,606	70,99
358,126	73,95
358,646	69,57
359,167	72,21
359,687	66,93
360,206	67,33
360,726	71,75
361,246	69,22
361,765	65,78
362,285	67,76
362,804	67,86
363,323	68,78
363,842	69,92
364,361	68,04
364,88	65,7
365,398	64,83
365,917	68,42
366,435	65,44
366,954	63,78
367,472	61,65
367,99	68,39
368,508	61,11
369,026	61,25
369,544	66,18
370,061	63,15
370,579	60,43
371,096	61,35
371,613	62,48
372,131	64,62
372,648	59,35
373,165	59,98
373,681	60,03
374,198	61,28
374,715	59,75
375,231	60,85
375,747	56,99
376,264	54,51
376,78	59,75
377,296	57,46
377,812	57,47
378,327	59,02
378,843	54,91
379,359	53,82
379,874	56,5
380,389	54,54
380,905	55,37
381,42	54,16
381,935	53,99
382,449	50,64
382,964	51,23
383,479	48,73
383,993	49,84
384,508	47,99
385,022	44,77
385,536	49,66
386,05	45,7
386,564	48,61
387,078	45,52
387,592	48,5
388,105	40,29
388,619	45,11
389,132	43
389,645	43,88
390,158	41,44
390,671	41,91
391,184	42,51
391,697	41,14
392,21	39,15
392,722	41,25
393,235	40,1
393,747	39,39
394,259	41,05
394,771	41,1
395,283	38,06
395,795	38,72
396,307	40,26
396,818	38,22
397,33	38,04
397,841	37,18
398,353	36,71
398,864	37,5
399,375	34,45
399,886	34,51
400,397	33,87
400,907	31,23
401,418	31,58
401,928	33,31
402,439	31,08
402,949	31,38
403,459	31,59
403,969	30,16
404,479	29,51
404,989	27,97
405,498	27,25
406,008	27,08
406,517	25,94
407,027	25,6
407,536	24,36
408,045	23,45
408,554	23,51
409,063	21,93
409,572	21,79
410,08	22,11
410,589	21,17
411,097	19,65
411,606	19,07
412,114	18,77
412,622	17,76
413,13	17,97
413,638	17,84
414,145	17,09
414,653	16,73
415,16	15,81
415,668	15,9
416,175	15,35
416,682	14,84
417,189	14,73
417,696	14,51
418,203	14,29
418,71	14,17
419,216	13,69
419,723	13,41
420,229	13,12
420,735	12,65
421,242	13,07
421,748	12,87
422,254	12,35
422,759	12,33
423,265	12,62
423,771	11,97
424,276	12,28
424,781	11,87
425,287	11,96
425,792	12,13
426,297	12
426,802	11,24
427,306	11,23
427,811	11,63
428,316	11,66
428,82	11,58
429,324	11,24
429,829	11,31
430,333	11,14
430,837	11,2
431,34	10,87
431,844	10,77
432,348	11,15
432,851	10,76
433,355	10,85
433,858	10,79
434,361	10,78
434,864	10,59
435,367	10,39
435,87	10,62
436,373	10,89
436,876	10,03
437,378	10,46
437,88	10,48
438,383	10,31
438,885	10,51
439,387	10,46
439,889	10,3
440,391	10,23
440,892	10,36
441,394	10,13
441,896	9,91
442,397	10,24
442,898	10
443,399	10,24
443,9	10,04
444,401	10,28
444,902	9,93
445,403	10,43
445,903	10,61
446,404	9,85
446,904	10,27
447,405	10,07
447,905	10,17
448,405	10,64
448,905	10,3
449,404	10,11
449,904	10,16
450,404	10,34
450,903	10,27
451,403	10,25
451,902	10,53
452,401	10,27
452,9	10,41
453,399	10,72
453,898	10,64
454,396	10,54
454,895	10,42
455,393	10,35
455,892	10,24
456,39	10,51
456,888	10,28
457,386	10,35
457,884	10,34
458,382	10,69
458,879	10,18
459,377	10,55
459,874	10,71
460,372	10,72
460,869	10,37
461,366	10,4
461,863	10,83
462,36	10,31
462,857	10,66
463,353	10,44
463,85	10,7
464,346	10,42
464,843	10,31
465,339	10,92
465,835	10,33
466,331	10,45
466,827	10,39
467,323	10,13
467,818	10,43
468,314	10,38
468,809	10,17
469,305	10,5
469,8	10,22
470,295	10,42
470,79	10,41
471,285	10,25
471,78	10,52
472,274	10,46
472,769	10,37
473,263	10,45
473,758	10,4
474,252	10,43
474,746	10,41
475,24	10,5
475,734	10,35
476,228	10,2
476,721	10,26
477,215	10,3
477,708	10,52
478,202	10,44
478,695	10,45
479,188	10,51
479,681	10,66
480,174	10,4
480,667	10,51
481,159	10,31
481,652	10,54
482,144	10,54
482,637	10,57
483,129	10,56
483,621	10,77
484,113	10,48
484,605	10,51
485,097	10,86
485,588	10,51
486,08	10,64
486,571	10,88
487,063	10,61
487,554	10,77
488,045	10,9
488,536	10,67
489,027	10,67
489,518	10,84
490,008	10,83
490,499	10,87
490,989	10,9
491,48	10,94
491,97	11,03
492,46	11,05
492,95	11,23
493,44	11,18
493,93	10,99
494,419	11,15
494,909	11,43
495,398	11,23
495,888	11,42
496,377	11,59
496,866	11,56
497,355	11,67
497,844	11,71
498,333	11,64
498,821	11,88
499,31	11,84
499,798	12,06
500,287	12,25
500,775	12,18
501,263	12,54
501,751	12,58
502,239	12,79
502,727	13,07
503,215	12,87
503,702	13,06
504,19	13,15
504,677	13,78
505,164	13,63
505,651	14,09
506,139	13,98
506,625	14,17
507,112	14,64
507,599	15,05
508,086	15,04
508,572	15,41
509,058	15,68
509,545	15,7
510,031	15,95
510,517	16,42
511,003	16,78
511,489	17,1
511,974	17,29
512,46	17,4
512,946	17,85
513,431	18,44
513,916	18,67
514,401	19
514,887	19,69
515,371	19,94
515,856	20,26
516,341	20,56
516,826	21,23
517,31	21,69
517,795	21,88
518,279	22,79
518,763	22,88
519,247	23,22
519,731	23,69
520,215	24,22
520,699	25,02
521,182	25,4
521,666	25,79
522,149	26,03
522,633	26,55
523,116	26,76
523,599	28,05
524,082	28,62
524,565	28,39
525,048	29,04
525,53	29,19
526,013	30,06
526,495	30,17
526,978	30,77
527,46	31,15
527,942	31,6
528,424	31,66
528,906	32,08
529,388	32,4
529,87	33,32
530,351	33,14
530,833	33,44
531,314	33,67
531,795	33,88
532,277	34,47
532,758	34,85
533,238	34,81
533,719	35,04
534,2	34,98
534,681	35,25
535,161	36,11
535,642	35,98
536,122	35,83
536,602	35,96
537,082	36,35
537,562	36,45
538,042	36,65
538,522	36,39
539,001	36,63
539,481	36,85
539,96	36,9
540,44	37,24
540,919	36,95
541,398	37,31
541,877	37,49
542,356	37,43
542,835	37,32
543,313	37,8
543,792	38,23
544,27	37,52
544,749	37,69
545,227	38
545,705	38,11
546,183	37,96
546,661	38,14
547,139	38,23
547,616	38,26
548,094	38,27
548,571	38,44
549,049	38,42
549,526	38,8
550,003	38,67
550,48	38,45
550,957	38,75
551,434	38,53
551,911	38,73
552,387	38,71
552,864	38,81
553,34	38,72
553,817	38,85
554,293	38,92
554,769	39,3
555,245	38,77
555,721	38,56
556,197	38,57
556,672	39,02
557,148	38,8
557,623	38,73
558,099	38,71
558,574	38,45
559,049	38,19
559,524	38,35
559,999	38,52
560,474	38,35
560,948	37,8
561,423	37,92
561,897	37,77
562,372	37,37
562,846	37,39
563,32	37,35
563,794	36,98
564,268	36,79
564,742	36,68
565,216	36,51
565,69	36,14
566,163	36,22
566,636	35,42
567,11	35,59
567,583	35,1
568,056	35,06
568,529	34,83
569,002	34,46
569,475	34,11
569,947	33,82
570,42	33,79
570,892	33,48
571,365	33,14
571,837	32,83
572,309	32,82
572,781	32,46
573,253	32,11
573,725	31,8
574,197	31,16
574,668	31,53
575,14	31,2
575,611	30,73
576,082	30,5
576,554	30,58
577,025	30,12
577,496	29,94
577,967	29,58
578,437	29,41
578,908	29,26
579,379	28,95
579,849	28,77
580,319	28,78
580,79	28,36
581,26	28,11
581,73	27,8
582,2	28,13
582,669	27,82
583,139	27,58
583,609	27,27
584,078	27,28
584,548	27,14
585,017	27,23
585,486	27,07
585,955	26,66
586,424	26,59
586,893	26,64
587,362	26,34
587,83	26,15
588,299	26,13
588,767	26,11
589,236	26,02
589,704	25,69
590,172	25,75
590,64	25,54
591,108	25,47
591,576	25,38
592,043	25,27
592,511	25,25
592,978	25,04
593,446	25,08
593,913	24,8
594,38	24,77
594,847	24,96
595,314	24,8
595,781	24,64
596,248	24,61
596,715	24,51
597,181	24,52
597,647	24,59
598,114	24,27
598,58	24,57
599,046	24,38
599,512	24,17
599,978	24,14
600,444	24,38
600,91	23,9
601,375	24,08
601,841	24,04
602,306	24,05
602,771	24,04
603,236	23,68
603,702	23,82
604,167	23,58
604,631	23,47
605,096	23,27
605,561	23,43
606,025	23,25
606,49	23,11
606,954	23,1
607,418	22,84
607,882	22,74
608,347	22,62
608,81	22,69
609,274	22,15
609,738	22,16
610,202	22,04
610,665	21,83
611,128	21,99
611,592	21,68
612,055	21,63
612,518	21,45
612,981	21,41
613,444	21,05
613,907	21,08
614,369	20,78
614,832	20,77
615,294	20,52
615,757	20,38
616,219	20,25
616,681	20,27
617,143	20,18
617,605	19,89
618,067	19,74
618,529	19,63
618,99	19,73
619,452	19,54
619,913	19,6
620,375	19,23
620,836	19,2
621,297	19,12
621,758	19,11
622,219	18,91
622,68	18,87
623,14	18,99
623,601	18,88
624,061	18,7
624,522	18,69
624,982	18,62
625,442	18,59
625,902	18,61
626,362	18,51
626,822	18,67
627,282	18,44
627,742	18,39
628,201	18,44
628,661	18,54
629,12	18,54
629,579	18,3
630,038	18,48
630,497	18,38
630,956	18,24
631,415	18,21
631,874	18,41
632,332	18,15
632,791	18,32
633,249	18,11
633,708	18,13
634,166	18,04
634,624	17,8
635,082	17,74
635,54	17,66
635,998	17,53
636,455	17,5
636,913	17,43
637,37	17,33
637,828	17,03
638,285	17,04
638,742	16,93
639,199	16,64
639,656	16,73
640,113	16,46
640,57	16,46
641,027	16,18
641,483	16,04
641,94	15,78
642,396	15,65
642,852	15,56
643,309	15,33
643,765	15,19
644,221	15,14
644,676	14,95
645,132	14,71
645,588	14,6
646,043	14,47
646,499	14,27
646,954	13,98
647,409	13,94
647,864	13,77
648,319	13,73
648,774	13,63
649,229	13,48
649,684	13,43
650,139	13,16
650,593	13,21
651,047	13,1
651,502	12,97
651,956	12,74
652,41	12,8
652,864	12,77
653,318	12,6
653,772	12,71
654,225	12,73
654,679	12,36
655,133	12,35
655,586	12,3
656,039	12,25
656,492	12,15
656,946	11,99
657,399	12,11
657,851	11,93
658,304	11,79
658,757	11,7
659,209	11,57
659,662	11,46
660,114	11,3
660,567	11,22
661,019	11,1
661,471	10,96
661,923	10,93
662,375	10,95
662,826	10,88
663,278	10,72
663,73	10,54
664,181	10,49
664,632	10,38
665,084	10,29
665,535	10,37
665,986	10,38
666,437	10,2
666,888	10,1
667,338	10,18
667,789	10,17
668,24	10,11
668,69	10,11
669,14	10,12
669,591	10,1
670,041	10,1
670,491	10,06
670,941	10,03
671,391	10,13
671,84	10,24
672,29	10,21
672,74	10,31
673,189	10,22
673,638	10,26
674,088	10,22
674,537	10,41
674,986	10,62
675,435	10,6
675,883	10,62
676,332	10,82
676,781	10,76
677,229	10,86
677,678	11,01
678,126	11,02
678,574	11,14
679,022	11,19
679,47	11,38
679,918	11,45
680,366	11,37
680,814	11,55
681,261	11,73
681,709	11,9
682,156	11,94
682,604	12,07
683,051	12,17
683,498	12,31
683,945	12,47
684,392	12,53
684,839	12,64
685,286	12,83
685,732	13,01
686,179	13,23
686,625	13,35
687,071	13,63
687,518	13,9
687,964	14,04
688,41	14,54
688,856	14,84
689,301	15,11
689,747	15,45
690,193	15,99
690,638	16,55
691,084	16,96
691,529	17,6
691,974	18,15
692,419	18,74
692,864	19,55
693,309	20,1
693,754	20,96
694,199	21,61
694,643	22,52
695,088	23,33
695,532	24,19
695,977	25,02
696,421	25,75
696,865	26,62
697,309	27,76
697,753	28,37
698,197	29,5
698,64	30,4
699,084	31,16
699,527	32,02
699,971	33,03
700,414	34,17
700,857	35,09
701,3	35,9
701,743	36,82
702,186	37,57
702,629	38,63
703,072	39,49
703,515	40,49
703,957	41,14
704,399	42,22
704,842	43
705,284	43,65
705,726	44,76
706,168	45,62
706,61	46,35
707,052	47,06
707,494	47,76
707,935	48,8
708,377	49,52
708,818	50,08
709,26	50,94
709,701	51,76
710,142	52,53
710,583	53,17
711,024	53,92
711,465	54,74
711,905	55,21
712,346	56,14
712,787	56,68
713,227	57,59
713,667	58,49
714,108	59,02
714,548	59,64
714,988	60,22
715,428	60,78
715,868	61,47
716,307	61,78
716,747	62,9
717,186	63,55
717,626	64,08
718,065	65,06
718,504	65,07
718,944	65,97
719,383	66,23
719,822	66,92
720,261	67,13
720,699	67,96
721,138	68,42
721,576	69,12
722,015	69,56
722,453	70,24
722,892	70,7
723,33	71
723,768	71,23
724,206	72,14
724,644	72,66
725,081	72,97
725,519	73,01
725,957	73,34
726,394	74,09
726,832	74,25
727,269	74,62
727,706	74,81
728,143	75,53
728,58	75,75
729,017	75,83
729,454	76,45
729,89	76,67
730,327	76,72
730,764	77,21
731,2	77,56
731,636	77,8
732,072	78,27
732,509	78,48
732,945	78,44
733,38	78,9
733,816	78,97
734,252	79,11
734,688	79,02
735,123	79,51
735,559	79,68
735,994	79,92
736,429	80,13
736,864	80,12
737,299	80,18
737,734	80,24
738,169	80,31
738,604	80,89
739,038	80,67
739,473	80,63
739,907	80,98
740,342	81,04
740,776	80,91
741,21	81,55
741,644	81,62
742,078	81,42
742,512	81,7
742,946	81,9
743,379	81,54
743,813	81,56
744,246	81,71
744,68	82,01
745,113	81,8
745,546	81,78
745,979	81,78
746,412	81,94
746,845	81,94
747,278	82,12
747,711	82,24
748,143	82,05
748,576	81,76
749,008	82,09
749,441	81,85
749,873	82,16
750,305	81,88
750,737	81,83
751,169	82,12
751,601	81,91
752,032	82,03
752,464	81,8
752,896	81,97
753,327	81,83
753,758	81,74
754,19	81,86
754,621	82,06
755,052	82,14
755,483	81,6
755,914	81,63
756,344	82,14
756,775	82,05
757,206	82,2
757,636	81,53
758,066	81,73
758,497	81,76
758,927	81,58
759,357	81,8
759,787	81,72
760,217	81,89
760,647	81,56
761,076	81,86
761,506	81,67
761,935	81,25
762,365	81,58
762,794	81,41
763,223	81,26
763,653	81,78
764,082	81,6
764,51	81,73
764,939	81,38
765,368	81,47
765,797	81,9
766,225	81,37
766,654	81,15
767,082	80,91
767,51	81,4
767,938	81,22
768,367	81,21
768,795	81,16
769,222	81,27
769,65	81,44
770,078	81,46
770,505	81
770,933	81,16
771,36	81,1
771,788	81,04
772,215	81,28
772,642	80,77
773,069	80,95
773,496	80,9
773,923	80,63
774,349	80,84
774,776	81,14
775,203	80,54
775,629	80,7
776,055	80,82
776,482	80,74
776,908	80,51
777,334	80,78
777,76	80,59
778,186	80,85
778,611	80,72
779,037	80,76
779,463	80,65
779,888	80,77
780,314	80,45
780,739	80,78
781,164	80,63
781,589	80,65
782,014	80,51
782,439	80,55
782,864	80,43
783,289	80,86
783,713	80,37
784,138	80,22
784,562	80,67
784,987	80,44
785,411	80,73
785,835	80,54
786,259	80,16
786,683	80,68
787,107	80,8
787,531	80,78
787,954	80,47
788,378	80,57
788,802	80,67
789,225	80,38
789,648	80,39
790,071	80,57
790,495	80,28
790,918	80,57
791,34	80,74
791,763	80,29
792,186	80,56
792,609	80,65
793,031	80,61
793,454	80,25
793,876	80,32
794,298	80,37
794,721	80,32
795,143	80,54
795,565	80,15
795,986	80,75
796,408	80,19
796,83	80,31
797,252	80,42
797,673	80,76
798,094	80,15
798,516	80,21
798,937	80,31
799,358	80,08
799,779	80,36
800,2	80,38
800,621	80,17
801,042	80,18
801,462	80,15
801,883	80,21
802,303	79,98
802,724	80,38
803,144	80,28
803,564	80
803,984	80,75
804,404	80,36
804,824	80,55
805,244	80,04
805,664	80,57
806,084	80,15
806,503	80,39
806,923	79,99
807,342	80,18
807,761	79,84
808,18	80,28
808,599	80,1
809,018	80,08
809,437	80,04
809,856	79,93
810,275	79,91
810,693	80,11
811,112	80,38
811,53	80,04
811,949	80,21
812,367	80,16
812,785	80,2
813,203	80,29
813,621	80,31
814,039	80,2
814,457	79,6
814,874	80,28
815,292	80,46
815,709	80,08
816,127	80,26
816,544	80,32
816,961	80,66
817,378	80,28
817,795	80,53
818,212	80,29
818,629	79,96
819,046	80,2
819,462	79,96
819,879	80,26
820,295	79,95
820,712	79,67
821,128	79,96
821,544	80,14
821,96	80,15
822,376	79,9
822,792	80,18
823,208	80,04
823,624	80,44
824,039	80,08
824,455	79,98
824,87	80,04
825,286	79,7
825,701	80,47
826,116	79,77
826,531	79,7
826,946	79,79
827,361	79,84
827,776	79,86
828,19	80,02
828,605	80,21
829,02	80,13
829,434	79,75
829,848	80,3
830,263	79,99
830,677	79,93
831,091	80,04
831,505	79,84
831,919	79,86
832,332	79,63
832,746	79,68
833,16	79,81
