Data from F5__Relative__7__00111.txt Node

Date: Tue Jan 30 18:02:06 CET 2024
User: diatiterra
Spectrometer: HDX00911
Trigger mode: 0
Integration Time (sec): 6,000000E-3
Scans to average: 3
Nonlinearity correction enabled: true
Boxcar width: 0
Storing dark spectrum: false
XAxis mode: Wavelengths
Number of Pixels in Spectrum: 2068
>>>>>Begin Spectral Data<<<<<
194,468	112,35
195,025	83,2
195,581	87,07
196,138	88,11
196,694	78,78
197,251	67,01
197,807	63,87
198,363	62,89
198,919	61,75
199,474	69,04
200,03	64,99
200,586	58,18
201,141	61,93
201,696	58,46
202,251	58,04
202,806	63,34
203,361	58,77
203,916	56,22
204,471	61,44
205,025	57,08
205,58	59,19
206,134	65,4
206,688	64,05
207,242	57,74
207,796	67,68
208,35	61,91
208,904	64,54
209,457	63,18
210,011	61,6
210,564	58,21
211,117	61,88
211,67	71,72
212,223	66,66
212,776	63,02
213,329	62,88
213,881	65,2
214,434	58,95
214,986	64,24
215,538	64,22
216,09	59,83
216,642	65,22
217,194	58,43
217,746	67,99
218,297	61,74
218,849	68,67
219,4	65,96
219,951	61,57
220,502	65,57
221,053	57,55
221,604	61,95
222,155	67,76
222,705	63,82
223,256	56,81
223,806	63,39
224,356	61,71
224,906	63,48
225,456	60,9
226,006	58,27
226,556	61,9
227,106	64,74
227,655	61,32
228,204	61,63
228,754	59,83
229,303	63,1
229,852	68,05
230,401	64,38
230,949	65,49
231,498	62,25
232,047	58,8
232,595	64,46
233,143	62,92
233,691	57,44
234,239	59,95
234,787	63,8
235,335	58
235,883	61,73
236,43	64,39
236,978	60,97
237,525	61,39
238,072	58,15
238,619	58,04
239,166	59,99
239,713	58,2
240,26	63,38
240,806	63,05
241,353	63,65
241,899	64,25
242,445	65,32
242,991	55,23
243,537	63
244,083	63,48
244,629	59,79
245,174	58,86
245,72	63,53
246,265	67,92
246,81	68,88
247,355	59,82
247,9	61,01
248,445	63,16
248,99	63,05
249,534	62,95
250,079	63,44
250,623	63,32
251,168	60,33
251,712	59,23
252,256	58,25
252,8	64,21
253,343	65,05
253,887	61,26
254,43	70,39
254,974	58,19
255,517	66,9
256,06	60,78
256,603	65,67
257,146	61,66
257,689	60,87
258,232	66,02
258,774	60,94
259,317	60,54
259,859	58,77
260,401	66
260,943	65,04
261,485	63,88
262,027	64,45
262,569	65,57
263,11	59,95
263,652	58,44
264,193	62,39
264,734	56,5
265,275	60,48
265,816	59,05
266,357	61,66
266,898	59,31
267,438	60,32
267,979	68,95
268,519	64,32
269,059	59,74
269,6	61,78
270,14	62,65
270,68	61,53
271,219	64,7
271,759	61,62
272,298	57,66
272,838	63,84
273,377	59,61
273,916	61,13
274,455	60,41
274,994	66,68
275,533	58,44
276,072	60,97
276,61	63,07
277,149	60,51
277,687	61,36
278,225	60,41
278,763	60
279,301	60,3
279,839	65,91
280,377	61,17
280,914	59,53
281,452	60,28
281,989	63,16
282,526	54,78
283,064	64,09
283,601	58,75
284,137	62,89
284,674	64,56
285,211	66,07
285,747	60,6
286,284	67,36
286,82	59,33
287,356	62,21
287,892	66,37
288,428	61,89
288,964	62,86
289,5	62,34
290,035	63,69
290,571	59,36
291,106	65,89
291,641	61,77
292,176	59,87
292,711	62,42
293,246	61,06
293,781	58,62
294,315	57,38
294,85	64,3
295,384	61,75
295,918	61,17
296,453	58,43
296,987	64,88
297,52	60,71
298,054	61,18
298,588	59,4
299,121	61,77
299,655	55,8
300,188	59,82
300,721	54,4
301,254	66,31
301,787	59,53
302,32	64,96
302,853	59,95
303,385	62,45
303,918	61,26
304,45	57,23
304,982	60,92
305,514	55,73
306,046	58,31
306,578	59,92
307,11	60,27
307,641	62,23
308,173	59,21
308,704	63,06
309,236	67,3
309,767	59,15
310,298	53,14
310,829	58,3
311,359	67,22
311,89	60
312,421	61,76
312,951	61,46
313,481	62,4
314,012	63,16
314,542	54,27
315,072	58,43
315,601	53,19
316,131	65,03
316,661	56,9
317,19	57,91
317,72	55,51
318,249	57,36
318,778	56,25
319,307	57,17
319,836	62,65
320,365	61,23
320,893	58,02
321,422	57,17
321,95	57,54
322,479	65,34
323,007	52,99
323,535	53,74
324,063	57,82
324,591	61,82
325,118	58,25
325,646	60,18
326,173	58,92
326,701	56,21
327,228	61,11
327,755	62,58
328,282	52,13
328,809	57,02
329,336	59,51
329,862	59,35
330,389	56,92
330,915	58,54
331,441	55,81
331,968	58,85
332,494	53,33
333,02	55,92
333,545	55,72
334,071	55,56
334,597	51,77
335,122	56,02
335,648	55,41
336,173	56,87
336,698	57,9
337,223	52,25
337,748	49,79
338,272	53,58
338,797	52,51
339,322	58,61
339,846	53,39
340,37	52,47
340,894	53,85
341,419	53,23
341,942	52,33
342,466	52,62
342,99	54,27
343,514	54,19
344,037	56,3
344,56	54,05
345,084	50,85
345,607	53,12
346,13	47,65
346,653	47,57
347,175	50,17
347,698	55,58
348,221	45,63
348,743	46,35
349,265	48,41
349,787	48,64
350,309	48,37
350,831	51,51
351,353	44,93
351,875	43,81
352,397	43,16
352,918	47,24
353,439	47,9
353,961	44,44
354,482	43,65
355,003	42,71
355,524	41,22
356,044	46,27
356,565	42,96
357,086	44,34
357,606	40,45
358,126	42,93
358,646	42,26
359,167	41,26
359,687	42,1
360,206	40,27
360,726	41,65
361,246	40,29
361,765	38,39
362,285	43,44
362,804	42,01
363,323	37,66
363,842	38,65
364,361	41,98
364,88	40,04
365,398	41,79
365,917	41,16
366,435	35,91
366,954	36,92
367,472	34,5
367,99	39,71
368,508	37,16
369,026	34,72
369,544	37,38
370,061	36,61
370,579	36,44
371,096	36,38
371,613	35,38
372,131	37,34
372,648	35,12
373,165	32,64
373,681	35,33
374,198	35,08
374,715	33,25
375,231	33,18
375,747	32,48
376,264	32,52
376,78	33,11
377,296	31,96
377,812	32,02
378,327	29,55
378,843	31,06
379,359	31,44
379,874	31,75
380,389	28,78
380,905	30,32
381,42	28,22
381,935	30,2
382,449	26,36
382,964	28,24
383,479	26,41
383,993	27,27
384,508	25,69
385,022	24,43
385,536	25,37
386,05	24,02
386,564	25,64
387,078	23,59
387,592	23,46
388,105	22,6
388,619	23,81
389,132	22,19
389,645	21,57
390,158	20,69
390,671	21,83
391,184	19,72
391,697	20,7
392,21	20,27
392,722	21,16
393,235	20,13
393,747	20,01
394,259	20,02
394,771	21
395,283	18,95
395,795	19,54
396,307	20,93
396,818	18,62
397,33	18,95
397,841	18,82
398,353	17,31
398,864	16,83
399,375	16,93
399,886	16,05
400,397	15,66
400,907	15,48
401,418	14,16
401,928	15,78
402,439	15,37
402,949	13,84
403,459	14,12
403,969	14,11
404,479	13,81
404,989	11,89
405,498	12,77
406,008	12,3
406,517	12,15
407,027	11,19
407,536	11,12
408,045	10,04
408,554	10,2
409,063	9,02
409,572	9,55
410,08	9,1
410,589	8,82
411,097	8,42
411,606	8,06
412,114	7,89
412,622	7,99
413,13	7,59
413,638	7,21
414,145	7,11
414,653	6,29
415,16	6,25
415,668	6,17
416,175	6
416,682	5,68
417,189	6,05
417,696	5,73
418,203	5,64
418,71	5,67
419,216	5,89
419,723	5,12
420,229	5,37
420,735	5,25
421,242	5,13
421,748	4,91
422,254	5,43
422,759	4,72
423,265	4,78
423,771	4,82
424,276	4,86
424,781	4,32
425,287	4,59
425,792	4,17
426,297	4,2
426,802	4,46
427,306	4,6
427,811	4,24
428,316	4,35
428,82	4,36
429,324	4,45
429,829	3,64
430,333	3,87
430,837	4,31
431,34	3,92
431,844	4,14
432,348	3,94
432,851	3,88
433,355	3,88
433,858	3,71
434,361	3,95
434,864	3,77
435,367	3,62
435,87	3,64
436,373	3,82
436,876	3,59
437,378	3,64
437,88	3,49
438,383	3,46
438,885	3,74
439,387	3,65
439,889	3,38
440,391	3,63
440,892	3,32
441,394	3,43
441,896	3,7
442,397	3,67
442,898	3,47
443,399	3,47
443,9	3,46
444,401	3,37
444,902	3,45
445,403	3,28
445,903	3,34
446,404	3,51
446,904	3,49
447,405	3,25
447,905	3,41
448,405	3,75
448,905	3,59
449,404	3,54
449,904	3,62
450,404	3,61
450,903	3,49
451,403	3,78
451,902	3,74
452,401	3,68
452,9	3,44
453,399	3,71
453,898	3,91
454,396	4,06
454,895	3,77
455,393	3,62
455,892	3,66
456,39	3,76
456,888	3,73
457,386	3,98
457,884	3,71
458,382	3,79
458,879	3,8
459,377	3,86
459,874	3,75
460,372	3,92
460,869	3,71
461,366	3,75
461,863	3,75
462,36	3,95
462,857	3,79
463,353	3,81
463,85	3,8
464,346	3,72
464,843	3,91
465,339	3,86
465,835	3,86
466,331	3,78
466,827	3,76
467,323	3,79
467,818	3,74
468,314	3,61
468,809	3,7
469,305	3,66
469,8	3,66
470,295	3,74
470,79	3,83
471,285	3,83
471,78	3,76
472,274	3,9
472,769	3,66
473,263	3,72
473,758	3,72
474,252	3,57
474,746	3,69
475,24	3,74
475,734	3,71
476,228	3,81
476,721	3,8
477,215	3,68
477,708	3,75
478,202	3,83
478,695	3,78
479,188	3,84
479,681	3,71
480,174	3,72
480,667	3,79
481,159	3,94
481,652	3,9
482,144	3,73
482,637	3,72
483,129	3,87
483,621	3,87
484,113	3,68
484,605	3,77
485,097	3,95
485,588	3,94
486,08	3,93
486,571	3,9
487,063	3,83
487,554	4,07
488,045	4,08
488,536	4,15
489,027	4,13
489,518	4,11
490,008	4,25
490,499	4,05
490,989	4,28
491,48	4,43
491,97	4,36
492,46	4,53
492,95	4,41
493,44	4,54
493,93	4,49
494,419	4,59
494,909	4,68
495,398	4,52
495,888	4,8
496,377	4,98
496,866	4,98
497,355	5,07
497,844	5,16
498,333	5,26
498,821	5,43
499,31	5,52
499,798	5,51
500,287	5,68
500,775	5,87
501,263	6,05
501,751	6,2
502,239	6,28
502,727	6,39
503,215	6,59
503,702	6,71
504,19	6,77
504,677	6,96
505,164	7,29
505,651	7,22
506,139	7,51
506,625	7,82
507,112	7,92
507,599	8,1
508,086	8,4
508,572	8,66
509,058	8,68
509,545	8,92
510,031	9,04
510,517	9,46
511,003	9,66
511,489	10,04
511,974	10,18
512,46	10,13
512,946	10,44
513,431	10,85
513,916	10,94
514,401	11,28
514,887	11,6
515,371	11,83
515,856	12,05
516,341	12,21
516,826	12,63
517,31	13,07
517,795	13,15
518,279	13,47
518,763	13,84
519,247	14,07
519,731	14,4
520,215	14,59
520,699	15,01
521,182	15,33
521,666	15,67
522,149	16,05
522,633	16,24
523,116	16,47
523,599	16,64
524,082	16,99
524,565	17,54
525,048	17,45
525,53	17,73
526,013	18,07
526,495	18,27
526,978	18,58
527,46	18,67
527,942	19
528,424	19,01
528,906	19,4
529,388	19,48
529,87	19,89
530,351	19,62
530,833	19,64
531,314	19,98
531,795	20,09
532,277	20,34
532,758	20,65
533,238	20,78
533,719	20,75
534,2	20,77
534,681	21,06
535,161	21,17
535,642	21,17
536,122	21,12
536,602	21,52
537,082	21,63
537,562	21,67
538,042	21,8
538,522	21,52
539,001	21,5
539,481	21,84
539,96	21,76
540,44	21,64
540,919	21,62
541,398	21,69
541,877	21,89
542,356	22,06
542,835	22,07
543,313	21,97
543,792	22,04
544,27	22,15
544,749	22,35
545,227	22,15
545,705	22,5
546,183	22,41
546,661	22,31
547,139	22,6
547,616	22,56
548,094	22,24
548,571	22,49
549,049	22,18
549,526	22,48
550,003	22,56
550,48	22,41
550,957	22,6
551,434	22,52
551,911	22,68
552,387	22,57
552,864	22,44
553,34	22,68
553,817	22,69
554,293	22,39
554,769	22,67
555,245	22,5
555,721	22,64
556,197	22,53
556,672	22,46
557,148	22,53
557,623	22,32
558,099	22,37
558,574	22,44
559,049	22,18
559,524	22,28
559,999	22,35
560,474	22,24
560,948	22,2
561,423	22,12
561,897	22,01
562,372	22,05
562,846	21,75
563,32	21,75
563,794	21,69
564,268	21,51
564,742	21,54
565,216	21,35
565,69	21,17
566,163	21,03
566,636	20,91
567,11	21,04
567,583	20,55
568,056	20,95
568,529	20,35
569,002	20,32
569,475	20,29
569,947	19,93
570,42	19,89
570,892	19,77
571,365	19,7
571,837	19,24
572,309	19,16
572,781	19,22
573,253	19,21
573,725	18,77
574,197	18,57
574,668	18,72
575,14	18,31
575,611	18,16
576,082	18
576,554	18,04
577,025	17,96
577,496	17,65
577,967	17,6
578,437	17,52
578,908	17,46
579,379	17,08
579,849	17,1
580,319	17,12
580,79	16,94
581,26	16,81
581,73	16,6
582,2	16,65
582,669	16,57
583,139	16,37
583,609	16,13
584,078	16,1
584,548	15,96
585,017	16,13
585,486	16,08
585,955	15,65
586,424	15,62
586,893	15,6
587,362	15,62
587,83	15,45
588,299	15,23
588,767	15,28
589,236	15,29
589,704	15,1
590,172	15,09
590,64	14,97
591,108	14,92
591,576	14,9
592,043	14,94
592,511	14,74
592,978	14,61
593,446	14,55
593,913	14,68
594,38	14,53
594,847	14,52
595,314	14,45
595,781	14,48
596,248	14,37
596,715	14,38
597,181	14,25
597,647	14,39
598,114	14,25
598,58	14,23
599,046	14,35
599,512	14,2
599,978	14,08
600,444	14,16
600,91	14,22
601,375	14,05
601,841	14
602,306	14,06
602,771	13,86
603,236	13,91
603,702	13,88
604,167	13,78
604,631	13,72
605,096	13,72
605,561	13,63
606,025	13,51
606,49	13,39
606,954	13,48
607,418	13,29
607,882	13,21
608,347	13,21
608,81	13,04
609,274	12,93
609,738	12,86
610,202	12,96
610,665	12,81
611,128	12,73
611,592	12,63
612,055	12,58
612,518	12,5
612,981	12,47
613,444	12,23
613,907	12,19
614,369	12,21
614,832	12,15
615,294	11,89
615,757	11,8
616,219	11,87
616,681	11,78
617,143	11,7
617,605	11,67
618,067	11,46
618,529	11,4
618,99	11,28
619,452	11,22
619,913	11,39
620,375	11,09
620,836	11,18
621,297	10,98
621,758	10,91
622,219	10,94
622,68	10,98
623,14	10,96
623,601	10,86
624,061	10,8
624,522	10,77
624,982	10,74
625,442	10,68
625,902	10,74
626,362	10,55
626,822	10,71
627,282	10,57
627,742	10,55
628,201	10,61
628,661	10,57
629,12	10,51
629,579	10,51
630,038	10,61
630,497	10,6
630,956	10,58
631,415	10,46
631,874	10,39
632,332	10,35
632,791	10,32
633,249	10,22
633,708	10,27
634,166	10,29
634,624	10,21
635,082	10,05
635,54	10,16
635,998	10,02
636,455	9,82
636,913	9,78
637,37	9,79
637,828	9,59
638,285	9,61
638,742	9,31
639,199	9,31
639,656	9,19
640,113	8,98
640,57	8,92
641,027	8,88
641,483	8,77
641,94	8,49
642,396	8,45
642,852	8,29
643,309	8,17
643,765	7,9
644,221	8
644,676	7,8
645,132	7,69
645,588	7,48
646,043	7,42
646,499	7,32
646,954	7,21
647,409	7,11
647,864	6,99
648,319	6,81
648,774	6,85
649,229	6,69
649,684	6,6
650,139	6,54
650,593	6,47
651,047	6,44
651,502	6,43
651,956	6,24
652,41	6,24
652,864	6,22
653,318	6,17
653,772	6,16
654,225	6,22
654,679	6,05
655,133	6,14
655,586	5,96
656,039	5,92
656,492	5,85
656,946	5,86
657,399	5,84
657,851	5,66
658,304	5,64
658,757	5,55
659,209	5,43
659,662	5,36
660,114	5,22
660,567	5,25
661,019	5,08
661,471	5,04
661,923	4,95
662,375	4,89
662,826	4,8
663,278	4,72
663,73	4,61
664,181	4,53
664,632	4,45
665,084	4,4
665,535	4,35
665,986	4,34
666,437	4,21
666,888	4,19
667,338	4,22
667,789	4,17
668,24	4,16
668,69	4,12
669,14	4,13
669,591	4,09
670,041	4,1
670,491	4,05
670,941	4,1
671,391	4,09
671,84	4,15
672,29	4,2
672,74	4,24
673,189	4,25
673,638	4,32
674,088	4,35
674,537	4,39
674,986	4,43
675,435	4,47
675,883	4,63
676,332	4,68
676,781	4,76
677,229	4,84
677,678	4,92
678,126	5,05
678,574	5,17
679,022	5,22
679,47	5,26
679,918	5,4
680,366	5,57
680,814	5,63
681,261	5,76
681,709	5,91
682,156	6,01
682,604	6,18
683,051	6,25
683,498	6,4
683,945	6,53
684,392	6,68
684,839	6,88
685,286	7,02
685,732	7,3
686,179	7,44
686,625	7,56
687,071	7,85
687,518	8,19
687,964	8,34
688,41	8,61
688,856	8,94
689,301	9,32
689,747	9,55
690,193	10,02
690,638	10,35
691,084	10,87
691,529	11,19
691,974	11,76
692,419	12,09
692,864	12,68
693,309	13,18
693,754	13,65
694,199	14,19
694,643	14,54
695,088	15,13
695,532	15,81
695,977	16,28
696,421	16,74
696,865	17,27
697,309	17,9
697,753	18,36
698,197	18,95
698,64	19,37
699,084	19,84
699,527	20,51
699,971	20,85
700,414	21,25
700,857	21,76
701,3	22,4
701,743	22,71
702,186	23,37
702,629	23,65
703,072	24,09
703,515	24,6
703,957	24,98
704,399	25,45
704,842	25,83
705,284	26,16
705,726	26,62
706,168	26,88
706,61	27,54
707,052	27,84
707,494	27,91
707,935	28,46
708,377	28,82
708,818	29,12
709,26	29,57
709,701	29,77
710,142	30,08
710,583	30,22
711,024	30,69
711,465	31,03
711,905	31,39
712,346	31,41
712,787	31,84
713,227	32,25
713,667	32,41
714,108	32,71
714,548	33,05
714,988	33,19
715,428	33,4
715,868	33,66
716,307	33,78
716,747	34,24
717,186	34,55
717,626	34,76
718,065	35,07
718,504	34,95
718,944	35,31
719,383	35,46
719,822	35,64
720,261	35,87
720,699	36,27
721,138	36,19
721,576	36,61
722,015	36,77
722,453	36,96
722,892	37,26
723,33	37,38
723,768	37,55
724,206	37,74
724,644	37,91
725,081	37,94
725,519	38,03
725,957	38,15
726,394	38,35
726,832	38,68
727,269	38,71
727,706	38,71
728,143	38,94
728,58	38,88
729,017	39,07
729,454	39,34
729,89	39,32
730,327	39,27
730,764	39,55
731,2	39,4
731,636	39,63
732,072	40,19
732,509	39,85
732,945	39,81
733,38	39,94
733,816	39,94
734,252	39,99
734,688	40,06
735,123	40,1
735,559	40,36
735,994	40,42
736,429	40,62
736,864	40,41
737,299	40,29
737,734	40,53
738,169	40,61
738,604	40,61
739,038	40,67
739,473	40,55
739,907	40,73
740,342	40,67
740,776	40,58
741,21	40,85
741,644	40,82
742,078	40,98
742,512	40,86
742,946	40,96
743,379	40,78
743,813	40,74
744,246	40,66
744,68	41
745,113	40,82
745,546	40,71
745,979	40,87
746,412	40,79
746,845	40,8
747,278	40,93
747,711	40,86
748,143	40,74
748,576	40,81
749,008	40,83
749,441	40,66
749,873	40,89
750,305	40,82
750,737	40,69
751,169	40,73
751,601	40,81
752,032	40,62
752,464	40,53
752,896	40,63
753,327	40,83
753,758	40,51
754,19	40,67
754,621	40,69
755,052	40,69
755,483	40,5
755,914	40,55
756,344	40,73
756,775	40,57
757,206	40,49
757,636	40,51
758,066	40,55
758,497	40,43
758,927	40,4
759,357	40,44
759,787	40,43
760,217	40,24
760,647	40,14
761,076	40,3
761,506	40,36
761,935	40,28
762,365	40,44
762,794	40,23
763,223	40,33
763,653	40,32
764,082	40,35
764,51	40,32
764,939	40,21
765,368	40,17
765,797	40,24
766,225	40,06
766,654	40,02
767,082	39,91
767,51	40,16
767,938	39,99
768,367	39,91
768,795	39,75
769,222	39,92
769,65	39,8
770,078	39,88
770,505	39,82
770,933	39,9
771,36	39,92
771,788	39,92
772,215	39,98
772,642	39,89
773,069	39,66
773,496	39,85
773,923	39,89
774,349	39,6
774,776	39,76
775,203	39,88
775,629	39,84
776,055	39,69
776,482	39,65
776,908	39,8
777,334	39,65
777,76	39,69
778,186	39,75
778,611	39,6
779,037	39,64
779,463	39,72
779,888	39,69
780,314	39,67
780,739	39,75
781,164	39,48
781,589	39,62
782,014	39,72
782,439	39,74
782,864	39,87
783,289	39,8
783,713	39,45
784,138	39,55
784,562	39,62
784,987	39,46
785,411	39,43
785,835	39,48
786,259	39,59
786,683	39,6
787,107	39,54
787,531	39,5
787,954	39,38
788,378	39,82
788,802	39,73
789,225	39,56
789,648	39,57
790,071	39,52
790,495	39,41
790,918	39,69
791,34	39,5
791,763	39,35
792,186	39,41
792,609	39,6
793,031	39,54
793,454	39,5
793,876	39,58
794,298	39,43
794,721	39,44
795,143	39,67
795,565	39,28
795,986	39,54
796,408	39,42
796,83	39,4
797,252	39,52
797,673	39,26
798,094	39,41
798,516	39,54
798,937	39,49
799,358	39,37
799,779	39,39
800,2	39,52
800,621	39,47
801,042	39,45
801,462	39,41
801,883	39,56
802,303	39,38
802,724	39,14
803,144	39,64
803,564	39,17
803,984	39,42
804,404	39,45
804,824	39,45
805,244	39,46
805,664	39,59
806,084	39,48
806,503	39,54
806,923	39,48
807,342	39,46
807,761	39,28
808,18	39,4
808,599	39,43
809,018	39,37
809,437	39,43
809,856	39,25
810,275	39,24
810,693	39,43
811,112	39,29
811,53	39,42
811,949	39,36
812,367	39,31
812,785	39,24
813,203	39,7
813,621	39,51
814,039	39,49
814,457	39,36
814,874	39,44
815,292	39,5
815,709	39,38
816,127	39,34
816,544	39,56
816,961	39,25
817,378	39,53
817,795	39,45
818,212	39,48
818,629	39,47
819,046	39,46
819,462	39,16
819,879	39,42
820,295	39,32
820,712	39,17
821,128	39,2
821,544	39,34
821,96	39,4
822,376	39,24
822,792	39,31
823,208	39,27
823,624	39,41
824,039	39,28
824,455	39,43
824,87	39,27
825,286	39,15
825,701	39,46
826,116	39,11
826,531	39,35
826,946	39,11
827,361	39,15
827,776	39,13
828,19	39,09
828,605	39,07
829,02	39,35
829,434	39,21
829,848	39,39
830,263	39,04
830,677	39,23
831,091	39,41
831,505	39,57
831,919	39,15
832,332	39,36
832,746	38,97
833,16	39,16
833,573	39,42
833,987	39,26
834,4	39,24
834,813	39,05
835,226	39,11
835,639	39,33
836,052	39,11
836,465	39,34
836,878	39,26
837,29	39,39
837,703	39,16
838,116	39,33
838,528	38,99
838,94	39,15
839,352	39,21
839,765	39,21
840,177	39,26
840,589	39,33
841	39,14
841,412	39,23
841,824	39,03
842,235	39,14
842,647	39,31
