Data from G2__Relative__0__00113.txt Node

Date: Tue Jan 30 18:03:39 CET 2024
User: diatiterra
Spectrometer: HDX00911
Trigger mode: 0
Integration Time (sec): 6,000000E-3
Scans to average: 3
Nonlinearity correction enabled: true
Boxcar width: 0
Storing dark spectrum: false
XAxis mode: Wavelengths
Number of Pixels in Spectrum: 2068
>>>>>Begin Spectral Data<<<<<
194,468	131,52
195,025	106,9
195,581	101,27
196,138	102,64
196,694	101,63
197,251	83,65
197,807	76,9
198,363	76,73
198,919	79,14
199,474	84,99
200,03	78,41
200,586	75,55
201,141	74,69
201,696	73,17
202,251	72,5
202,806	79,22
203,361	77,38
203,916	77,3
204,471	80
205,025	80,56
205,58	79,19
206,134	81,02
206,688	72,48
207,242	72,28
207,796	81,5
208,35	78,55
208,904	80,78
209,457	77,6
210,011	83,54
210,564	80,19
211,117	78,69
211,67	86,42
212,223	84,14
212,776	78,15
213,329	79,83
213,881	78,2
214,434	74,09
214,986	81,37
215,538	81,09
216,09	75,24
216,642	83,12
217,194	77,56
217,746	77,61
218,297	77,88
218,849	84,77
219,4	78,01
219,951	79,34
220,502	86,6
221,053	75,56
221,604	79,2
222,155	78,64
222,705	77,75
223,256	75,34
223,806	79,4
224,356	80,33
224,906	84,92
225,456	77,56
226,006	74,65
226,556	73,42
227,106	78,64
227,655	79
228,204	78,2
228,754	84,31
229,303	78,82
229,852	83,27
230,401	79,38
230,949	80,58
231,498	73,74
232,047	71,1
232,595	84,8
233,143	79,24
233,691	76,13
234,239	77,7
234,787	81,39
235,335	79,83
235,883	78,32
236,43	80,54
236,978	74,18
237,525	76,59
238,072	78,24
238,619	82,18
239,166	75,63
239,713	75,65
240,26	81,8
240,806	75,71
241,353	77,3
241,899	77,73
242,445	84,77
242,991	78,43
243,537	83,72
244,083	78,49
244,629	82,42
245,174	82,28
245,72	78,67
246,265	85,83
246,81	88,09
247,355	77,31
247,9	76,11
248,445	87,88
248,99	86,96
249,534	87,95
250,079	88,33
250,623	73,74
251,168	79,34
251,712	77,49
252,256	73,54
252,8	77,7
253,343	80,84
253,887	76,28
254,43	89,37
254,974	80,54
255,517	85,7
256,06	80,06
256,603	85,08
257,146	83,67
257,689	81,02
258,232	81,82
258,774	81,33
259,317	76,41
259,859	81,39
260,401	84,13
260,943	84,11
261,485	82,16
262,027	81,12
262,569	76,17
263,11	77
263,652	85,24
264,193	78,77
264,734	79,53
265,275	79,91
265,816	82,59
266,357	76,45
266,898	79,01
267,438	81,39
267,979	81,87
268,519	77,32
269,059	80,97
269,6	81,79
270,14	83,61
270,68	82,18
271,219	86,12
271,759	80,92
272,298	80,12
272,838	78
273,377	80,34
273,916	77,73
274,455	75
274,994	75,51
275,533	78
276,072	88,83
276,61	80,86
277,149	78,13
277,687	80,57
278,225	78,33
278,763	85,18
279,301	84,56
279,839	82,96
280,377	80,7
280,914	77,33
281,452	80,15
281,989	90,64
282,526	74,13
283,064	87,32
283,601	80,13
284,137	80,01
284,674	80,8
285,211	85,31
285,747	77,31
286,284	84,03
286,82	76
287,356	81,21
287,892	84,14
288,428	81,72
288,964	76,76
289,5	77,71
290,035	81,63
290,571	72,56
291,106	89,76
291,641	79,42
292,176	82,12
292,711	74,3
293,246	76,6
293,781	78,53
294,315	78,69
294,85	82,74
295,384	84,76
295,918	77,42
296,453	74,18
296,987	81,16
297,52	81,02
298,054	79,61
298,588	77,48
299,121	81,23
299,655	75,54
300,188	80,79
300,721	78,86
301,254	77,91
301,787	74,79
302,32	83,55
302,853	74,09
303,385	75,56
303,918	82,08
304,45	75,81
304,982	85,02
305,514	82,48
306,046	74,1
306,578	74,36
307,11	73,96
307,641	84,86
308,173	77,37
308,704	77,85
309,236	82,38
309,767	76,39
310,298	75,49
310,829	78,71
311,359	77,39
311,89	77,31
312,421	73,95
312,951	76,43
313,481	82,82
314,012	76,22
314,542	73,31
315,072	76,34
315,601	75,53
316,131	77,82
316,661	79
317,19	77,05
317,72	72,76
318,249	75,48
318,778	79,53
319,307	71,97
319,836	81,22
320,365	80,16
320,893	80,88
321,422	75,22
321,95	72,82
322,479	76,68
323,007	74,35
323,535	74,09
324,063	80,59
324,591	80,46
325,118	80,06
325,646	74,4
326,173	76,76
326,701	74,52
327,228	81,12
327,755	78,04
328,282	70,3
328,809	79,17
329,336	78,74
329,862	76,96
330,389	74,44
330,915	76,06
331,441	77,8
331,968	71
332,494	77,16
333,02	78,07
333,545	79,05
334,071	75,34
334,597	71,6
335,122	81,85
335,648	71,66
336,173	76,45
336,698	72,48
337,223	74,18
337,748	69,83
338,272	69,68
338,797	72,63
339,322	75,18
339,846	73,72
340,37	76,92
340,894	71,58
341,419	68,89
341,942	66,19
342,466	64,46
342,99	73,33
343,514	65,43
344,037	72,84
344,56	75,83
345,084	62,39
345,607	74,33
346,13	68,32
346,653	65,34
347,175	68,61
347,698	69,05
348,221	66,14
348,743	64,04
349,265	67,75
349,787	67
350,309	66,94
350,831	72,4
351,353	58,14
351,875	61,3
352,397	57,54
352,918	66,52
353,439	66,57
353,961	64,19
354,482	58,93
355,003	58,46
355,524	58,08
356,044	60,71
356,565	57,78
357,086	61,89
357,606	60,27
358,126	62,18
358,646	59,5
359,167	60,71
359,687	58,23
360,206	60,1
360,726	60,78
361,246	56,82
361,765	59,58
362,285	57,77
362,804	56,68
363,323	58,98
363,842	59,55
364,361	56,03
364,88	57,69
365,398	54,47
365,917	57,92
366,435	55,46
366,954	57,47
367,472	55,55
367,99	55,74
368,508	53,46
369,026	52,69
369,544	54,9
370,061	52,95
370,579	50,05
371,096	50,84
371,613	58,1
372,131	52,02
372,648	52,63
373,165	48,63
373,681	50,25
374,198	51,74
374,715	53,52
375,231	51,91
375,747	49,93
376,264	46,86
376,78	52,04
377,296	49,73
377,812	49,44
378,327	46,23
378,843	48,07
379,359	46,94
379,874	46,65
380,389	46,1
380,905	46,84
381,42	43,73
381,935	44,01
382,449	43,58
382,964	41,76
383,479	41,89
383,993	42,16
384,508	41,62
385,022	38,23
385,536	40,84
386,05	39,98
386,564	42,08
387,078	38,01
387,592	39,28
388,105	35,82
388,619	36,04
389,132	36,85
389,645	35,78
390,158	34,82
390,671	35,77
391,184	36,26
391,697	33,7
392,21	33,46
392,722	35,03
393,235	33,02
393,747	32,91
394,259	33,05
394,771	33,87
395,283	32,08
395,795	31,81
396,307	32,91
396,818	31,18
397,33	31
397,841	29,69
398,353	29,83
398,864	30,06
399,375	29,28
399,886	28,22
400,397	27,02
400,907	26,59
401,418	27,05
401,928	28,11
402,439	26,16
402,949	26,45
403,459	23,96
403,969	24
404,479	22,95
404,989	22,05
405,498	22,08
406,008	22,01
406,517	20,93
407,027	20,43
407,536	19,96
408,045	19,56
408,554	18,37
409,063	17,5
409,572	16,82
410,08	17,13
410,589	16,15
411,097	15,98
411,606	15,46
412,114	14,99
412,622	14,89
413,13	14,34
413,638	14,25
414,145	13,62
414,653	13,03
415,16	12,26
415,668	12,89
416,175	12,08
416,682	10,94
417,189	11,42
417,696	10,76
418,203	11,34
418,71	11,45
419,216	11,05
419,723	10,35
420,229	10,2
420,735	10,41
421,242	10,48
421,748	9,8
422,254	10,38
422,759	9,92
423,265	9,94
423,771	9,13
424,276	9,71
424,781	9,38
425,287	8,97
425,792	9,4
426,297	9,11
426,802	9,1
427,306	9,07
427,811	8,98
428,316	8,76
428,82	8,76
429,324	8,74
429,829	8,26
430,333	8,51
430,837	8,42
431,34	8,22
431,844	8,26
432,348	8,44
432,851	8,12
433,355	8,16
433,858	8,18
434,361	8,19
434,864	8,24
435,367	7,96
435,87	8,07
436,373	8,03
436,876	7,75
437,378	7,68
437,88	7,71
438,383	8,03
438,885	7,81
439,387	7,89
439,889	7,66
440,391	7,63
440,892	7,63
441,394	7,72
441,896	7,9
442,397	8
442,898	7,79
443,399	7,69
443,9	7,68
444,401	7,79
444,902	7,64
445,403	7,47
445,903	7,6
446,404	7,71
446,904	7,78
447,405	8,07
447,905	7,84
448,405	7,96
448,905	8,02
449,404	8,07
449,904	7,61
450,404	8,11
450,903	8,05
451,403	8,1
451,902	8,04
452,401	8,02
452,9	8,29
453,399	8,1
453,898	8,25
454,396	8,46
454,895	8,35
455,393	8,11
455,892	8,2
456,39	8,48
456,888	8,38
457,386	8,25
457,884	8,46
458,382	8,51
458,879	8,24
459,377	8,16
459,874	8,54
460,372	8,27
460,869	8,27
461,366	8,5
461,863	8,32
462,36	8,16
462,857	8,63
463,353	8,52
463,85	8,17
464,346	8,31
464,843	8,19
465,339	8,34
465,835	8,33
466,331	8,37
466,827	8,17
467,323	8,22
467,818	8,28
468,314	8,35
468,809	8,16
469,305	8,37
469,8	8,1
470,295	8,1
470,79	8,38
471,285	8,29
471,78	8,39
472,274	8,37
472,769	8,27
473,263	8,39
473,758	8,49
474,252	8,31
474,746	8,36
475,24	8,34
475,734	8,67
476,228	8,24
476,721	8,43
477,215	8,43
477,708	8,41
478,202	8,46
478,695	8,41
479,188	8,42
479,681	8,37
480,174	8,44
480,667	8,58
481,159	8,68
481,652	8,49
482,144	8,4
482,637	8,96
483,129	8,46
483,621	8,74
484,113	8,75
484,605	8,57
485,097	8,77
485,588	8,7
486,08	8,75
486,571	8,81
487,063	8,74
487,554	8,78
488,045	8,69
488,536	8,94
489,027	8,93
489,518	9,07
490,008	9,07
490,499	9,11
490,989	9,31
491,48	9,22
491,97	9,44
492,46	9,12
492,95	9,49
493,44	9,52
493,93	9,62
494,419	9,82
494,909	9,9
495,398	9,86
495,888	9,94
496,377	10,12
496,866	10,07
497,355	10,31
497,844	10,55
498,333	10,55
498,821	10,81
499,31	10,8
499,798	11,03
500,287	11,25
500,775	11,36
501,263	11,55
501,751	11,62
502,239	12,08
502,727	12,35
503,215	12,56
503,702	12,56
504,19	12,63
504,677	12,99
505,164	13,21
505,651	13,5
506,139	13,75
506,625	13,96
507,112	14,35
507,599	14,65
508,086	14,95
508,572	15,39
509,058	15,43
509,545	15,78
510,031	16,23
510,517	16,29
511,003	16,69
511,489	17,16
511,974	17,55
512,46	17,57
512,946	18,32
513,431	18,43
513,916	18,58
514,401	19,18
514,887	19,7
515,371	20,18
515,856	20,24
516,341	20,9
516,826	21,39
517,31	21,5
517,795	22,07
518,279	22,77
518,763	23,06
519,247	23,35
519,731	24,04
520,215	24,59
520,699	24,73
521,182	25,24
521,666	26,07
522,149	26,25
522,633	26,8
523,116	27,2
523,599	27,28
524,082	28,15
524,565	28,47
525,048	28,7
525,53	29
526,013	29,44
526,495	29,57
526,978	29,92
527,46	30,6
527,942	30,83
528,424	31,26
528,906	31,33
529,388	31,57
529,87	32,16
530,351	32,22
530,833	32,46
531,314	32,52
531,795	32,56
532,277	32,76
532,758	33,43
533,238	33,38
533,719	33,4
534,2	33,6
534,681	33,92
535,161	34,25
535,642	34,5
536,122	34,24
536,602	34
537,082	34,44
537,562	34,61
538,042	34,94
538,522	34,23
539,001	34,78
539,481	34,82
539,96	35,1
540,44	34,99
540,919	34,74
541,398	35,19
541,877	35,31
542,356	35,51
542,835	35,18
543,313	35,51
543,792	35,39
544,27	35,7
544,749	35,33
545,227	35,85
545,705	35,75
546,183	35,85
546,661	35,7
547,139	35,84
547,616	35,9
548,094	35,83
548,571	36,21
549,049	36,05
549,526	36,08
550,003	36,41
550,48	36,03
550,957	36,31
551,434	36,16
551,911	36,21
552,387	36,01
552,864	36,34
553,34	36,29
553,817	36,53
554,293	36,15
554,769	36,55
555,245	36,18
555,721	36,39
556,197	36,19
556,672	36,3
557,148	36,51
557,623	36,35
558,099	36,29
558,574	36,25
559,049	36,13
559,524	35,87
559,999	35,89
560,474	35,58
560,948	35,73
561,423	35,43
561,897	35,47
562,372	35,32
562,846	35,04
563,32	35,19
563,794	35,05
564,268	34,85
564,742	34,58
565,216	34,39
565,69	34,42
566,163	34,17
566,636	34,08
567,11	33,96
567,583	33,61
568,056	33,67
568,529	33,05
569,002	33,07
569,475	32,78
569,947	32,32
570,42	32,44
570,892	31,81
571,365	32,05
571,837	31,83
572,309	31,58
572,781	31,38
573,253	31,01
573,725	30,65
574,197	30,5
574,668	30,58
575,14	30,03
575,611	29,72
576,082	29,59
576,554	29,51
577,025	29,15
577,496	28,87
577,967	28,9
578,437	28,87
578,908	28,63
579,379	28,37
579,849	27,96
580,319	28,26
580,79	27,67
581,26	27,73
581,73	27,43
582,2	27,35
582,669	27,1
583,139	26,87
583,609	26,85
584,078	26,73
584,548	26,67
585,017	26,59
585,486	26,42
585,955	26,01
586,424	25,97
586,893	26,06
587,362	25,54
587,83	25,73
588,299	25,5
588,767	25,36
589,236	25,32
589,704	25,12
590,172	25,27
590,64	25,09
591,108	25,05
591,576	24,86
592,043	24,7
592,511	24,77
592,978	24,41
593,446	24,72
593,913	24,48
594,38	24,36
594,847	24,38
595,314	24,33
595,781	24,23
596,248	24,14
596,715	23,97
597,181	23,98
597,647	24,12
598,114	23,86
598,58	23,98
599,046	23,8
599,512	23,85
599,978	23,72
600,444	23,72
600,91	23,33
601,375	23,35
601,841	23,31
602,306	23,43
602,771	23,43
603,236	23,53
603,702	23,27
604,167	23,17
604,631	22,97
605,096	23,1
605,561	22,91
606,025	22,6
606,49	22,63
606,954	22,59
607,418	22,53
607,882	22,27
608,347	22,16
608,81	22,26
609,274	21,94
609,738	21,87
610,202	21,9
610,665	21,54
611,128	21,48
611,592	21,31
612,055	21,29
612,518	21,22
612,981	21,06
613,444	20,86
613,907	20,77
614,369	20,42
614,832	20,62
615,294	20,22
615,757	20
616,219	20,14
616,681	20,03
617,143	19,84
617,605	19,55
618,067	19,58
618,529	19,47
618,99	19,39
619,452	19,43
619,913	19,17
620,375	19,02
620,836	18,99
621,297	18,85
621,758	18,75
622,219	18,62
622,68	18,73
623,14	18,84
623,601	18,69
624,061	18,55
624,522	18,41
624,982	18,4
625,442	18,55
625,902	18,47
626,362	18,34
626,822	18,37
627,282	18,21
627,742	18,2
628,201	18,24
628,661	18,21
629,12	18,11
629,579	18,25
630,038	18,12
630,497	18,03
630,956	18,13
631,415	17,84
631,874	17,93
632,332	17,92
632,791	17,94
633,249	17,83
633,708	17,54
634,166	17,72
634,624	17,59
635,082	17,53
635,54	17,24
635,998	17,33
636,455	17,05
636,913	17,06
637,37	17
637,828	16,88
638,285	16,62
638,742	16,39
639,199	16,25
639,656	16,23
640,113	15,94
640,57	15,66
641,027	15,81
641,483	15,42
641,94	15,26
642,396	15,09
642,852	15,03
643,309	14,73
643,765	14,53
644,221	14,27
644,676	14,28
645,132	14,07
645,588	13,82
646,043	13,64
646,499	13,59
646,954	13,3
647,409	13,22
647,864	12,92
648,319	12,81
648,774	12,66
649,229	12,75
649,684	12,44
650,139	12,31
650,593	12,26
651,047	12,17
651,502	12,12
651,956	11,99
652,41	11,94
652,864	11,84
653,318	11,7
653,772	11,73
654,225	11,64
654,679	11,57
655,133	11,57
655,586	11,31
656,039	11,36
656,492	11,25
656,946	11,1
657,399	10,96
657,851	10,93
658,304	10,88
658,757	10,74
659,209	10,54
659,662	10,35
660,114	10,26
660,567	10,22
661,019	10,07
661,471	9,86
661,923	9,79
662,375	9,58
662,826	9,57
663,278	9,41
663,73	9,32
664,181	9,23
664,632	9,16
665,084	9,02
665,535	8,93
665,986	8,75
666,437	8,81
666,888	8,59
667,338	8,61
667,789	8,55
668,24	8,45
668,69	8,43
669,14	8,47
669,591	8,31
670,041	8,41
670,491	8,42
670,941	8,45
671,391	8,35
671,84	8,32
672,29	8,49
672,74	8,43
673,189	8,6
673,638	8,55
674,088	8,6
674,537	8,64
674,986	8,79
675,435	8,77
675,883	8,89
676,332	9,04
676,781	9,07
677,229	9,05
677,678	9,19
678,126	9,22
678,574	9,4
679,022	9,55
679,47	9,63
679,918	9,71
680,366	9,89
680,814	9,9
681,261	10,19
681,709	10,27
682,156	10,33
682,604	10,51
683,051	10,77
683,498	10,86
683,945	11,02
684,392	11,24
684,839	11,48
685,286	11,71
685,732	12,08
686,179	12,15
686,625	12,5
687,071	12,68
687,518	13,07
687,964	13,43
688,41	13,76
688,856	14,18
689,301	14,77
689,747	15,1
690,193	15,73
690,638	16,25
691,084	16,75
691,529	17,38
691,974	18,16
692,419	18,69
692,864	19,34
693,309	20,14
693,754	20,9
694,199	21,65
694,643	22,24
695,088	23,06
695,532	23,81
695,977	24,71
696,421	25,39
696,865	26,02
697,309	27
697,753	27,64
698,197	28,49
698,64	29,03
699,084	29,99
699,527	30,48
699,971	31,33
700,414	32,04
700,857	32,66
701,3	33,52
701,743	34,08
702,186	34,82
702,629	35,48
703,072	36,01
703,515	36,69
703,957	37,18
704,399	37,86
704,842	38,44
705,284	38,8
705,726	39,7
706,168	40,14
706,61	40,78
707,052	41,08
707,494	41,68
707,935	42,09
708,377	42,84
708,818	43,05
709,26	43,78
709,701	43,85
710,142	44,5
710,583	45,03
711,024	45,5
711,465	45,96
711,905	46,04
712,346	46,6
712,787	47,22
713,227	47,48
713,667	48,1
714,108	48,46
714,548	48,68
714,988	49,15
715,428	49,32
715,868	49,77
716,307	49,94
716,747	50,44
717,186	50,68
717,626	51,02
718,065	51,61
718,504	51,71
718,944	52,14
719,383	52,32
719,822	52,51
720,261	52,62
720,699	53,06
721,138	53,33
721,576	53,93
722,015	53,86
722,453	54,27
722,892	54,42
723,33	54,83
723,768	55
724,206	55,35
724,644	55,31
725,081	55,71
725,519	55,9
725,957	55,87
726,394	56,24
726,832	56,2
727,269	56,69
727,706	56,6
728,143	56,99
728,58	57
729,017	57,05
729,454	57,49
729,89	57,54
730,327	57,63
730,764	57,77
731,2	57,6
731,636	58,03
732,072	58,26
732,509	58,2
732,945	58,11
733,38	58,34
733,816	58,45
734,252	58,48
734,688	58,2
735,123	58,52
735,559	58,7
735,994	58,86
736,429	58,95
736,864	58,93
737,299	58,53
737,734	58,96
738,169	58,87
738,604	59,09
739,038	59,11
739,473	59,16
739,907	59,25
740,342	59,43
740,776	58,98
741,21	59,36
741,644	59,44
742,078	59,18
742,512	59,31
742,946	59,52
743,379	59,29
743,813	59,52
744,246	59,21
744,68	59,42
745,113	59,51
745,546	59,22
745,979	59,19
746,412	59,62
746,845	59,42
747,278	59,35
747,711	59,36
748,143	59,08
748,576	59,04
749,008	59,22
749,441	59,06
749,873	59,08
750,305	59,09
750,737	59,11
751,169	59,06
751,601	59,45
752,032	59,08
752,464	59,15
752,896	59,01
753,327	59,09
753,758	58,99
754,19	58,97
754,621	59
755,052	59,01
755,483	58,8
755,914	58,88
756,344	58,81
756,775	58,75
757,206	58,93
757,636	58,68
758,066	58,75
758,497	58,7
758,927	58,66
759,357	58,65
759,787	58,69
760,217	58,48
760,647	58,34
761,076	58,66
761,506	58,35
761,935	58,2
762,365	58,35
762,794	58,4
763,223	58,33
763,653	58,71
764,082	58,3
764,51	58,34
764,939	58,18
765,368	58,23
765,797	58,43
766,225	58,43
766,654	58,09
767,082	57,94
767,51	58,17
767,938	58,05
768,367	58,07
768,795	57,84
769,222	58,31
769,65	58,12
770,078	57,89
770,505	57,75
770,933	57,77
771,36	57,9
771,788	57,92
772,215	58,07
772,642	57,96
773,069	57,74
773,496	57,79
773,923	57,65
774,349	57,55
774,776	57,84
775,203	57,77
775,629	57,68
776,055	57,46
776,482	57,87
776,908	57,55
777,334	57,62
777,76	57,47
778,186	57,59
778,611	57,46
779,037	57,32
779,463	57,76
779,888	57,37
780,314	57,39
780,739	57,65
781,164	57,77
781,589	57,29
782,014	57,56
782,439	57,38
782,864	57,71
783,289	57,61
783,713	57,36
784,138	57,22
784,562	57,26
784,987	57,15
785,411	57,33
785,835	57,33
786,259	57,29
786,683	57,5
787,107	57,43
787,531	57,05
787,954	57,02
788,378	57,42
788,802	57,48
789,225	57,13
789,648	57,29
790,071	57,3
790,495	56,96
790,918	57,27
791,34	57,23
791,763	57,07
792,186	57,23
792,609	57,49
793,031	57,32
793,454	56,79
793,876	57,03
794,298	57,01
794,721	56,9
795,143	57,24
795,565	57,04
795,986	57,23
796,408	56,83
796,83	57,06
797,252	57,26
797,673	57,3
798,094	57,06
798,516	56,89
798,937	57,09
799,358	56,95
799,779	56,81
800,2	57,19
800,621	56,69
801,042	57,13
801,462	56,92
801,883	57,02
802,303	56,9
802,724	56,75
803,144	56,98
803,564	56,83
803,984	56,86
804,404	56,98
804,824	57,34
805,244	57,08
805,664	57,15
806,084	56,89
806,503	57,05
806,923	56,98
807,342	56,75
807,761	56,77
808,18	56,93
808,599	56,88
809,018	56,97
809,437	56,95
809,856	56,56
810,275	56,71
810,693	56,82
811,112	56,9
811,53	56,82
811,949	57,15
812,367	56,77
812,785	56,73
813,203	56,92
813,621	56,99
814,039	56,76
814,457	56,62
814,874	56,98
815,292	56,93
815,709	56,67
816,127	56,66
816,544	57,05
816,961	56,85
817,378	57,07
817,795	57,03
818,212	56,74
818,629	57,11
819,046	56,86
819,462	56,66
819,879	57,12
820,295	56,57
820,712	56,8
821,128	56,79
821,544	56,7
821,96	56,74
822,376	56,67
822,792	57,02
823,208	56,58
823,624	56,8
824,039	57,01
824,455	56,71
824,87	56,87
825,286	56,85
825,701	56,92
826,116	56,71
826,531	56,67
826,946	56,95
827,361	56,7
827,776	56,4
828,19	56,56
828,605	56,85
829,02	56,68
829,434	56,38
829,848	56,89
830,263	57,01
830,677	56,84
831,091	56,83
831,505	56,78
831,919	56,7
832,332	56,36
832,746	56,62
833,16	56,77
833,573	56,58
833,987	56,77
834,4	56,34
834,813	56,44
835,226	56,42
835,639	56,41
836,052	56,55
836,465	56,72
836,878	56,6
837,29	56,63
837,703	56,77
838,116	56,65
838,528	56,32
838,94	56,65
839,352	56,56
839,765	56,41
