Data from G4__Relative__6__00130.txt Node

Date: Tue Jan 30 18:06:53 CET 2024
User: diatiterra
Spectrometer: HDX00911
Trigger mode: 0
Integration Time (sec): 6,000000E-3
Scans to average: 3
Nonlinearity correction enabled: true
Boxcar width: 0
Storing dark spectrum: false
XAxis mode: Wavelengths
Number of Pixels in Spectrum: 2068
>>>>>Begin Spectral Data<<<<<
194,468	141,33
195,025	110,29
195,581	116,85
196,138	98,55
196,694	99,83
197,251	81,98
197,807	81,1
198,363	78,83
198,919	82,62
199,474	84,31
200,03	82,39
200,586	81,01
201,141	76,51
201,696	71,12
202,251	76,37
202,806	84,11
203,361	81,18
203,916	71,68
204,471	80,62
205,025	79,14
205,58	78,99
206,134	78,06
206,688	74,08
207,242	78,57
207,796	76,42
208,35	75,94
208,904	78,6
209,457	77,22
210,011	78,69
210,564	74,44
211,117	79,3
211,67	83,34
212,223	78,86
212,776	75,84
213,329	82,62
213,881	81,55
214,434	75,88
214,986	77,73
215,538	80,89
216,09	73,22
216,642	82,3
217,194	75,51
217,746	79,71
218,297	74,69
218,849	79,83
219,4	76,32
219,951	74,58
220,502	82,27
221,053	76,8
221,604	74,5
222,155	80,28
222,705	76,72
223,256	79,82
223,806	79,6
224,356	75,73
224,906	81,53
225,456	78,75
226,006	76,21
226,556	71,86
227,106	79,49
227,655	72,76
228,204	76,73
228,754	80,54
229,303	75,6
229,852	83,48
230,401	80,01
230,949	85,12
231,498	72,4
232,047	78,06
232,595	81,16
233,143	74,16
233,691	80,11
234,239	75,92
234,787	80,16
235,335	83,98
235,883	79,21
236,43	77,43
236,978	76,01
237,525	74,12
238,072	74,68
238,619	81,31
239,166	76,23
239,713	72,81
240,26	80,94
240,806	77,13
241,353	71,68
241,899	80,46
242,445	74,63
242,991	75,97
243,537	79,07
244,083	82,14
244,629	80,8
245,174	73,63
245,72	72,28
246,265	87
246,81	81,24
247,355	82,93
247,9	83,23
248,445	80,33
248,99	83,7
249,534	80,58
250,079	85,69
250,623	81,55
251,168	76,24
251,712	79,4
252,256	72,3
252,8	74,84
253,343	78,1
253,887	74,7
254,43	84,28
254,974	74,56
255,517	83,68
256,06	82,1
256,603	80,18
257,146	82,14
257,689	80,56
258,232	73,81
258,774	82,83
259,317	80,38
259,859	75,9
260,401	87,49
260,943	80,72
261,485	81,5
262,027	87,34
262,569	78,2
263,11	72,48
263,652	84,08
264,193	81,65
264,734	76,33
265,275	77,93
265,816	79,64
266,357	71,66
266,898	79,44
267,438	77,81
267,979	86,64
268,519	79,97
269,059	83,38
269,6	77,78
270,14	81,56
270,68	74,08
271,219	81,79
271,759	77,63
272,298	74,51
272,838	81,05
273,377	75,43
273,916	76,89
274,455	74,37
274,994	77,27
275,533	73,11
276,072	79,4
276,61	74,33
277,149	74,52
277,687	73,37
278,225	77,29
278,763	81,58
279,301	80,69
279,839	79,32
280,377	76,57
280,914	75,43
281,452	86,54
281,989	84,29
282,526	77,8
283,064	84,09
283,601	75,59
284,137	73,79
284,674	75,95
285,211	84,18
285,747	76,67
286,284	78,32
286,82	78,44
287,356	71,61
287,892	81,06
288,428	76,65
288,964	74,9
289,5	77,71
290,035	77,37
290,571	77,66
291,106	84,51
291,641	78,97
292,176	81,91
292,711	77,76
293,246	76,6
293,781	75,85
294,315	77
294,85	82,97
295,384	85,47
295,918	71,09
296,453	75,5
296,987	74,73
297,52	80,36
298,054	82,9
298,588	83,59
299,121	79,88
299,655	80,69
300,188	71,18
300,721	73,13
301,254	80,75
301,787	76,48
302,32	82,61
302,853	78,37
303,385	79,11
303,918	79,2
304,45	74,94
304,982	79,79
305,514	80,68
306,046	75,16
306,578	73,5
307,11	76,83
307,641	82,6
308,173	76,9
308,704	82,7
309,236	78,9
309,767	76,39
310,298	74,19
310,829	76,69
311,359	77,8
311,89	78,43
312,421	74,58
312,951	72,25
313,481	75,47
314,012	78,53
314,542	76,16
315,072	73,14
315,601	72,97
316,131	80,96
316,661	74,18
317,19	80,16
317,72	73,18
318,249	75,48
318,778	74,79
319,307	68,61
319,836	70,93
320,365	75,48
320,893	74,29
321,422	73,26
321,95	74,1
322,479	74,01
323,007	72,86
323,535	70,87
324,063	75,46
324,591	80,24
325,118	77,51
325,646	74,84
326,173	77,21
326,701	76,26
327,228	79,78
327,755	82,15
328,282	73,5
328,809	75,66
329,336	75,58
329,862	70,22
330,389	74,67
330,915	73,18
331,441	75,05
331,968	69,51
332,494	74,34
333,02	78,07
333,545	73,87
334,071	67,11
334,597	72,65
335,122	78,56
335,648	73,95
336,173	72,7
336,698	70,22
337,223	74,59
337,748	75,28
338,272	76,31
338,797	70,21
339,322	78,44
339,846	66,53
340,37	72,65
340,894	72,65
341,419	71,6
341,942	68,54
342,466	70,83
342,99	73,33
343,514	70,14
344,037	69,87
344,56	73,26
345,084	65,36
345,607	75,95
346,13	71,11
346,653	66,27
347,175	71,84
347,698	73,79
348,221	65,96
348,743	64,57
349,265	68,11
349,787	68,96
350,309	67,11
350,831	66,64
351,353	63,76
351,875	63,13
352,397	59,86
352,918	64,98
353,439	67,61
353,961	65,38
354,482	59,86
355,003	60,95
355,524	60,74
356,044	61,53
356,565	64,94
357,086	65,59
357,606	63,95
358,126	65,09
358,646	60,87
359,167	62,92
359,687	57,11
360,206	62,25
360,726	65,23
361,246	59,77
361,765	62,34
362,285	60,09
362,804	62,74
363,323	61,25
363,842	58,98
364,361	60,08
364,88	61,62
365,398	58,23
365,917	61,06
366,435	59,99
366,954	59,35
367,472	54,92
367,99	62,2
368,508	59,26
369,026	56,6
369,544	60,05
370,061	53,07
370,579	58,24
371,096	56,71
371,613	60,71
372,131	59,53
372,648	56,92
373,165	55,33
373,681	55,84
374,198	59,08
374,715	54,36
375,231	54,92
375,747	58,8
376,264	49,44
376,78	57,8
377,296	54,08
377,812	54,57
378,327	55,99
378,843	52,23
379,359	51,43
379,874	55,58
380,389	53,29
380,905	53,35
381,42	51,44
381,935	51,5
382,449	49,27
382,964	48,12
383,479	49,28
383,993	46,72
384,508	44,73
385,022	46,42
385,536	48,86
386,05	44,01
386,564	44,67
387,078	46,32
387,592	44,32
388,105	44,76
388,619	44,21
389,132	42,58
389,645	44,43
390,158	41,21
390,671	42,31
391,184	41,94
391,697	40,06
392,21	40,97
392,722	38,94
393,235	39,25
393,747	40,29
394,259	37,82
394,771	39,29
395,283	38,37
395,795	37,39
396,307	37,26
396,818	36,99
397,33	36,83
397,841	35,49
398,353	35,29
398,864	35,77
399,375	35,69
399,886	33,16
400,397	32
400,907	33,22
401,418	30,53
401,928	31,03
402,439	30,71
402,949	30,47
403,459	29,88
403,969	29,14
404,479	27,72
404,989	26,91
405,498	25,86
406,008	25,93
406,517	27,14
407,027	24,28
407,536	24,7
408,045	23,15
408,554	22,18
409,063	21,37
409,572	20,36
410,08	20,05
410,589	20,53
411,097	20,3
411,606	18,89
412,114	18,75
412,622	17,33
413,13	17,91
413,638	17,48
414,145	16,76
414,653	15,77
415,16	16,31
415,668	15,32
416,175	14,71
416,682	14,36
417,189	14,3
417,696	13,85
418,203	13,86
418,71	13,8
419,216	12,86
419,723	12,82
420,229	13,14
420,735	13,03
421,242	12,83
421,748	12,28
422,254	12,22
422,759	12,27
423,265	11,92
423,771	12,21
424,276	11,71
424,781	11,24
425,287	11,49
425,792	11,42
426,297	11,53
426,802	11,77
427,306	11,2
427,811	11,52
428,316	11,11
428,82	11,16
429,324	11,35
429,829	10,55
430,333	10,55
430,837	11,09
431,34	10,63
431,844	10,72
432,348	10,88
432,851	10,76
433,355	10,55
433,858	10,2
434,361	10,07
434,864	10,28
435,367	10,38
435,87	10,12
436,373	10,39
436,876	10,23
437,378	10,26
437,88	10,2
438,383	9,97
438,885	10,1
439,387	10,3
439,889	10,14
440,391	10,02
440,892	10,39
441,394	10,08
441,896	10,19
442,397	10,12
442,898	10,09
443,399	10,17
443,9	10,45
444,401	10,12
444,902	9,68
445,403	10,11
445,903	10,07
446,404	10
446,904	10,33
447,405	9,74
447,905	9,97
448,405	10,74
448,905	10,51
449,404	10,17
449,904	10,21
450,404	10,54
450,903	10,56
451,403	10,47
451,902	10,48
452,401	10,53
452,9	10,28
453,399	10,54
453,898	10,77
454,396	10,59
454,895	10,57
455,393	10,5
455,892	10,7
456,39	10,7
456,888	10,95
457,386	10,88
457,884	10,97
458,382	10,78
458,879	10,74
459,377	10,84
459,874	10,82
460,372	11,07
460,869	10,75
461,366	10,86
461,863	10,76
462,36	10,74
462,857	10,51
463,353	10,77
463,85	10,62
464,346	10,83
464,843	10,82
465,339	10,81
465,835	10,79
466,331	10,76
466,827	10,85
467,323	10,6
467,818	11,01
468,314	10,67
468,809	10,77
469,305	10,59
469,8	10,69
470,295	10,69
470,79	10,75
471,285	11
471,78	10,71
472,274	10,85
472,769	10,67
473,263	10,67
473,758	10,82
474,252	10,42
474,746	10,88
475,24	10,66
475,734	10,67
476,228	10,77
476,721	10,83
477,215	10,91
477,708	10,8
478,202	10,93
478,695	11,04
479,188	11,07
479,681	10,89
480,174	10,98
480,667	10,91
481,159	11,11
481,652	10,99
482,144	10,84
482,637	11,1
483,129	10,94
483,621	10,93
484,113	10,72
484,605	11
485,097	11
485,588	11,05
486,08	11,06
486,571	11,27
487,063	11,06
487,554	11,1
488,045	11,16
488,536	11,35
489,027	11,46
489,518	11,43
490,008	11,22
490,499	11,48
490,989	11,46
491,48	11,86
491,97	11,82
492,46	11,52
492,95	12,01
493,44	11,95
493,93	11,9
494,419	11,92
494,909	12,29
495,398	12,29
495,888	12,37
496,377	12,48
496,866	12,45
497,355	12,84
497,844	12,78
498,333	12,82
498,821	13,2
499,31	12,99
499,798	13,04
500,287	13,41
500,775	13,38
501,263	13,67
501,751	13,94
502,239	14,01
502,727	14,34
503,215	14,56
503,702	14,44
504,19	14,83
504,677	14,93
505,164	15,23
505,651	15,53
506,139	15,66
506,625	15,71
507,112	16,18
507,599	16,26
508,086	16,7
508,572	16,85
509,058	17,11
509,545	17,42
510,031	17,77
510,517	17,89
511,003	18,43
511,489	18,48
511,974	19,07
512,46	19,11
512,946	19,66
513,431	19,8
513,916	19,9
514,401	20,5
514,887	20,94
515,371	21,17
515,856	21,48
516,341	21,92
516,826	22,52
517,31	22,65
517,795	23,44
518,279	23,59
518,763	23,81
519,247	24,25
519,731	24,8
520,215	25,15
520,699	25,34
521,182	25,57
521,666	26,4
522,149	26,51
522,633	27,23
523,116	27,27
523,599	27,96
524,082	28,33
524,565	28,7
525,048	28,77
525,53	29,22
526,013	29,41
526,495	30,02
526,978	30,27
527,46	30,65
527,942	30,6
528,424	30,9
528,906	31,01
529,388	31,38
529,87	31,98
530,351	32,19
530,833	32,07
531,314	32,79
531,795	32,54
532,277	32,72
532,758	33,23
533,238	32,97
533,719	33,21
534,2	33,3
534,681	33,52
535,161	34,04
535,642	33,96
536,122	33,97
536,602	33,74
537,082	34,18
537,562	33,88
538,042	34,36
538,522	34,02
539,001	34,47
539,481	34,37
539,96	34,58
540,44	34,78
540,919	34,63
541,398	34,78
541,877	35,05
542,356	34,88
542,835	34,7
543,313	35,08
543,792	35,1
544,27	34,83
544,749	35,27
545,227	35,42
545,705	35,25
546,183	35,29
546,661	35,25
547,139	35,43
547,616	35,5
548,094	35,48
548,571	35,29
549,049	35,39
549,526	35,53
550,003	35,48
550,48	35,72
550,957	35,77
551,434	35,6
551,911	35,73
552,387	35,66
552,864	35,57
553,34	35,6
553,817	35,91
554,293	35,88
554,769	36,34
555,245	35,81
555,721	35,88
556,197	35,72
556,672	35,94
557,148	35,82
557,623	35,77
558,099	35,9
558,574	35,59
559,049	35,95
559,524	35,55
559,999	35,47
560,474	35,5
560,948	35,2
561,423	35,44
561,897	35,11
562,372	34,99
562,846	34,98
563,32	35,23
563,794	34,69
564,268	34,66
564,742	34,34
565,216	34,49
565,69	34,49
566,163	33,85
566,636	33,98
567,11	33,66
567,583	33,75
568,056	33,44
568,529	33,26
569,002	33,08
569,475	33,1
569,947	32,39
570,42	32,65
570,892	32,14
571,365	32,26
571,837	31,93
572,309	31,75
572,781	31,69
573,253	31,27
573,725	30,87
574,197	30,77
574,668	30,8
575,14	30,4
575,611	30,3
576,082	30
576,554	29,99
577,025	29,62
577,496	29,26
577,967	29,44
578,437	29,25
578,908	28,95
579,379	29,01
579,849	28,72
580,319	28,63
580,79	28,42
581,26	28,43
581,73	28,05
582,2	27,9
582,669	27,81
583,139	27,57
583,609	27,21
584,078	27,52
584,548	27,3
585,017	27,09
585,486	27,17
585,955	26,87
586,424	26,66
586,893	26,56
587,362	26,64
587,83	26,36
588,299	26,17
588,767	26,21
589,236	26,07
589,704	26,01
590,172	26,19
590,64	26,04
591,108	25,72
591,576	25,73
592,043	25,66
592,511	25,64
592,978	25,45
593,446	25,45
593,913	25,28
594,38	25,06
594,847	25,11
595,314	24,96
595,781	25,15
596,248	25,06
596,715	24,95
597,181	24,79
597,647	25,03
598,114	25,09
598,58	25,01
599,046	24,86
599,512	24,83
599,978	24,71
600,444	24,42
600,91	24,63
601,375	24,51
601,841	24,52
602,306	24,39
602,771	24,42
603,236	24,36
603,702	24,4
604,167	24,02
604,631	23,98
605,096	24,03
605,561	24,03
606,025	23,77
606,49	23,68
606,954	23,84
607,418	23,46
607,882	23,49
608,347	23,33
608,81	23,29
609,274	23,09
609,738	22,89
610,202	23,01
610,665	22,89
611,128	22,74
611,592	22,63
612,055	22,5
612,518	22,26
612,981	22,26
613,444	22,16
613,907	21,93
614,369	21,8
614,832	21,94
615,294	21,61
615,757	21,56
616,219	21,37
616,681	21,29
617,143	21,29
617,605	21,13
618,067	21,01
618,529	20,8
618,99	20,75
619,452	20,67
619,913	20,82
620,375	20,31
620,836	20,48
621,297	20,23
621,758	20,36
622,219	20,19
622,68	20,13
623,14	20,11
623,601	20,08
624,061	19,95
624,522	19,98
624,982	19,83
625,442	20,06
625,902	19,8
626,362	19,85
626,822	19,94
627,282	19,73
627,742	19,64
628,201	19,49
628,661	19,58
629,12	19,63
629,579	19,63
630,038	19,63
630,497	19,5
630,956	19,58
631,415	19,51
631,874	19,33
632,332	19,44
632,791	19,32
633,249	19,29
633,708	19,21
634,166	19,18
634,624	19,01
635,082	18,93
635,54	18,82
635,998	18,76
636,455	18,73
636,913	18,51
637,37	18,49
637,828	18,27
638,285	18,23
638,742	18,05
639,199	17,71
639,656	17,68
640,113	17,72
640,57	17,41
641,027	17,25
641,483	17,23
641,94	17,06
642,396	16,87
642,852	16,74
643,309	16,67
643,765	16,38
644,221	16,26
644,676	16,1
645,132	15,97
645,588	15,71
646,043	15,52
646,499	15,4
646,954	15,19
647,409	15,14
647,864	14,92
648,319	14,73
648,774	14,66
649,229	14,52
649,684	14,5
650,139	14,35
650,593	14,32
651,047	14,29
651,502	14,07
651,956	14,12
652,41	14,02
652,864	14,01
653,318	13,76
653,772	13,72
654,225	13,71
654,679	13,77
655,133	13,7
655,586	13,4
656,039	13,35
656,492	13,4
656,946	13,29
657,399	13,16
657,851	13,14
658,304	12,96
658,757	12,85
659,209	12,84
659,662	12,7
660,114	12,66
660,567	12,42
661,019	12,3
661,471	12,25
661,923	12,14
662,375	12,12
662,826	11,9
663,278	11,82
663,73	11,86
664,181	11,69
664,632	11,6
665,084	11,45
665,535	11,52
665,986	11,51
666,437	11,36
666,888	11,36
667,338	11,23
667,789	11,16
668,24	11,26
668,69	11,2
669,14	11,22
669,591	11,22
670,041	11,32
670,491	11,14
670,941	11,16
671,391	11,29
671,84	11,35
672,29	11,28
672,74	11,37
673,189	11,47
673,638	11,47
674,088	11,65
674,537	11,67
674,986	11,73
675,435	11,76
675,883	11,88
676,332	12,07
676,781	12,15
677,229	12,19
677,678	12,33
678,126	12,49
678,574	12,64
679,022	12,82
679,47	12,77
679,918	13,08
680,366	13,11
680,814	13,26
681,261	13,42
681,709	13,56
682,156	13,74
682,604	13,88
683,051	13,95
683,498	14,23
683,945	14,33
684,392	14,56
684,839	14,66
685,286	14,98
685,732	15,18
686,179	15,39
686,625	15,56
687,071	15,89
687,518	16,17
687,964	16,44
688,41	16,72
688,856	16,97
689,301	17,44
689,747	17,81
690,193	18,23
690,638	18,74
691,084	19,16
691,529	19,66
691,974	20,28
692,419	20,67
692,864	21,22
693,309	21,87
693,754	22,5
694,199	23,03
694,643	23,74
695,088	24,43
695,532	25,15
695,977	25,65
696,421	26,34
696,865	26,86
697,309	27,57
697,753	28,31
698,197	28,99
698,64	29,52
699,084	30,2
699,527	30,82
699,971	31,19
700,414	31,95
700,857	32,6
701,3	33,07
701,743	33,66
702,186	34,1
702,629	34,83
703,072	35,11
703,515	35,94
703,957	36,22
704,399	36,85
704,842	37,32
705,284	37,54
705,726	38,05
706,168	38,52
706,61	39,08
707,052	39,35
707,494	39,73
707,935	40,43
708,377	40,85
708,818	40,97
709,26	41,51
709,701	41,9
710,142	42,05
710,583	42,59
711,024	42,9
711,465	43,5
711,905	43,46
712,346	43,82
712,787	44,27
713,227	44,67
713,667	45,11
714,108	45,33
714,548	45,68
714,988	45,82
715,428	46,24
715,868	46,65
716,307	46,61
716,747	46,94
717,186	47,36
717,626	47,6
718,065	48,02
718,504	47,92
718,944	48,51
719,383	48,5
719,822	48,76
720,261	48,93
720,699	49,21
721,138	49,44
721,576	49,8
722,015	50,03
722,453	50,17
722,892	50,49
723,33	50,54
723,768	50,85
724,206	51,07
724,644	51,11
725,081	51,27
725,519	51,33
725,957	51,4
726,394	51,63
726,832	51,78
727,269	52,23
727,706	52,18
728,143	52,28
728,58	52,46
729,017	52,31
729,454	52,84
729,89	52,9
730,327	52,87
730,764	53,08
731,2	53
731,636	53,37
732,072	53,49
732,509	53,34
732,945	53,42
733,38	53,37
733,816	53,34
734,252	53,55
734,688	53,63
735,123	53,62
735,559	53,96
735,994	53,75
736,429	53,77
736,864	54,08
737,299	53,54
737,734	53,99
738,169	53,96
738,604	53,9
739,038	54,21
739,473	54,05
739,907	54,17
740,342	54,12
740,776	53,8
741,21	54,23
741,644	54,15
742,078	54,12
742,512	54,33
742,946	54,25
743,379	54,18
743,813	54,05
744,246	53,96
744,68	54,15
745,113	54,16
745,546	54,04
745,979	54,19
746,412	54,1
746,845	53,86
747,278	54,2
747,711	54,11
748,143	54,06
748,576	53,61
749,008	53,6
749,441	53,75
749,873	53,61
750,305	53,72
750,737	53,76
751,169	53,72
751,601	53,7
752,032	53,51
752,464	53,6
752,896	53,55
753,327	53,51
753,758	53,46
754,19	53,4
754,621	53,5
755,052	53,53
755,483	52,97
755,914	53,34
756,344	53,3
756,775	53,2
757,206	53,48
757,636	53,29
758,066	53,26
758,497	52,98
758,927	53,09
759,357	53,04
759,787	52,76
760,217	53,02
760,647	52,65
761,076	52,97
761,506	52,71
761,935	52,66
762,365	52,7
762,794	52,83
763,223	52,84
763,653	52,67
764,082	52,86
764,51	52,79
764,939	52,55
765,368	52,61
765,797	52,46
766,225	52,48
766,654	52,31
767,082	52,21
767,51	52,55
767,938	52,48
768,367	52,33
768,795	52,3
769,222	52,31
769,65	52,37
770,078	52,34
770,505	52,27
770,933	51,97
771,36	52,11
771,788	51,92
772,215	51,93
772,642	52,05
773,069	52,04
773,496	51,88
773,923	51,84
774,349	51,67
774,776	51,88
775,203	51,8
775,629	51,87
776,055	51,62
776,482	51,98
776,908	51,76
777,334	51,47
777,76	51,79
778,186	51,7
778,611	51,81
779,037	51,78
779,463	51,58
779,888	51,51
780,314	51,47
780,739	51,57
781,164	51,43
781,589	51,56
782,014	51,44
782,439	51,39
782,864	51,45
783,289	51,65
783,713	51,35
784,138	51,36
784,562	51,42
784,987	51,36
785,411	51,27
785,835	51,35
786,259	51,47
786,683	51,49
787,107	51,39
787,531	51,37
787,954	51,26
788,378	51,43
788,802	51,31
789,225	51,16
789,648	51,4
790,071	51,2
790,495	51,19
790,918	51,43
791,34	51,13
791,763	51,16
792,186	51,06
792,609	51,29
793,031	51,19
793,454	50,95
793,876	51,19
794,298	51,4
794,721	51,09
795,143	51,24
795,565	51,09
795,986	51,18
796,408	51,03
796,83	51,13
797,252	51,18
797,673	51,12
798,094	51,1
798,516	51,09
798,937	51,09
799,358	51,17
799,779	50,87
800,2	51,06
800,621	51,3
801,042	51,28
801,462	50,86
801,883	50,99
802,303	50,87
802,724	50,99
803,144	51,25
803,564	50,61
803,984	51,04
804,404	51,06
804,824	51,14
805,244	51,03
805,664	51,13
806,084	50,95
806,503	51,16
806,923	50,84
807,342	50,89
807,761	50,75
808,18	51,01
808,599	50,94
809,018	50,76
809,437	50,9
809,856	50,8
810,275	50,76
810,693	51,01
811,112	50,85
811,53	50,98
811,949	50,96
812,367	50,81
812,785	50,93
813,203	50,96
813,621	50,95
814,039	50,89
814,457	50,57
814,874	51,04
815,292	50,86
815,709	50,64
816,127	50,73
816,544	51,09
816,961	50,86
817,378	51,08
817,795	50,85
818,212	50,88
818,629	50,91
819,046	50,66
819,462	50,84
819,879	50,87
820,295	50,65
820,712	50,59
821,128	50,89
821,544	50,49
821,96	50,7
822,376	50,79
822,792	50,72
823,208	50,62
823,624	50,85
824,039	50,6
824,455	50,83
824,87	50,89
825,286	50,65
825,701	50,78
826,116	50,37
826,531	50,66
826,946	50,81
827,361	50,67
827,776	50,37
828,19	50,47
828,605	50,67
829,02	50,58
829,434	50,44
829,848	50,98
830,263	50,9
830,677	50,7
831,091	50,72
831,505	50,89
831,919	50,54
832,332	50,3
832,746	50,67
833,16	50,19
833,573	50,72
833,987	50,6
