Data from G6__Relative__3__00137.txt Node

Date: Tue Jan 30 18:07:48 CET 2024
User: diatiterra
Spectrometer: HDX00911
Trigger mode: 0
Integration Time (sec): 6,000000E-3
Scans to average: 3
Nonlinearity correction enabled: true
Boxcar width: 0
Storing dark spectrum: false
XAxis mode: Wavelengths
Number of Pixels in Spectrum: 2068
>>>>>Begin Spectral Data<<<<<
194,468	149,8
195,025	120,93
195,581	115,48
196,138	112,18
196,694	107,95
197,251	92,68
197,807	90,77
198,363	87,43
198,919	91,75
199,474	95,47
200,03	86,37
200,586	84,04
201,141	87,64
201,696	79,13
202,251	85,74
202,806	87,78
203,361	90,07
203,916	79,71
204,471	91,34
205,025	80,96
205,58	88,48
206,134	90,3
206,688	88,14
207,242	86,82
207,796	95,52
208,35	82,15
208,904	87,71
209,457	85,19
210,011	93,67
210,564	82,56
211,117	89,14
211,67	89,49
212,223	91,87
212,776	91,81
213,329	90,35
213,881	88,68
214,434	87,44
214,986	95,08
215,538	91,05
216,09	84,78
216,642	89,91
217,194	81,68
217,746	93,51
218,297	83,65
218,849	90,35
219,4	89,64
219,951	87,4
220,502	92,58
221,053	85,5
221,604	93,12
222,155	90,55
222,705	86,28
223,256	89,19
223,806	86,6
224,356	84,1
224,906	87,26
225,456	90,66
226,006	84
226,556	81,82
227,106	94,88
227,655	89,81
228,204	91,4
228,754	90,17
229,303	87,9
229,852	93,92
230,401	90,22
230,949	90,29
231,498	86,57
232,047	88,51
232,595	92,94
233,143	93,86
233,691	87,06
234,239	86,18
234,787	88,13
235,335	90,64
235,883	91,16
236,43	91,72
236,978	81,7
237,525	84,6
238,072	88,28
238,619	91,09
239,166	84,74
239,713	78,49
240,26	91,01
240,806	87,54
241,353	86,34
241,899	87,1
242,445	91,54
242,991	91,78
243,537	90,49
244,083	87,01
244,629	89,69
245,174	89,45
245,72	82,72
246,265	92,12
246,81	92,95
247,355	93,95
247,9	90,36
248,445	92,92
248,99	95,23
249,534	93,98
250,079	93,84
250,623	87,57
251,168	91,11
251,712	85,13
252,256	80,36
252,8	87,72
253,343	95,37
253,887	86,36
254,43	97,71
254,974	97,13
255,517	93,08
256,06	93,44
256,603	91,69
257,146	92,82
257,689	91,31
258,232	92,86
258,774	88,84
259,317	92,07
259,859	89,01
260,401	100,02
260,943	91,11
261,485	85,91
262,027	98,23
262,569	85,13
263,11	85,62
263,652	102,56
264,193	90,05
264,734	86,36
265,275	87,2
265,816	91,86
266,357	89,79
266,898	84,2
267,438	91,49
267,979	96,84
268,519	93,63
269,059	87,53
269,6	85,12
270,14	87,71
270,68	85,42
271,219	91,13
271,759	88,6
272,298	89,84
272,838	89,77
273,377	86,33
273,916	81,93
274,455	85,42
274,994	84,12
275,533	92,45
276,072	86,42
276,61	96,41
277,149	82,16
277,687	91,27
278,225	87,08
278,763	92,15
279,301	89,28
279,839	88,87
280,377	89,16
280,914	81,99
281,452	91,8
281,989	97,21
282,526	81,05
283,064	93,99
283,601	85,1
284,137	93,12
284,674	86,5
285,211	94,81
285,747	91,66
286,284	89,29
286,82	83,33
287,356	94,58
287,892	96,71
288,428	81,94
288,964	88,8
289,5	89,62
290,035	93,07
290,571	89,37
291,106	93,11
291,641	88,93
292,176	87,11
292,711	86,61
293,246	85,75
293,781	85,02
294,315	83,54
294,85	90,58
295,384	92,28
295,918	83,75
296,453	85,56
296,987	91,87
297,52	81,69
298,054	80,48
298,588	99,32
299,121	86,44
299,655	84,13
300,188	88,65
300,721	82,38
301,254	86,66
301,787	82,42
302,32	88,5
302,853	85,22
303,385	91,12
303,918	88,78
304,45	82,29
304,982	89,56
305,514	84,73
306,046	82,95
306,578	84,92
307,11	85
307,641	94,82
308,173	91,29
308,704	92,63
309,236	91,9
309,767	85,75
310,298	81,13
310,829	86,78
311,359	86,93
311,89	88,55
312,421	83,61
312,951	87,23
313,481	90,39
314,012	77,06
314,542	82,72
315,072	86,36
315,601	85,53
316,131	89,93
316,661	86,66
317,19	93,8
317,72	81,7
318,249	83,37
318,778	88,37
319,307	83,19
319,836	83,46
320,365	91,61
320,893	84,18
321,422	80,87
321,95	81,32
322,479	86,9
323,007	79,7
323,535	81,8
324,063	83,27
324,591	88,65
325,118	91,67
325,646	84,69
326,173	85,11
326,701	88,03
327,228	87,12
327,755	95,68
328,282	76,71
328,809	78,51
329,336	83,04
329,862	82,83
330,389	80,43
330,915	84,93
331,441	79,92
331,968	81,87
332,494	77,57
333,02	79,36
333,545	83,8
334,071	86,45
334,597	77,45
335,122	81,85
335,648	76,45
336,173	83,54
336,698	83,15
337,223	83,81
337,748	80,72
338,272	74,41
338,797	79,06
339,322	81,06
339,846	76,59
340,37	82,97
340,894	82,05
341,419	78,7
341,942	74
342,466	74,47
342,99	77,22
343,514	76,48
344,037	70,61
344,56	83,16
345,084	72,17
345,607	80,79
346,13	72,79
346,653	74,41
347,175	70,51
347,698	77,77
348,221	70,58
348,743	71,12
349,265	74,19
349,787	73,77
350,309	67,65
350,831	74,56
351,353	67,39
351,875	69,63
352,397	64,97
352,918	70,44
353,439	72,8
353,961	66,23
354,482	65,32
355,003	65,94
355,524	63,86
356,044	64,65
356,565	67,87
357,086	64,2
357,606	65,07
358,126	64,63
358,646	63,31
359,167	65,43
359,687	63,71
360,206	59,79
360,726	64,63
361,246	62,87
361,765	61,92
362,285	62,26
362,804	61,13
363,323	63,24
363,842	64,09
364,361	63,72
364,88	62,17
365,398	57,19
365,917	62,83
366,435	61,98
366,954	62,57
367,472	55,42
367,99	59,37
368,508	54,69
369,026	55,01
369,544	60,91
370,061	55,5
370,579	55,82
371,096	54,79
371,613	55,5
372,131	55,72
372,648	53,73
373,165	50,58
373,681	55,09
374,198	53,71
374,715	53,2
375,231	55,34
375,747	54,16
376,264	47,05
376,78	51,11
377,296	50,12
377,812	51,38
378,327	50,02
378,843	47,98
379,359	49,51
379,874	50,61
380,389	47,52
380,905	46,05
381,42	43,56
381,935	47,34
382,449	44,15
382,964	41,76
383,479	45,27
383,993	44,21
384,508	41,33
385,022	40,89
385,536	43,08
386,05	42,99
386,564	42,57
387,078	42,23
387,592	39,87
388,105	35,31
388,619	39,45
389,132	35,7
389,645	37,33
390,158	36,33
390,671	36,05
391,184	35,41
391,697	35,42
392,21	34,8
392,722	34,87
393,235	35,55
393,747	34,02
394,259	33,69
394,771	33,28
395,283	34,21
395,795	33,96
396,307	33,71
396,818	31,82
397,33	31,68
397,841	29,59
398,353	30,83
398,864	30,21
399,375	30,29
399,886	28,39
400,397	27,06
400,907	26,06
401,418	26,2
401,928	27,58
402,439	24,95
402,949	25,43
403,459	24,72
403,969	25,16
404,479	24,7
404,989	21,52
405,498	22,88
406,008	22,13
406,517	21,73
407,027	20,46
407,536	19,17
408,045	19,16
408,554	18,83
409,063	17,74
409,572	17,84
410,08	16,85
410,589	15,75
411,097	16,13
411,606	15,56
412,114	14,89
412,622	14,55
413,13	14,45
413,638	14,16
414,145	13,34
414,653	12,64
415,16	12,32
415,668	12,69
416,175	12,11
416,682	11,37
417,189	10,86
417,696	10,99
418,203	11,02
418,71	11,12
419,216	10,78
419,723	10,01
420,229	10,2
420,735	9,68
421,242	10,21
421,748	9,45
422,254	9,56
422,759	9,96
423,265	9,36
423,771	9,22
424,276	9,41
424,781	8,64
425,287	8,97
425,792	9,07
426,297	8,67
426,802	8,67
427,306	9,04
427,811	9,14
428,316	8,43
428,82	8,81
429,324	8,43
429,829	8,42
430,333	8,2
430,837	8,19
431,34	8,11
431,844	8,24
432,348	8,05
432,851	8,09
433,355	7,79
433,858	8,2
434,361	7,99
434,864	7,56
435,367	7,57
435,87	7,66
436,373	7,7
436,876	7,63
437,378	7,75
437,88	7,67
438,383	7,34
438,885	7,64
439,387	7,51
439,889	7,49
440,391	7,36
440,892	7,36
441,394	7,37
441,896	7,42
442,397	7,31
442,898	7,43
443,399	7,35
443,9	7,36
444,401	7,27
444,902	7,16
445,403	7,24
445,903	7,31
446,404	7,22
446,904	7,55
447,405	7,19
447,905	7,19
448,405	7,9
448,905	7,59
449,404	7,59
449,904	7,5
450,404	7,77
450,903	7,69
451,403	7,92
451,902	7,77
452,401	7,68
452,9	7,88
453,399	7,96
453,898	7,92
454,396	8,03
454,895	7,87
455,393	8,07
455,892	7,97
456,39	8,05
456,888	7,64
457,386	7,69
457,884	7,85
458,382	8,17
458,879	8,14
459,377	7,95
459,874	7,69
460,372	8,07
460,869	7,72
461,366	7,81
461,863	7,9
462,36	7,73
462,857	8,26
463,353	7,8
463,85	7,88
464,346	7,78
464,843	7,71
465,339	7,88
465,835	7,78
466,331	7,84
466,827	7,79
467,323	7,73
467,818	7,89
468,314	7,72
468,809	7,53
469,305	7,6
469,8	7,72
470,295	7,83
470,79	7,83
471,285	7,85
471,78	7,94
472,274	7,84
472,769	7,89
473,263	7,86
473,758	7,77
474,252	7,75
474,746	7,78
475,24	7,81
475,734	7,72
476,228	7,71
476,721	7,68
477,215	7,9
477,708	8,01
478,202	7,98
478,695	7,78
479,188	7,88
479,681	7,82
480,174	7,78
480,667	7,79
481,159	7,88
481,652	7,96
482,144	7,8
482,637	8,1
483,129	8,11
483,621	7,84
484,113	8,12
484,605	8,04
485,097	8,06
485,588	8,03
486,08	8,14
486,571	8,23
487,063	8,41
487,554	8,26
488,045	8,33
488,536	8,32
489,027	8,21
489,518	8,37
490,008	8,36
490,499	8,43
490,989	8,55
491,48	8,67
491,97	8,66
492,46	8,74
492,95	8,78
493,44	8,73
493,93	8,97
494,419	8,94
494,909	8,94
495,398	9,25
495,888	9,15
496,377	9,51
496,866	9,43
497,355	9,64
497,844	9,52
498,333	9,84
498,821	10,04
499,31	10,09
499,798	10,17
500,287	10,12
500,775	10,6
501,263	10,71
501,751	10,94
502,239	11,07
502,727	11,37
503,215	11,48
503,702	11,73
504,19	11,84
504,677	12,17
505,164	12,3
505,651	12,39
506,139	12,68
506,625	12,93
507,112	13,25
507,599	13,8
508,086	13,73
508,572	14,15
509,058	14,41
509,545	14,54
510,031	15
510,517	14,92
511,003	15,43
511,489	16,04
511,974	16,15
512,46	16,55
512,946	16,95
513,431	17,24
513,916	17,37
514,401	17,76
514,887	18,54
515,371	19,12
515,856	18,9
516,341	19,63
516,826	19,84
517,31	20,27
517,795	20,6
518,279	21,28
518,763	21,48
519,247	21,91
519,731	22,21
520,215	22,91
520,699	23,47
521,182	23,75
521,666	24,17
522,149	24,47
522,633	25,01
523,116	25,06
523,599	25,92
524,082	26,2
524,565	26,85
525,048	27,09
525,53	27,46
526,013	27,63
526,495	28,06
526,978	28,53
527,46	28,51
527,942	29,14
528,424	29,41
528,906	29,65
529,388	29,93
529,87	30,27
530,351	30,35
530,833	30,88
531,314	30,94
531,795	31,06
532,277	31,17
532,758	31,79
533,238	31,97
533,719	31,76
534,2	31,96
534,681	32,06
535,161	32,58
535,642	32,35
536,122	32,69
536,602	32,79
537,082	32,64
537,562	33,17
538,042	33,21
538,522	32,65
539,001	33,04
539,481	33,6
539,96	33,25
540,44	33,69
540,919	33,12
541,398	33,6
541,877	33,88
542,356	34,06
542,835	34,08
543,313	33,78
543,792	34
544,27	34,07
544,749	34,36
545,227	34,32
545,705	34,08
546,183	34,37
546,661	34,17
547,139	34,8
547,616	34,39
548,094	34,21
548,571	34,41
549,049	34,12
549,526	34,47
550,003	34,55
550,48	34,37
550,957	34,92
551,434	34,5
551,911	34,7
552,387	34,75
552,864	34,52
553,34	34,83
553,817	34,95
554,293	34,82
554,769	34,92
555,245	34,47
555,721	34,87
556,197	34,49
556,672	34,97
557,148	34,72
557,623	34,68
558,099	34,66
558,574	34,64
559,049	34,71
559,524	34,35
559,999	34,55
560,474	34,25
560,948	33,88
561,423	33,94
561,897	33,75
562,372	33,67
562,846	33,7
563,32	33,48
563,794	33,22
564,268	33,04
564,742	33,33
565,216	32,95
565,69	32,81
566,163	32,44
566,636	32,1
567,11	32,29
567,583	31,79
568,056	31,88
568,529	31,56
569,002	31,01
569,475	31,14
569,947	30,79
570,42	30,8
570,892	30,39
571,365	30,22
571,837	29,97
572,309	29,96
572,781	29,68
573,253	29,43
573,725	28,91
574,197	28,71
574,668	28,57
575,14	28,53
575,611	28,1
576,082	27,73
576,554	27,85
577,025	27,62
577,496	27,29
577,967	27,38
578,437	27
578,908	27,08
579,379	26,7
579,849	26,56
580,319	26,15
580,79	26,01
581,26	25,92
581,73	25,75
582,2	25,81
582,669	25,45
583,139	25,42
583,609	25,34
584,078	25,17
584,548	25
585,017	24,93
585,486	24,7
585,955	24,47
586,424	24,43
586,893	24,47
587,362	24,21
587,83	23,96
588,299	24,08
588,767	23,91
589,236	23,58
589,704	23,64
590,172	23,7
590,64	23,46
591,108	23,4
591,576	23,31
592,043	23,12
592,511	23,15
592,978	23,05
593,446	22,92
593,913	23,04
594,38	22,7
594,847	22,58
595,314	22,66
595,781	22,49
596,248	22,49
596,715	22,6
597,181	22,57
597,647	22,38
598,114	22,47
598,58	22,48
599,046	22,08
599,512	22,08
599,978	22,05
600,444	22,01
600,91	21,88
601,375	21,96
601,841	21,95
602,306	21,82
602,771	21,79
603,236	21,89
603,702	21,63
604,167	21,71
604,631	21,38
605,096	21,42
605,561	21,27
606,025	21,3
606,49	20,94
606,954	21,12
607,418	21
607,882	20,93
608,347	20,74
608,81	20,79
609,274	20,57
609,738	20,49
610,202	20,38
610,665	20,11
611,128	20,06
611,592	19,74
612,055	19,82
612,518	19,65
612,981	19,61
613,444	19,38
613,907	19,33
614,369	19,17
614,832	19,21
615,294	18,84
615,757	18,85
616,219	18,74
616,681	18,76
617,143	18,49
617,605	18,38
618,067	18,42
618,529	17,98
618,99	18,01
619,452	17,92
619,913	18,02
620,375	17,75
620,836	17,71
621,297	17,81
621,758	17,56
622,219	17,51
622,68	17,56
623,14	17,44
623,601	17,39
624,061	17,24
624,522	17,37
624,982	17,27
625,442	17,2
625,902	17,18
626,362	17,18
626,822	17,2
627,282	17,06
627,742	17,02
628,201	17,03
628,661	17,19
629,12	16,91
629,579	17,01
630,038	17,01
630,497	16,82
630,956	16,85
631,415	16,75
631,874	16,88
632,332	16,72
632,791	16,76
633,249	16,68
633,708	16,46
634,166	16,56
634,624	16,27
635,082	16,27
635,54	16,08
635,998	16,08
636,455	15,96
636,913	15,96
637,37	15,85
637,828	15,65
638,285	15,55
638,742	15,26
639,199	15,14
639,656	15,06
640,113	14,8
640,57	14,7
641,027	14,42
641,483	14,43
641,94	14,23
642,396	13,92
642,852	13,7
643,309	13,64
643,765	13,57
644,221	13,26
644,676	13,35
645,132	13,05
645,588	12,89
646,043	12,61
646,499	12,51
646,954	12,29
647,409	12,2
647,864	11,97
648,319	11,87
648,774	11,71
649,229	11,59
649,684	11,52
650,139	11,39
650,593	11,54
651,047	11,34
651,502	11,24
651,956	11,09
652,41	11,13
652,864	11,03
653,318	10,87
653,772	10,88
654,225	10,84
654,679	10,77
655,133	10,76
655,586	10,52
656,039	10,48
656,492	10,37
656,946	10,29
657,399	10,28
657,851	10,22
658,304	10,04
658,757	10,05
659,209	9,73
659,662	9,75
660,114	9,64
660,567	9,61
661,019	9,53
661,471	9,42
661,923	9,17
662,375	9,11
662,826	9,03
663,278	9,01
663,73	8,82
664,181	8,71
664,632	8,56
665,084	8,49
665,535	8,43
665,986	8,38
666,437	8,35
666,888	8,29
667,338	8,18
667,789	8,3
668,24	8,21
668,69	8,14
669,14	8,23
669,591	8,23
670,041	8,23
670,491	8,08
670,941	8,26
671,391	8,18
671,84	8,26
672,29	8,26
672,74	8,35
673,189	8,45
673,638	8,47
674,088	8,62
674,537	8,58
674,986	8,73
675,435	8,74
675,883	8,87
676,332	8,86
676,781	9,09
677,229	9,21
677,678	9,28
678,126	9,44
678,574	9,48
679,022	9,64
679,47	9,79
679,918	9,85
680,366	9,99
680,814	10,19
681,261	10,29
681,709	10,5
682,156	10,69
682,604	10,76
683,051	10,92
683,498	11,1
683,945	11,33
684,392	11,52
684,839	11,77
685,286	11,96
685,732	12,18
686,179	12,34
686,625	12,63
687,071	12,82
687,518	13,26
687,964	13,4
688,41	13,91
688,856	14,24
689,301	14,69
689,747	15,14
690,193	15,64
690,638	16,12
691,084	16,65
691,529	17,23
691,974	17,85
692,419	18,38
692,864	19,15
693,309	19,85
693,754	20,56
694,199	21,2
694,643	21,89
695,088	22,69
695,532	23,42
695,977	24,09
696,421	24,91
696,865	25,53
697,309	26,39
697,753	27,11
698,197	27,99
698,64	28,76
699,084	29,45
699,527	30,1
699,971	30,82
700,414	31,79
700,857	32,5
701,3	33,09
701,743	33,68
702,186	34,4
702,629	35,22
703,072	35,71
703,515	36,52
703,957	37,11
704,399	37,75
704,842	38,23
705,284	38,96
705,726	39,77
706,168	40,25
706,61	40,87
707,052	41,25
707,494	41,7
707,935	42,62
708,377	42,96
708,818	43,52
709,26	44,1
709,701	44,47
710,142	44,86
710,583	45,55
711,024	45,88
711,465	46,54
711,905	46,8
712,346	47,47
712,787	47,83
713,227	48,53
713,667	49,08
714,108	49,22
714,548	49,77
714,988	49,93
715,428	50,66
715,868	51,11
716,307	51,11
716,747	51,77
717,186	52,13
717,626	52,53
718,065	53,3
718,504	53,06
718,944	53,91
719,383	54,18
719,822	54,27
720,261	54,91
720,699	55,11
721,138	55,36
721,576	55,55
722,015	56,08
722,453	56,27
722,892	56,74
723,33	57,1
723,768	57,27
724,206	57,7
724,644	57,72
725,081	58,02
725,519	58,08
725,957	58,37
726,394	58,57
726,832	59
727,269	59,35
727,706	59,19
728,143	59,87
728,58	59,69
729,017	59,84
729,454	60,38
729,89	60,27
730,327	60,44
730,764	60,66
731,2	60,98
731,636	61,18
732,072	61,16
732,509	61,32
732,945	61,47
733,38	61,74
733,816	61,73
734,252	61,55
734,688	61,73
735,123	61,97
735,559	62,35
735,994	62,13
736,429	62,36
736,864	62,55
737,299	62,09
737,734	62,42
738,169	62,54
738,604	62,79
739,038	63
739,473	62,59
739,907	62,86
740,342	62,79
740,776	62,65
741,21	63,09
741,644	63,13
742,078	63,43
742,512	63,1
742,946	63,35
743,379	63,03
743,813	63,03
744,246	62,92
744,68	63,29
745,113	63,3
745,546	63,06
745,979	63,16
746,412	63,09
746,845	63,12
747,278	63,36
747,711	63,25
748,143	62,96
748,576	63,18
749,008	63,15
749,441	63,06
749,873	63,12
750,305	63,13
750,737	63,05
751,169	63,09
751,601	63,03
752,032	63,02
752,464	62,99
752,896	62,95
753,327	62,98
753,758	62,78
754,19	62,78
754,621	62,99
755,052	63,12
755,483	62,48
755,914	62,64
756,344	62,89
756,775	62,73
757,206	63,01
757,636	62,59
758,066	62,61
758,497	62,71
758,927	62,2
759,357	62,39
759,787	62,87
760,217	62,57
760,647	62,33
761,076	62,64
761,506	62,27
761,935	62,45
762,365	62,31
762,794	62,28
763,223	62,18
763,653	62,35
764,082	62,41
764,51	62,19
764,939	62,2
765,368	62,17
765,797	62,4
766,225	62,32
766,654	61,99
767,082	61,97
767,51	62
767,938	61,98
768,367	61,85
768,795	62,18
769,222	61,84
769,65	62,08
770,078	61,95
770,505	61,87
770,933	61,94
771,36	61,88
771,788	61,68
772,215	61,99
772,642	61,84
773,069	61,66
773,496	61,81
773,923	61,71
774,349	61,51
774,776	61,69
775,203	61,67
775,629	61,63
776,055	61,75
776,482	61,57
776,908	61,72
777,334	61,4
777,76	61,27
778,186	61,49
778,611	61,68
779,037	61,33
779,463	61,37
779,888	61,48
780,314	61,53
780,739	61,7
781,164	61,46
781,589	61,48
782,014	61,14
782,439	61,36
782,864	61,37
783,289	61,41
783,713	61,31
784,138	61,09
784,562	61,4
784,987	61,23
785,411	61,33
785,835	61,28
786,259	61,31
786,683	61,44
787,107	61,27
787,531	61,26
787,954	61,08
788,378	61,47
788,802	61,39
789,225	61,14
789,648	61,36
790,071	61,32
790,495	61,07
790,918	61,27
791,34	61,31
791,763	61,36
792,186	61,13
792,609	61,43
793,031	61,22
793,454	61,35
793,876	61,16
794,298	61
794,721	60,93
795,143	61,44
795,565	61,17
795,986	61,16
796,408	61,09
796,83	61,06
797,252	61,28
797,673	61,21
798,094	60,84
798,516	61,04
798,937	61,14
799,358	61,1
799,779	61,01
800,2	61,14
800,621	61,1
801,042	61,08
801,462	60,95
801,883	61,14
802,303	60,91
802,724	60,98
803,144	60,98
803,564	60,9
803,984	61,09
804,404	61,1
804,824	61,17
805,244	60,98
805,664	61,14
806,084	60,87
806,503	61,4
806,923	61,02
807,342	61,17
807,761	61,24
808,18	61,32
808,599	60,83
809,018	61
809,437	61,06
809,856	60,68
810,275	61,06
810,693	60,9
811,112	60,97
811,53	61,02
811,949	61,16
812,367	60,62
812,785	60,97
813,203	60,77
813,621	60,97
814,039	60,99
814,457	60,66
814,874	61,29
815,292	61,04
815,709	60,86
816,127	60,99
816,544	61,05
816,961	61,04
817,378	60,94
817,795	60,77
818,212	60,92
818,629	60,79
819,046	60,94
819,462	61
819,879	60,83
820,295	60,72
820,712	60,68
821,128	60,74
821,544	60,92
821,96	60,82
822,376	60,93
822,792	60,88
823,208	60,66
823,624	60,96
824,039	60,78
824,455	60,83
824,87	60,94
825,286	60,82
825,701	60,91
826,116	60,69
826,531	60,64
826,946	60,78
827,361	60,72
827,776	60,61
828,19	60,71
828,605	60,78
829,02	61
829,434	60,52
829,848	61,2
830,263	60,95
830,677	60,68
831,091	61,04
831,505	60,95
831,919	60,51
832,332	60,52
832,746	60,63
833,16	60,78
833,573	60,58
833,987	60,54
834,4	60,62
834,813	60,41
835,226	60,53
835,639	60,51
836,052	60,46
836,465	60,8
836,878	61,02
837,29	61,01
837,703	60,51
838,116	60,66
838,528	60,47
838,94	60,5
839,352	60,7
