Data from G6__Relative__4__00138.txt Node

Date: Tue Jan 30 18:07:52 CET 2024
User: diatiterra
Spectrometer: HDX00911
Trigger mode: 0
Integration Time (sec): 6,000000E-3
Scans to average: 3
Nonlinearity correction enabled: true
Boxcar width: 0
Storing dark spectrum: false
XAxis mode: Wavelengths
Number of Pixels in Spectrum: 2068
>>>>>Begin Spectral Data<<<<<
194,468	153,81
195,025	116,09
195,581	125,1
196,138	114
196,694	113,36
197,251	91,97
197,807	89,93
198,363	89,31
198,919	96,1
199,474	95,02
200,03	86,58
200,586	85,25
201,141	86,83
201,696	78,75
202,251	85,33
202,806	89
203,361	86,68
203,916	85,73
204,471	96,91
205,025	89,67
205,58	90,1
206,134	89,67
206,688	80,91
207,242	85,44
207,796	89,63
208,35	90,57
208,904	89,1
209,457	83,29
210,011	93,04
210,564	83,35
211,117	96,31
211,67	97,82
212,223	92,68
212,776	87,81
213,329	90,99
213,881	88,68
214,434	88,63
214,986	93,79
215,538	86,99
216,09	90,66
216,642	88,88
217,194	88,26
217,746	87,24
218,297	84,05
218,849	96,57
219,4	94,3
219,951	87,81
220,502	88,87
221,053	86,94
221,604	83,71
222,155	90,96
222,705	90,02
223,256	85,12
223,806	87,2
224,356	89,12
224,906	89,17
225,456	83,71
226,006	82,64
226,556	81,82
227,106	95,73
227,655	89,18
228,204	85,11
228,754	93,3
229,303	93,95
229,852	91,96
230,401	88,55
230,949	94,83
231,498	82,36
232,047	89,13
232,595	89,94
233,143	90,68
233,691	87,46
234,239	85,98
234,787	91
235,335	90,64
235,883	87,39
236,43	85,3
236,978	83,13
237,525	91,17
238,072	89,95
238,619	92,83
239,166	82,56
239,713	82,54
240,26	88,87
240,806	88,77
241,353	87,94
241,899	86,52
242,445	88,79
242,991	91,98
243,537	86,89
244,083	86,6
244,629	86,87
245,174	87,97
245,72	84,22
246,265	99,56
246,81	94,49
247,355	85,74
247,9	93,3
248,445	94,98
248,99	91,1
249,534	90,18
250,079	92,08
250,623	83,56
251,168	87,39
251,712	83,22
252,256	80,36
252,8	88,34
253,343	90,95
253,887	85,96
254,43	96,55
254,974	92,04
255,517	85,03
256,06	88
256,603	93,61
257,146	85,85
257,689	94,06
258,232	88,53
258,774	85,41
259,317	86,64
259,859	87,95
260,401	96,66
260,943	91,53
261,485	87,23
262,027	88,01
262,569	84,92
263,11	83,16
263,652	91,24
264,193	89,17
264,734	89,13
265,275	81,9
265,816	89,37
266,357	90,83
266,898	87,23
267,438	88,35
267,979	92,08
268,519	92,52
269,059	86,22
269,6	94,01
270,14	96,37
270,68	86,02
271,219	92,73
271,759	87,07
272,298	80,77
272,838	85,84
273,377	86,54
273,916	87,81
274,455	83,54
274,994	95,82
275,533	87,56
276,072	87,29
276,61	93,25
277,149	83,86
277,687	88,65
278,225	85,21
278,763	86,75
279,301	87,13
279,839	83,19
280,377	91,33
280,914	84,11
281,452	98,88
281,989	94,63
282,526	83,91
283,064	90,12
283,601	86,61
284,137	93,12
284,674	95,36
285,211	96,17
285,747	94,23
286,284	98,19
286,82	87,11
287,356	92,7
287,892	88,65
288,428	83,26
288,964	88,18
289,5	92,87
290,035	89,48
290,571	90,22
291,106	93,58
291,641	90,74
292,176	85,24
292,711	87,48
293,246	84,04
293,781	88,38
294,315	87,13
294,85	95,88
295,384	93,92
295,918	84,8
296,453	91,47
296,987	90,8
297,52	84,56
298,054	90,35
298,588	88,99
299,121	90,74
299,655	87,13
300,188	90,4
300,721	89,65
301,254	95,64
301,787	87,71
302,32	92,5
302,853	87,37
303,385	93,12
303,918	94,76
304,45	90,49
304,982	92,97
305,514	85,63
306,046	89,05
306,578	86,65
307,11	86,54
307,641	98,44
308,173	92
308,704	95,87
309,236	89,58
309,767	87,03
310,298	86,12
310,829	91,49
311,359	89,42
311,89	91,7
312,421	84,87
312,951	86,35
313,481	93,6
314,012	82,74
314,542	88,41
315,072	88,71
315,601	86,17
316,131	88,36
316,661	85,35
317,19	93,56
317,72	83,58
318,249	89,98
318,778	90,31
319,307	83,41
319,836	91,29
320,365	92,08
320,893	93,63
321,422	82,18
321,95	84,93
322,479	90,9
323,007	85,89
323,535	84,79
324,063	84,83
324,591	95,47
325,118	95,61
325,646	85,78
326,173	90,53
326,701	91,3
327,228	88,45
327,755	92,54
328,282	83,97
328,809	87,94
329,336	87,8
329,862	85,66
330,389	87,57
330,915	81,83
331,441	87,74
331,968	81,45
332,494	82,62
333,02	84,31
333,545	87,91
334,071	84,23
334,597	86,84
335,122	88,85
335,648	81,87
336,173	87,29
336,698	86,85
337,223	84,63
337,748	84,03
338,272	76,5
338,797	82,08
339,322	92,61
339,846	82,96
340,37	86,56
340,894	87,82
341,419	83,92
341,942	78,69
342,466	77,39
342,99	82,86
343,514	82,81
344,037	83,25
344,56	82,56
345,084	75,14
345,607	90,49
346,13	81,91
346,653	79,6
347,175	78,87
347,698	83,66
348,221	74,09
348,743	80,49
349,265	83,76
349,787	79,65
350,309	82,11
350,831	81,23
351,353	72,18
351,875	77,46
352,397	71
352,918	77,6
353,439	78,85
353,961	77,81
354,482	71,87
355,003	72,02
355,524	72,13
356,044	74,5
356,565	70,31
357,086	76,06
357,606	73,71
358,126	72,88
358,646	74,14
359,167	71,91
359,687	72,27
360,206	69,79
360,726	74,86
361,246	73,94
361,765	72,8
362,285	71,68
362,804	67,59
363,323	68,07
363,842	73,62
364,361	71,96
364,88	68,55
365,398	67,68
365,917	73,46
366,435	67,97
366,954	71,7
367,472	66,38
367,99	69,34
368,508	68,15
369,026	63,45
369,544	70,47
370,061	64,77
370,579	66,54
371,096	66,88
371,613	69,82
372,131	69,59
372,648	63,97
373,165	62,14
373,681	62,6
374,198	67,31
374,715	62,91
375,231	66,06
375,747	63,45
376,264	59,49
376,78	66,13
377,296	60,36
377,812	63,09
378,327	62,52
378,843	60,46
379,359	59,6
379,874	61,75
380,389	56,4
380,905	61,17
381,42	59,07
381,935	54,41
382,449	55,93
382,964	56,32
383,479	55,5
383,993	54,78
384,508	51,54
385,022	52,46
385,536	54,43
386,05	52
386,564	53,74
387,078	51,42
387,592	49,22
388,105	50,51
388,619	52,83
389,132	45,95
389,645	49,13
390,158	48,19
390,671	45,78
391,184	46,43
391,697	45,51
392,21	44,89
392,722	45,96
393,235	44,75
393,747	46,61
394,259	43,6
394,771	45,14
395,283	43,59
395,795	43,43
396,307	44,45
396,818	42,71
397,33	44,31
397,841	40,83
398,353	41,07
398,864	39,66
399,375	38,94
399,886	37,77
400,397	37,1
400,907	36,73
401,418	36,36
401,928	37,11
402,439	36,4
402,949	33,65
403,459	34,24
403,969	33,65
404,479	32,43
404,989	32,14
405,498	31,23
406,008	31,22
406,517	29,39
407,027	28,5
407,536	27,98
408,045	25,58
408,554	26,02
409,063	24,41
409,572	23,51
410,08	24,04
410,589	23,28
411,097	22,05
411,606	21,65
412,114	21,07
412,622	20,47
413,13	20,27
413,638	20,06
414,145	18,16
414,653	17,94
415,16	17,56
415,668	16,93
416,175	17,55
416,682	16,7
417,189	16,87
417,696	15,52
418,203	15,75
418,71	15,73
419,216	15,49
419,723	14,72
420,229	14,86
420,735	14,97
421,242	14,85
421,748	14,17
422,254	14,45
422,759	14,17
423,265	13,71
423,771	13,27
424,276	13,38
424,781	13,01
425,287	13,21
425,792	13
426,297	12,71
426,802	13,05
427,306	13,08
427,811	12,9
428,316	13,29
428,82	12,56
429,324	12,78
429,829	12,6
430,333	12,14
430,837	12,45
431,34	12,81
431,844	12,54
432,348	12,55
432,851	12,03
433,355	11,91
433,858	11,82
434,361	12,01
434,864	11,93
435,367	11,73
435,87	11,87
436,373	11,94
436,876	11,56
437,378	11,85
437,88	11,35
438,383	11,3
438,885	11,46
439,387	11,95
439,889	11,56
440,391	11,73
440,892	11,61
441,394	11,52
441,896	11,59
442,397	11,78
442,898	11,83
443,399	11,31
443,9	11,82
444,401	11,68
444,902	11,27
445,403	11,41
445,903	11,62
446,404	11,64
446,904	11,46
447,405	11,6
447,905	11,51
448,405	11,97
448,905	11,74
449,404	11,79
449,904	11,89
450,404	12,01
450,903	12,06
451,403	11,7
451,902	12,37
452,401	11,73
452,9	12,01
453,399	11,78
453,898	12,36
454,396	12,34
454,895	12,16
455,393	12,03
455,892	12,34
456,39	12,54
456,888	11,96
457,386	12,55
457,884	12,24
458,382	12,36
458,879	12,08
459,377	12,61
459,874	12,41
460,372	12,66
460,869	12,46
461,366	12,68
461,863	12,59
462,36	12,5
462,857	12,4
463,353	12,3
463,85	12,11
464,346	12,56
464,843	12,31
465,339	12,3
465,835	12
466,331	12,32
466,827	12,28
467,323	12,66
467,818	12,41
468,314	12,37
468,809	12,26
469,305	12,24
469,8	12,09
470,295	12,45
470,79	12,35
471,285	12,45
471,78	12,35
472,274	12,35
472,769	12,24
473,263	12,4
473,758	12,5
474,252	12,26
474,746	12,4
475,24	12,45
475,734	12,39
476,228	12,62
476,721	12,63
477,215	12,36
477,708	12,63
478,202	12,48
478,695	12,67
479,188	12,45
479,681	12,42
480,174	12,42
480,667	12,68
481,159	12,64
481,652	12,43
482,144	12,7
482,637	12,74
483,129	12,6
483,621	12,71
484,113	12,64
484,605	12,77
485,097	12,83
485,588	12,68
486,08	12,66
486,571	12,93
487,063	12,69
487,554	12,89
488,045	13,04
488,536	13,12
489,027	13,17
489,518	13,29
490,008	13,14
490,499	13,14
490,989	13,55
491,48	13,55
491,97	13,7
492,46	13,48
492,95	14,02
493,44	13,91
493,93	14,14
494,419	14,08
494,909	14,12
495,398	14,35
495,888	14,57
496,377	14,53
496,866	14,74
497,355	15,05
497,844	14,86
498,333	15,3
498,821	15,39
499,31	15,46
499,798	15,57
500,287	15,83
500,775	16,07
501,263	16,73
501,751	16,69
502,239	16,89
502,727	17,1
503,215	17,54
503,702	17,24
504,19	17,65
504,677	18,15
505,164	18,21
505,651	18,59
506,139	18,88
506,625	19,11
507,112	19,42
507,599	19,73
508,086	20,17
508,572	20,45
509,058	20,63
509,545	21,03
510,031	21,18
510,517	21,78
511,003	21,91
511,489	22,63
511,974	22,84
512,46	23,41
512,946	23,56
513,431	24
513,916	24,34
514,401	24,7
514,887	25,48
515,371	25,9
515,856	26,23
516,341	26,66
516,826	27,08
517,31	27,47
517,795	27,96
518,279	28,66
518,763	28,99
519,247	29,36
519,731	30,23
520,215	30,48
520,699	30,9
521,182	31,08
521,666	31,9
522,149	32,09
522,633	32,65
523,116	32,7
523,599	33,64
524,082	34,12
524,565	34,32
525,048	35,17
525,53	35,53
526,013	35,37
526,495	36,21
526,978	36,35
527,46	36,63
527,942	37,54
528,424	37,31
528,906	37,55
529,388	37,66
529,87	38,66
530,351	38,34
530,833	38,86
531,314	38,57
531,795	39,06
532,277	39,28
532,758	39,92
533,238	39,98
533,719	39,86
534,2	40,3
534,681	40,64
535,161	40,67
535,642	40,83
536,122	40,69
536,602	40,78
537,082	40,92
537,562	41,23
538,042	41,37
538,522	41,22
539,001	41,27
539,481	41,8
539,96	41,36
540,44	41,97
540,919	41,65
541,398	41,46
541,877	41,87
542,356	42,16
542,835	41,8
543,313	42,09
543,792	42,19
544,27	42,38
544,749	42,12
545,227	42,24
545,705	42,3
546,183	42,3
546,661	42,26
547,139	42,47
547,616	42,79
548,094	42,68
548,571	42,53
549,049	42,78
549,526	42,73
550,003	43,04
550,48	43,01
550,957	42,94
551,434	42,9
551,911	42,79
552,387	43,15
552,864	42,78
553,34	42,59
553,817	43,08
554,293	42,97
554,769	43,47
555,245	43,16
555,721	42,9
556,197	42,94
556,672	43,07
557,148	42,82
557,623	42,92
558,099	42,71
558,574	42,81
559,049	42,94
559,524	42,7
559,999	42,52
560,474	42,54
560,948	42,57
561,423	42,32
561,897	42
562,372	41,76
562,846	41,63
563,32	41,99
563,794	41,72
564,268	41,74
564,742	41,76
565,216	41,03
565,69	41,06
566,163	40,85
566,636	40,42
567,11	40,68
567,583	39,98
568,056	40,03
568,529	39,71
569,002	39,46
569,475	39,53
569,947	38,92
570,42	39,04
570,892	38,54
571,365	38,52
571,837	37,99
572,309	37,9
572,781	37,46
573,253	37,45
573,725	36,94
574,197	36,76
574,668	36,78
575,14	36,43
575,611	36,26
576,082	35,94
576,554	36,27
577,025	35,45
577,496	35,19
577,967	35,25
578,437	35,06
578,908	34,75
579,379	34,56
579,849	34,29
580,319	34,42
580,79	34,08
581,26	33,86
581,73	33,6
582,2	33,83
582,669	33,41
583,139	33,5
583,609	33,05
584,078	32,9
584,548	32,92
585,017	32,92
585,486	32,37
585,955	32,35
586,424	32,24
586,893	32,16
587,362	31,63
587,83	31,57
588,299	31,34
588,767	31,26
589,236	31,35
589,704	31,2
590,172	31,11
590,64	30,81
591,108	30,89
591,576	31,04
592,043	30,7
592,511	30,56
592,978	30,63
593,446	30,51
593,913	30,24
594,38	30,18
594,847	30,13
595,314	30,11
595,781	30,07
596,248	30,05
596,715	29,93
597,181	29,78
597,647	29,79
598,114	29,79
598,58	29,61
599,046	29,48
599,512	29,68
599,978	29,47
600,444	29,52
600,91	29,22
601,375	29,29
601,841	29,42
602,306	29,09
602,771	29,19
603,236	29,04
603,702	29,09
604,167	28,76
604,631	28,82
605,096	28,93
605,561	28,7
606,025	28,41
606,49	28,28
606,954	28,32
607,418	28,32
607,882	28,11
608,347	27,89
608,81	28,01
609,274	27,62
609,738	27,65
610,202	27,53
610,665	27,28
611,128	27,13
611,592	26,98
612,055	26,9
612,518	26,9
612,981	26,58
613,444	26,57
613,907	26,34
614,369	26,07
614,832	26,17
615,294	25,93
615,757	25,92
616,219	25,68
616,681	25,57
617,143	25,19
617,605	25,31
618,067	25,07
618,529	25,13
618,99	25
619,452	24,8
619,913	24,87
620,375	24,62
620,836	24,71
621,297	24,53
621,758	24,31
622,219	24,29
622,68	24,12
623,14	24,42
623,601	23,97
624,061	24,08
624,522	23,85
624,982	23,81
625,442	23,95
625,902	23,94
626,362	23,73
626,822	23,74
627,282	23,83
627,742	23,66
628,201	23,72
628,661	23,79
629,12	23,7
629,579	23,38
630,038	23,52
630,497	23,67
630,956	23,46
631,415	23,45
631,874	23,09
632,332	23,29
632,791	23,45
633,249	23,25
633,708	23,08
634,166	23,14
634,624	22,8
635,082	22,88
635,54	22,75
635,998	22,49
636,455	22,59
636,913	22,35
637,37	22,24
637,828	21,85
638,285	21,76
638,742	21,72
639,199	21,23
639,656	21,09
640,113	21,08
640,57	20,78
641,027	20,55
641,483	20,32
641,94	20,16
642,396	19,92
642,852	19,75
643,309	19,52
643,765	19,27
644,221	19,15
644,676	18,93
645,132	18,68
645,588	18,5
646,043	18,23
646,499	18,15
646,954	17,83
647,409	17,77
647,864	17,45
648,319	17,34
648,774	17,24
649,229	17,03
649,684	16,88
650,139	16,68
650,593	16,74
651,047	16,63
651,502	16,53
651,956	16,4
652,41	16,28
652,864	16,34
653,318	16,18
653,772	16,1
654,225	16,08
654,679	15,91
655,133	15,8
655,586	15,7
656,039	15,66
656,492	15,63
656,946	15,4
657,399	15,41
657,851	15,2
658,304	15,18
658,757	14,9
659,209	14,76
659,662	14,62
660,114	14,58
660,567	14,38
661,019	14,33
661,471	14,08
661,923	14,14
662,375	13,89
662,826	13,8
663,278	13,5
663,73	13,51
664,181	13,42
664,632	13,24
665,084	13,06
665,535	12,99
665,986	12,91
666,437	12,87
666,888	12,79
667,338	12,81
667,789	12,66
668,24	12,62
668,69	12,58
669,14	12,63
669,591	12,57
670,041	12,69
670,491	12,51
670,941	12,49
671,391	12,56
671,84	12,61
672,29	12,71
672,74	12,66
673,189	12,74
673,638	12,76
674,088	12,93
674,537	13,02
674,986	13,04
675,435	13,08
675,883	13,24
676,332	13,35
676,781	13,32
677,229	13,4
677,678	13,66
678,126	13,7
678,574	13,96
679,022	14,01
679,47	14,26
679,918	14,32
680,366	14,48
680,814	14,7
681,261	14,9
681,709	15
682,156	15,25
682,604	15,33
683,051	15,51
683,498	15,89
683,945	16,13
684,392	16,25
684,839	16,64
685,286	16,92
685,732	17,08
686,179	17,42
686,625	17,82
687,071	18,04
687,518	18,44
687,964	18,82
688,41	19,46
688,856	19,93
689,301	20,45
689,747	21,07
690,193	21,65
690,638	22,21
691,084	22,89
691,529	23,56
691,974	24,16
692,419	25,02
692,864	25,83
693,309	26,6
693,754	27,4
694,199	28,17
694,643	28,97
695,088	29,92
695,532	30,71
695,977	31,46
696,421	32,3
696,865	32,98
697,309	33,96
697,753	34,73
698,197	35,76
698,64	36,35
699,084	37,13
699,527	37,95
699,971	38,65
700,414	39,27
700,857	40,25
701,3	40,83
701,743	41,51
702,186	42,36
702,629	43,03
703,072	43,44
703,515	44,36
703,957	44,65
704,399	45,5
704,842	45,89
705,284	46,18
705,726	47,02
706,168	47,43
706,61	48,37
707,052	48,75
707,494	49,07
707,935	49,93
708,377	50,25
708,818	50,8
709,26	51,43
709,701	51,52
710,142	51,84
710,583	52,31
711,024	52,96
711,465	53,53
711,905	53,78
712,346	54,03
712,787	54,39
713,227	55,01
713,667	55,46
714,108	55,84
714,548	56,05
714,988	56,3
715,428	56,89
715,868	57,15
716,307	57,18
716,747	57,82
717,186	58,13
717,626	58,17
718,065	58,79
718,504	58,83
718,944	59,48
719,383	59,65
719,822	59,96
720,261	59,97
720,699	60,52
721,138	60,35
721,576	60,97
722,015	61,1
722,453	61,64
722,892	61,93
723,33	62,05
723,768	62,07
724,206	62,4
724,644	62,58
725,081	62,6
725,519	62,91
725,957	62,73
726,394	63,06
726,832	63,27
727,269	63,71
727,706	63,71
728,143	63,81
728,58	64,2
729,017	64,06
729,454	64,4
729,89	64,42
730,327	64,43
730,764	64,74
731,2	64,76
731,636	64,93
732,072	65,19
732,509	65,13
732,945	65,1
733,38	65,42
733,816	65,18
734,252	65,1
734,688	64,98
735,123	65,13
735,559	65,71
735,994	65,62
736,429	65,74
736,864	65,61
737,299	65,37
737,734	65,72
738,169	65,78
738,604	65,84
739,038	65,94
739,473	65,99
739,907	65,78
740,342	65,81
740,776	65,64
741,21	65,82
741,644	65,96
742,078	66,09
742,512	66,01
742,946	66,35
743,379	65,71
743,813	65,94
744,246	65,9
744,68	65,87
745,113	65,86
745,546	65,62
745,979	65,78
746,412	65,9
746,845	65,59
747,278	65,83
747,711	65,87
748,143	65,67
748,576	65,63
749,008	65,59
749,441	65,34
749,873	65,67
750,305	65,7
750,737	65,18
751,169	65,43
751,601	65,37
752,032	65,23
752,464	65,18
752,896	65,39
753,327	65,18
753,758	65,37
754,19	65,32
754,621	65,29
755,052	65,02
755,483	64,88
755,914	65,23
756,344	64,82
756,775	64,85
757,206	64,94
757,636	64,89
758,066	64,64
758,497	64,64
758,927	64,44
759,357	64,56
759,787	64,49
760,217	64,6
760,647	64,47
761,076	64,65
761,506	64,37
761,935	64,27
762,365	64,14
762,794	64,15
763,223	64,19
763,653	64,35
764,082	64,19
764,51	64,16
764,939	63,99
765,368	64,28
765,797	64,11
766,225	63,81
766,654	63,78
767,082	63,61
767,51	63,83
767,938	63,91
768,367	63,74
768,795	63,74
769,222	63,87
769,65	63,82
770,078	63,57
770,505	63,49
770,933	63,3
771,36	63,74
771,788	63,49
772,215	63,79
772,642	63,44
773,069	63,39
773,496	63,18
773,923	63,24
774,349	63,33
774,776	63,21
775,203	63,38
775,629	63,09
776,055	63,27
776,482	63,35
776,908	63,2
777,334	63,16
777,76	63,2
778,186	63
778,611	63,03
779,037	62,92
779,463	62,7
779,888	63,01
780,314	62,7
780,739	63,18
781,164	63,03
781,589	62,87
782,014	62,91
782,439	62,87
782,864	62,86
783,289	63,1
783,713	62,73
784,138	62,65
784,562	62,74
784,987	62,73
785,411	62,85
785,835	62,91
786,259	62,89
786,683	63,01
787,107	62,84
787,531	62,81
787,954	62,43
788,378	62,78
788,802	62,84
789,225	62,63
789,648	62,7
790,071	62,84
790,495	62,46
790,918	62,65
791,34	62,6
791,763	62,6
792,186	62,54
792,609	62,9
793,031	62,71
793,454	62,32
793,876	62,6
794,298	62,69
794,721	62,48
795,143	62,93
795,565	62,27
795,986	62,51
796,408	62,66
796,83	62,51
797,252	62,4
797,673	62,87
798,094	62,3
798,516	62,46
798,937	62,62
799,358	62,47
799,779	62,25
800,2	62,18
800,621	62,53
801,042	62,1
801,462	62,29
801,883	62,34
802,303	62,2
802,724	62,26
803,144	62,44
803,564	62,19
803,984	62,49
804,404	62,34
804,824	62,68
805,244	62,17
805,664	62,3
806,084	62,24
806,503	62,18
806,923	62,31
807,342	62,2
807,761	62,17
808,18	62,2
808,599	62,36
809,018	61,97
809,437	62,26
809,856	62,14
810,275	62,05
810,693	61,98
811,112	62,14
811,53	62,16
811,949	62,51
812,367	61,94
812,785	62,09
813,203	62,21
813,621	62,31
814,039	61,94
814,457	61,75
814,874	62,21
815,292	62,23
815,709	62,04
816,127	62,34
816,544	62,34
816,961	62,08
817,378	62,61
817,795	62,13
818,212	61,89
818,629	62,17
819,046	62,08
819,462	62,07
819,879	62,3
820,295	61,79
820,712	61,68
821,128	62,05
821,544	61,98
821,96	61,93
822,376	62,05
822,792	62,04
823,208	61,88
823,624	62,29
824,039	61,96
824,455	62,18
824,87	62,07
825,286	62,08
825,701	61,95
826,116	61,65
826,531	61,71
826,946	62,05
827,361	61,78
827,776	61,62
828,19	61,69
828,605	61,81
829,02	62,09
829,434	61,69
829,848	62,23
830,263	61,82
830,677	61,87
831,091	61,87
831,505	62,01
831,919	61,63
832,332	61,52
832,746	61,82
833,16	61,81
833,573	61,59
833,987	61,89
