Data from H1__Relative__0__00142.txt Node

Date: Tue Jan 30 18:08:18 CET 2024
User: diatiterra
Spectrometer: HDX00911
Trigger mode: 0
Integration Time (sec): 6,000000E-3
Scans to average: 3
Nonlinearity correction enabled: true
Boxcar width: 0
Storing dark spectrum: false
XAxis mode: Wavelengths
Number of Pixels in Spectrum: 2068
>>>>>Begin Spectral Data<<<<<
194,468	144
195,025	107,38
195,581	116,39
196,138	110,36
196,694	102,84
197,251	86,5
197,807	86,77
198,363	78,62
198,919	84,58
199,474	90,23
200,03	85,96
200,586	82,62
201,141	78,13
201,696	73,35
202,251	82,48
202,806	88,18
203,361	82,88
203,916	79,91
204,471	83,09
205,025	81,57
205,58	88,28
206,134	85,24
206,688	81,31
207,242	80,33
207,796	87,6
208,35	79,95
208,904	83,55
209,457	79,11
210,011	84,39
210,564	82,17
211,117	89,14
211,67	90,14
212,223	89,83
212,776	88,45
213,329	84,77
213,881	84,9
214,434	83,65
214,986	86,08
215,538	88,61
216,09	82,14
216,642	82,71
217,194	77,97
217,746	82,63
218,297	79,07
218,849	91,42
219,4	87,32
219,951	87,19
220,502	87,63
221,053	84,25
221,604	82,73
222,155	87,27
222,705	86,07
223,256	84,1
223,806	88
224,356	89,75
224,906	87,9
225,456	83,52
226,006	81,08
226,556	80,26
227,106	87,18
227,655	81,28
228,204	84,69
228,754	91,42
229,303	84,27
229,852	91,96
230,401	84,17
230,949	89,05
231,498	77,19
232,047	81,34
232,595	91,23
233,143	86,87
233,691	85,87
234,239	83,81
234,787	84,25
235,335	87,52
235,883	87,39
236,43	86,95
236,978	80,69
237,525	87,68
238,072	80,54
238,619	88,48
239,166	79,2
239,713	77,67
240,26	87,15
240,806	83,87
241,353	85,53
241,899	79,09
242,445	88,79
242,991	81,1
243,537	87,53
244,083	83,77
244,629	85,25
245,174	82,28
245,72	81,66
246,265	86,77
246,81	88,97
247,355	87,68
247,9	84,49
248,445	85,59
248,99	86,75
249,534	86,17
250,079	88,33
250,623	83,36
251,168	84,29
251,712	80,25
252,256	73,13
252,8	84,45
253,343	84,63
253,887	80,62
254,43	91,46
254,974	87,18
255,517	91,74
256,06	85,05
256,603	88,07
257,146	91,95
257,689	86,74
258,232	87,45
258,774	87,56
259,317	86,01
259,859	84,35
260,401	90,62
260,943	91,11
261,485	84,58
262,027	89,34
262,569	83,09
263,11	80,7
263,652	88,24
264,193	89,39
264,734	86,36
265,275	89,63
265,816	82,13
266,357	84,58
266,898	82,26
267,438	84,98
267,979	94,12
268,519	87,02
269,059	83,81
269,6	81,79
270,14	88,17
270,68	79,34
271,219	89,31
271,759	85,75
272,298	81,2
272,838	81,92
273,377	85,04
273,916	82,14
274,455	81,46
274,994	90,52
275,533	84
276,072	88,83
276,61	84,24
277,149	75,79
277,687	86,47
278,225	81,25
278,763	80,91
279,301	82,84
279,839	87,05
280,377	87,21
280,914	82,21
281,452	86,31
281,989	94,63
282,526	85,13
283,064	89,69
283,601	80,35
284,137	84,9
284,674	89,88
285,211	88,93
285,747	85,02
286,284	88,14
286,82	82,22
287,356	86,64
287,892	92,68
288,428	82,82
288,964	85,48
289,5	87,67
290,035	90,15
290,571	83,62
291,106	95,49
291,641	83,95
292,176	86,49
292,711	85,53
293,246	88,73
293,781	87,93
294,315	85,86
294,85	90,58
295,384	88,99
295,918	75,31
296,453	81,41
296,987	81,59
297,52	82,35
298,054	88,38
298,588	85,47
299,121	88,7
299,655	83,91
300,188	82,32
300,721	87,23
301,254	89,95
301,787	85,17
302,32	93,67
302,853	78,37
303,385	90,67
303,918	89,02
304,45	79,26
304,982	84,79
305,514	91,92
306,046	78,53
306,578	83,84
307,11	83,23
307,641	89,84
308,173	87,05
308,704	84,55
309,236	90,04
309,767	78,3
310,298	79,39
310,829	86,56
311,359	83,82
311,89	81,36
312,421	84,24
312,951	82,6
313,481	88,78
314,012	83,58
314,542	84,91
315,072	87,86
315,601	83,61
316,131	89,48
316,661	83,38
317,19	83,75
317,72	82,54
318,249	79,11
318,778	80,39
319,307	80,72
319,836	85,02
320,365	83,9
320,893	82,42
321,422	78,91
321,95	82,17
322,479	82,23
323,007	75,85
323,535	79,01
324,063	79,03
324,591	87,28
325,118	81,69
325,646	83,81
326,173	84,66
326,701	83,01
327,228	82,01
327,755	85,05
328,282	76,07
328,809	75,88
329,336	81,01
329,862	81,74
330,389	81,81
330,915	82,05
331,441	85,41
331,968	74,2
332,494	76,36
333,02	78,72
333,545	79,27
334,071	81,34
334,597	76,4
335,122	83,38
335,648	79,16
336,173	81,87
336,698	74,32
337,223	81,14
337,748	73,72
338,272	72,9
338,797	77,25
339,322	85,85
339,846	78,44
340,37	79,16
340,894	80,13
341,419	77,66
341,942	74,2
342,466	72,84
342,99	79,75
343,514	78,11
344,037	70,98
344,56	74,64
345,084	69,2
345,607	80,39
346,13	71,67
346,653	73,3
347,175	71,08
347,698	74,36
348,221	69,47
348,743	72,89
349,265	70,69
349,787	73,23
350,309	69,61
350,831	73,84
351,353	67,89
351,875	64,96
352,397	63,11
352,918	76,92
353,439	70,38
353,961	66,74
354,482	68,12
355,003	64,54
355,524	66,98
356,044	64,82
356,565	66,24
357,086	66,98
357,606	66,67
358,126	64,93
358,646	66,06
359,167	68,23
359,687	61,74
360,206	63,79
360,726	68,93
361,246	65,23
361,765	63,3
362,285	63,28
362,804	58,97
363,323	64,8
363,842	63,95
364,361	63,18
364,88	62,44
365,398	59,39
365,917	61,6
366,435	62,52
366,954	65,26
367,472	59,03
367,99	63,95
368,508	57,9
369,026	59,9
369,544	60,54
370,061	58,16
370,579	57,32
371,096	59,65
371,613	61,89
372,131	63,35
372,648	58,03
373,165	56,42
373,681	57,45
374,198	58,76
374,715	56,05
375,231	54,2
375,747	58,91
376,264	53,08
376,78	55,84
377,296	54,37
377,812	59,02
378,327	54,28
378,843	54,36
379,359	54,37
379,874	54,57
380,389	54,54
380,905	53
381,42	51,95
381,935	52
382,449	50,4
382,964	48,28
383,479	48,58
383,993	47,94
384,508	48,57
385,022	48,36
385,536	50,24
386,05	47,97
386,564	47,13
387,078	46,86
387,592	44,84
388,105	46,36
388,619	45,43
389,132	42,45
389,645	45,92
390,158	40,63
390,671	41,28
391,184	41,66
391,697	40,01
392,21	42,85
392,722	40,93
393,235	40,68
393,747	39,71
394,259	39,3
394,771	39,72
395,283	39,53
395,795	38,72
396,307	39,96
396,818	38,67
397,33	36,58
397,841	34,98
398,353	36,61
398,864	35,63
399,375	35,32
399,886	32,87
400,397	32,64
400,907	33
401,418	30,87
401,928	31,79
402,439	31,23
402,949	31,42
403,459	30,28
403,969	30,3
404,479	28,73
404,989	26,06
405,498	27,12
406,008	26,74
406,517	26,19
407,027	25,31
407,536	23,97
408,045	23,86
408,554	23,3
409,063	21,83
409,572	20,82
410,08	21,07
410,589	20,26
411,097	19,35
411,606	19,22
412,114	18,41
412,622	17,92
413,13	17,39
413,638	17,79
414,145	16,93
414,653	16,36
415,16	16,9
415,668	15,32
416,175	15,46
416,682	14,56
417,189	14,16
417,696	14,37
418,203	13,17
418,71	13,7
419,216	13,57
419,723	13,22
420,229	13,24
420,735	12,66
421,242	12,76
421,748	12,94
422,254	12,54
422,759	12,56
423,265	12,07
423,771	12,03
424,276	12,03
424,781	11,75
425,287	11,43
425,792	11,41
426,297	11,65
426,802	11,51
427,306	11,77
427,811	11,66
428,316	11,35
428,82	11,08
429,324	11,45
429,829	10,68
430,333	10,9
430,837	10,99
431,34	10,83
431,844	11,07
432,348	11,07
432,851	10,76
433,355	10,56
433,858	10,68
434,361	10,8
434,864	10,39
435,367	10,34
435,87	10,29
436,373	10,75
436,876	10,13
437,378	10,51
437,88	10,38
438,383	9,98
438,885	10,11
439,387	10,12
439,889	10,29
440,391	10,11
440,892	10,27
441,394	10,14
441,896	10,37
442,397	10,08
442,898	10,2
443,399	10,07
443,9	10,32
444,401	10,14
444,902	10,15
445,403	9,79
445,903	10,03
446,404	10,13
446,904	9,99
447,405	10,37
447,905	10,24
448,405	10,86
448,905	10,46
449,404	10,4
449,904	10,31
450,404	10,23
450,903	10,33
451,403	10,13
451,902	10,5
452,401	10,37
452,9	10,31
453,399	10,44
453,898	11,06
454,396	10,5
454,895	10,66
455,393	10,27
455,892	10,58
456,39	10,46
456,888	10,39
457,386	10,46
457,884	10,36
458,382	10,62
458,879	10,47
459,377	10,8
459,874	10,56
460,372	10,5
460,869	10,49
461,366	10,73
461,863	10,47
462,36	10,64
462,857	10,6
463,353	10,55
463,85	10,68
464,346	10,65
464,843	10,54
465,339	10,58
465,835	10,26
466,331	10,58
466,827	10,45
467,323	10,54
467,818	10,32
468,314	10,39
468,809	10,34
469,305	10,3
469,8	10,45
470,295	10,45
470,79	10,55
471,285	10,3
471,78	10,71
472,274	10,71
472,769	10,36
473,263	10,39
473,758	10,36
474,252	10,45
474,746	10,27
475,24	10,49
475,734	10,42
476,228	10,34
476,721	10,45
477,215	10,25
477,708	10,88
478,202	10,61
478,695	10,61
479,188	10,64
479,681	10,53
480,174	10,45
480,667	10,8
481,159	10,68
481,652	10,67
482,144	10,59
482,637	10,73
483,129	10,69
483,621	10,75
484,113	10,81
484,605	10,73
485,097	10,83
485,588	10,64
486,08	10,74
486,571	11,03
487,063	10,87
487,554	10,86
488,045	10,86
488,536	11,05
489,027	10,9
489,518	10,85
490,008	11
490,499	11,01
490,989	11,05
491,48	11,14
491,97	11,39
492,46	11,06
492,95	11,43
493,44	11,34
493,93	11,4
494,419	11,46
494,909	11,59
495,398	11,74
495,888	11,58
496,377	11,69
496,866	11,63
497,355	11,88
497,844	12,18
498,333	12,01
498,821	12,33
499,31	12,37
499,798	12,19
500,287	12,55
500,775	12,71
501,263	12,99
501,751	13,19
502,239	13,03
502,727	13,31
503,215	13,46
503,702	13,67
504,19	13,51
504,677	13,9
505,164	13,86
505,651	14,21
506,139	14,31
506,625	14,54
507,112	14,79
507,599	14,94
508,086	15,06
508,572	15,6
509,058	15,95
509,545	15,91
510,031	16,1
510,517	16,55
511,003	16,81
511,489	17,19
511,974	17,49
512,46	17,71
512,946	17,95
513,431	18,29
513,916	18,31
514,401	18,91
514,887	19,34
515,371	19,64
515,856	20,07
516,341	20,37
516,826	20,51
517,31	20,87
517,795	21,33
518,279	21,96
518,763	22,23
519,247	22,75
519,731	22,88
520,215	23,51
520,699	23,63
521,182	24,23
521,666	24,66
522,149	24,71
522,633	25,16
523,116	25,52
523,599	25,88
524,082	26,73
524,565	26,81
525,048	27,05
525,53	27,31
526,013	27,91
526,495	28,28
526,978	28,65
527,46	28,75
527,942	29,17
528,424	29,55
528,906	29,4
529,388	29,81
529,87	30,39
530,351	30,54
530,833	30,69
531,314	30,62
531,795	30,8
532,277	31
532,758	31,53
533,238	31,68
533,719	31,81
534,2	31,62
534,681	32,07
535,161	32,31
535,642	32,42
536,122	32,38
536,602	32,55
537,082	32,51
537,562	32,58
538,042	32,9
538,522	32,35
539,001	32,84
539,481	33,02
539,96	33,15
540,44	32,97
540,919	33,01
541,398	33,11
541,877	33,68
542,356	33,16
542,835	33,4
543,313	33,54
543,792	33,66
544,27	33,64
544,749	33,74
545,227	33,82
545,705	33,65
546,183	33,9
546,661	33,71
547,139	33,7
547,616	33,98
548,094	34,18
548,571	33,93
549,049	34,05
549,526	34,09
550,003	34,18
550,48	34,09
550,957	34,14
551,434	33,97
551,911	34
552,387	34,37
552,864	34,27
553,34	34,32
553,817	34,75
554,293	34,35
554,769	34,92
555,245	34,38
555,721	34,37
556,197	34,29
556,672	34,49
557,148	34,26
557,623	34,35
558,099	34,31
558,574	34,21
559,049	34,1
559,524	33,84
559,999	33,77
560,474	34,18
560,948	33,79
561,423	33,68
561,897	33,54
562,372	33,37
562,846	33,57
563,32	33,4
563,794	33,34
564,268	32,77
564,742	32,95
565,216	32,86
565,69	32,54
566,163	32,47
566,636	32,18
567,11	32,03
567,583	31,66
568,056	31,67
568,529	31,4
569,002	31,19
569,475	31,17
569,947	30,47
570,42	30,68
570,892	30,31
571,365	30,26
571,837	29,77
572,309	29,96
572,781	29,8
573,253	29,24
573,725	29
574,197	28,96
574,668	28,89
575,14	28,26
575,611	28,25
576,082	27,97
576,554	27,95
577,025	27,73
577,496	27,26
577,967	27,74
578,437	27,41
578,908	26,99
579,379	26,87
579,849	26,84
580,319	26,79
580,79	26,29
581,26	26,23
581,73	25,89
582,2	25,99
582,669	25,64
583,139	25,79
583,609	25,4
584,078	25,35
584,548	25,19
585,017	25,26
585,486	25,18
585,955	24,86
586,424	24,76
586,893	24,69
587,362	24,63
587,83	24,44
588,299	24,32
588,767	24,12
589,236	24,14
589,704	24,09
590,172	24,15
590,64	23,73
591,108	23,83
591,576	23,79
592,043	23,84
592,511	23,75
592,978	23,42
593,446	23,59
593,913	23,31
594,38	23,3
594,847	23,37
595,314	23,14
595,781	23,09
596,248	23,09
596,715	22,96
597,181	23,03
597,647	23,05
598,114	23,04
598,58	22,85
599,046	22,84
599,512	22,64
599,978	22,66
600,444	22,53
600,91	22,79
601,375	22,59
601,841	22,61
602,306	22,43
602,771	22,35
603,236	22,31
603,702	22,25
604,167	22,2
604,631	22,01
605,096	21,96
605,561	21,73
606,025	21,74
606,49	21,74
606,954	21,73
607,418	21,45
607,882	21,41
608,347	21,31
608,81	21,37
609,274	21,02
609,738	20,99
610,202	20,99
610,665	20,9
611,128	20,67
611,592	20,62
612,055	20,4
612,518	20,27
612,981	20,14
613,444	20,22
613,907	20,12
614,369	19,86
614,832	19,91
615,294	19,75
615,757	19,55
616,219	19,47
616,681	19,32
617,143	19,16
617,605	19,07
618,067	18,96
618,529	18,87
618,99	18,93
619,452	18,96
619,913	18,89
620,375	18,49
620,836	18,68
621,297	18,43
621,758	18,43
622,219	18,39
622,68	18,17
623,14	18,37
623,601	18,17
624,061	18,25
624,522	17,94
624,982	17,99
625,442	18,12
625,902	17,97
626,362	18,01
626,822	17,92
627,282	17,98
627,742	17,83
628,201	17,75
628,661	17,77
629,12	17,76
629,579	17,6
630,038	17,86
630,497	17,58
630,956	17,67
631,415	17,66
631,874	17,59
632,332	17,53
632,791	17,65
633,249	17,37
633,708	17,36
634,166	17,52
634,624	17,21
635,082	17,27
635,54	17,01
635,998	16,96
636,455	16,75
636,913	16,8
637,37	16,73
637,828	16,46
638,285	16,42
638,742	16,36
639,199	16,16
639,656	16,12
640,113	15,92
640,57	15,76
641,027	15,68
641,483	15,5
641,94	15,17
642,396	15,33
642,852	14,85
643,309	14,83
643,765	14,75
644,221	14,51
644,676	14,45
645,132	14,35
645,588	14,18
646,043	13,82
646,499	13,95
646,954	13,75
647,409	13,65
647,864	13,47
648,319	13,3
648,774	13,3
649,229	13,14
649,684	12,96
650,139	12,92
650,593	12,82
651,047	12,76
651,502	12,67
651,956	12,63
652,41	12,54
652,864	12,46
653,318	12,44
653,772	12,43
654,225	12,47
654,679	12,27
655,133	12,25
655,586	12,27
656,039	12,07
656,492	11,98
656,946	12,01
657,399	11,88
657,851	11,66
658,304	11,67
658,757	11,63
659,209	11,39
659,662	11,47
660,114	11,23
660,567	11,16
661,019	11,16
661,471	11,08
661,923	10,87
662,375	10,8
662,826	10,82
663,278	10,72
663,73	10,69
664,181	10,48
664,632	10,55
665,084	10,56
665,535	10,31
665,986	10,26
666,437	10,28
666,888	10,25
667,338	10,26
667,789	10,17
668,24	10,35
668,69	10,21
669,14	10,18
669,591	10,17
670,041	10,23
670,491	10,17
670,941	10,25
671,391	10,24
671,84	10,26
672,29	10,36
672,74	10,55
673,189	10,32
673,638	10,54
674,088	10,52
674,537	10,57
674,986	10,7
675,435	10,71
675,883	10,82
676,332	10,99
676,781	11,07
677,229	11,08
677,678	11,22
678,126	11,32
678,574	11,42
679,022	11,5
679,47	11,54
679,918	11,61
680,366	11,86
680,814	11,89
681,261	12
681,709	12,16
682,156	12,41
682,604	12,35
683,051	12,57
683,498	12,76
683,945	12,93
684,392	13,02
684,839	13,15
685,286	13,41
685,732	13,54
686,179	13,74
686,625	13,9
687,071	13,99
687,518	14,37
687,964	14,59
688,41	14,88
688,856	15,21
689,301	15,61
689,747	15,79
690,193	16,34
690,638	16,59
691,084	17,05
691,529	17,69
691,974	18,17
692,419	18,78
692,864	19,13
693,309	19,73
693,754	20,48
694,199	21,04
694,643	21,63
695,088	22,43
695,532	23,15
695,977	23,62
696,421	24,22
696,865	24,97
697,309	25,79
697,753	26,28
698,197	27,15
698,64	27,6
699,084	28,25
699,527	29
699,971	29,74
700,414	30,36
700,857	30,94
701,3	31,53
701,743	32,05
702,186	32,79
702,629	33,59
703,072	33,92
703,515	34,58
703,957	35,14
704,399	35,84
704,842	36,38
705,284	36,72
705,726	37,24
706,168	37,8
706,61	38,56
707,052	38,82
707,494	39,37
707,935	39,92
708,377	40,44
708,818	41,05
709,26	41,58
709,701	41,76
710,142	42,03
710,583	42,61
711,024	42,91
711,465	43,66
711,905	43,89
712,346	44,33
712,787	44,59
713,227	45,05
713,667	45,77
714,108	46
714,548	46,15
714,988	46,69
715,428	47,08
715,868	47,4
716,307	47,72
716,747	48,12
717,186	48,66
717,626	48,86
718,065	49,44
718,504	49,31
718,944	50,02
719,383	50,05
719,822	50,36
720,261	50,83
720,699	50,89
721,138	51,26
721,576	51,71
722,015	51,85
722,453	52,1
722,892	52,37
723,33	52,78
723,768	52,97
724,206	53,11
724,644	53,5
725,081	53,63
725,519	53,84
725,957	53,81
726,394	54,05
726,832	54,32
727,269	54,83
727,706	54,61
728,143	54,9
728,58	55,06
729,017	55,19
729,454	55,72
729,89	55,56
730,327	55,58
730,764	55,74
731,2	55,96
731,636	55,93
732,072	56,39
732,509	56,49
732,945	56,55
733,38	56,51
733,816	56,57
734,252	56,74
734,688	56,47
735,123	56,53
735,559	56,98
735,994	56,99
736,429	57,09
736,864	57,14
737,299	56,96
737,734	57,27
738,169	57,16
738,604	57,47
739,038	57,45
739,473	57,27
739,907	57,49
740,342	57,51
740,776	57,17
741,21	57,64
741,644	57,45
742,078	57,73
742,512	57,6
742,946	57,95
743,379	57,77
743,813	57,7
744,246	57,56
744,68	57,6
745,113	57,71
745,546	57,41
745,979	57,49
746,412	57,85
746,845	57,49
747,278	57,63
747,711	57,54
748,143	57,52
748,576	57,58
749,008	57,47
749,441	57,35
749,873	57,41
750,305	57,41
750,737	57,37
751,169	57,47
751,601	57,69
752,032	57,12
752,464	57,4
752,896	57,33
753,327	57,19
753,758	57,12
754,19	57,15
754,621	57,39
755,052	57,2
755,483	57
755,914	56,92
756,344	57,18
756,775	57,11
757,206	57,17
757,636	56,8
758,066	56,96
758,497	56,88
758,927	56,76
759,357	56,9
759,787	56,85
760,217	56,63
760,647	56,7
761,076	56,7
761,506	56,55
761,935	56,52
762,365	56,61
762,794	56,44
763,223	56,64
763,653	56,62
764,082	56,54
764,51	56,63
764,939	56,5
765,368	56,61
765,797	56,84
766,225	56,65
766,654	56,05
767,082	56,33
767,51	56,17
767,938	56,38
768,367	56,21
768,795	56,15
769,222	56,29
769,65	56,22
770,078	56,15
770,505	56,02
770,933	55,98
771,36	55,92
771,788	55,98
772,215	56,07
772,642	55,84
773,069	55,64
773,496	55,84
773,923	55,89
774,349	55,85
774,776	55,92
775,203	56,1
775,629	55,9
776,055	55,79
776,482	55,73
776,908	55,87
777,334	55,73
777,76	55,68
778,186	55,71
778,611	55,77
779,037	55,62
779,463	55,6
779,888	55,51
780,314	55,54
780,739	55,76
781,164	55,62
781,589	55,47
782,014	55,47
782,439	55,49
782,864	55,63
783,289	55,48
783,713	55,53
784,138	55,32
784,562	55,49
784,987	55,56
785,411	55,4
785,835	55,38
786,259	55,51
786,683	55,74
787,107	55,39
787,531	55,56
787,954	55,26
788,378	55,45
788,802	55,54
789,225	55,19
789,648	55,51
790,071	55,32
790,495	55,27
790,918	55,39
791,34	55,38
791,763	55,23
792,186	55,34
792,609	55,82
793,031	55,22
793,454	55,08
793,876	55,2
794,298	55,22
794,721	55,12
795,143	55,48
795,565	55,24
795,986	55,23
796,408	55,14
796,83	55,07
797,252	55,34
797,673	55,33
798,094	55,23
798,516	54,97
798,937	55,15
799,358	55,32
799,779	55,06
800,2	55,23
800,621	55,23
801,042	55,06
801,462	55,13
801,883	55,19
802,303	55,09
802,724	55,1
803,144	55,28
803,564	55,1
803,984	55,14
804,404	55,26
804,824	55,29
805,244	55,08
805,664	55,05
806,084	55,27
806,503	55,24
806,923	55,05
807,342	55,01
807,761	54,83
808,18	55,11
808,599	54,95
809,018	54,78
809,437	54,98
809,856	54,68
810,275	54,77
810,693	54,82
811,112	55,08
811,53	54,95
811,949	55,51
812,367	54,91
812,785	55
813,203	54,97
813,621	55,21
814,039	54,93
814,457	54,78
814,874	54,95
815,292	54,97
815,709	55,06
816,127	54,87
816,544	55,16
816,961	55,04
817,378	55,23
817,795	54,85
818,212	54,93
818,629	54,75
819,046	54,92
819,462	55,05
819,879	54,87
820,295	54,74
820,712	54,64
821,128	54,77
821,544	54,85
821,96	54,92
822,376	54,89
822,792	54,91
823,208	54,68
823,624	54,8
824,039	55,01
824,455	54,86
824,87	55,05
825,286	54,89
825,701	55,05
826,116	54,58
826,531	54,73
826,946	54,72
827,361	54,88
827,776	54,76
828,19	54,71
828,605	54,86
829,02	54,78
829,434	54,65
829,848	54,7
830,263	54,8
830,677	54,81
831,091	54,79
831,505	54,66
831,919	54,77
832,332	54,67
832,746	54,78
833,16	54,82
833,573	54,59
