Data from H1__Relative__1__00143.txt Node

Date: Tue Jan 30 18:08:19 CET 2024
User: diatiterra
Spectrometer: HDX00911
Trigger mode: 0
Integration Time (sec): 6,000000E-3
Scans to average: 3
Nonlinearity correction enabled: true
Boxcar width: 0
Storing dark spectrum: false
XAxis mode: Wavelengths
Number of Pixels in Spectrum: 2068
>>>>>Begin Spectral Data<<<<<
194,468	144,45
195,025	105,45
195,581	118,69
196,138	113,54
196,694	103,74
197,251	91,49
197,807	88,66
198,363	81,14
198,919	85,88
199,474	90,92
200,03	83,23
200,586	85,25
201,141	83,39
201,696	78,38
202,251	78,81
202,806	85,54
203,361	81,82
203,916	80,71
204,471	85,98
205,025	80,35
205,58	81,61
206,134	87,98
206,688	79,91
207,242	85,84
207,796	82,92
208,35	84,36
208,904	79,59
209,457	83,86
210,011	90,93
210,564	80,98
211,117	86,06
211,67	93,22
212,223	87,6
212,776	87,6
213,329	91,64
213,881	82,39
214,434	77,68
214,986	91,22
215,538	87,39
216,09	82,95
216,642	84,56
217,194	81,27
217,746	87,66
218,297	79,87
218,849	87,77
219,4	89,43
219,951	78,51
220,502	88,25
221,053	85,5
221,604	77,44
222,155	84,8
222,705	82,33
223,256	80,03
223,806	77,8
224,356	87,24
224,906	81,74
225,456	80,34
226,006	80,69
226,556	78,5
227,106	89,54
227,655	83,99
228,204	89,1
228,754	90,17
229,303	83,46
229,852	86,96
230,401	91,05
230,949	88,64
231,498	79,1
232,047	79,5
232,595	88,44
233,143	84,33
233,691	81,3
234,239	83,81
234,787	84,04
235,335	82,53
235,883	86,95
236,43	84,68
236,978	81,09
237,525	84,8
238,072	84,3
238,619	87,61
239,166	82,36
239,713	84,37
240,26	81,16
240,806	83,87
241,353	87,54
241,899	86,32
242,445	81,6
242,991	85,41
243,537	87,53
244,083	78,69
244,629	85,25
245,174	83,75
245,72	84,43
246,265	88,86
246,81	91,18
247,355	84,87
247,9	85,75
248,445	87,65
248,99	90,66
249,534	87,73
250,079	89,44
250,623	81,35
251,168	86,15
251,712	79,19
252,256	79,74
252,8	82,41
253,343	93,48
253,887	83,79
254,43	94,7
254,974	88,28
255,517	90,17
256,06	85,73
256,603	88,49
257,146	85,41
257,689	94,98
258,232	93,29
258,774	81,55
259,317	86,01
259,859	82,24
260,401	97,56
260,943	87,93
261,485	91,19
262,027	88,01
262,569	83,5
263,11	80,9
263,652	91,47
264,193	85,41
264,734	88,28
265,275	82,56
265,816	86,89
266,357	81,87
266,898	86,8
267,438	89,92
267,979	97,07
268,519	90,32
269,059	87,75
269,6	83,56
270,14	89,31
270,68	83,6
271,219	88,86
271,759	87,94
272,298	84,23
272,838	83,88
273,377	82,05
273,916	80,67
274,455	87,71
274,994	90,08
275,533	80,23
276,072	89,93
276,61	85,59
277,149	80,04
277,687	82,54
278,225	81,87
278,763	88,77
279,301	85,2
279,839	85,92
280,377	83,73
280,914	85,81
281,452	87,23
281,989	85,94
282,526	82,48
283,064	86,46
283,601	88,99
284,137	87,79
284,674	80,59
285,211	91,19
285,747	84,8
286,284	89,29
286,82	80,89
287,356	83,51
287,892	94,81
288,428	81,72
288,964	83,61
289,5	84,86
290,035	89,93
290,571	83,62
291,106	86,18
291,641	88,25
292,176	77,13
292,711	81,43
293,246	85,53
293,781	83,9
294,315	74,47
294,85	88,97
295,384	89,93
295,918	78,05
296,453	80,97
296,987	82,66
297,52	80,14
298,054	80,92
298,588	88,52
299,121	83,72
299,655	83,27
300,188	76,64
300,721	84,58
301,254	82,94
301,787	83,69
302,32	87,32
302,853	83,72
303,385	84,67
303,918	83,75
304,45	76,02
304,982	85,7
305,514	83,83
306,046	79,79
306,578	78,24
307,11	81,9
307,641	88,93
308,173	86,34
308,704	88,01
309,236	89,58
309,767	79,15
310,298	78,09
310,829	81,63
311,359	82,57
311,89	76,86
312,421	79,41
312,951	83,26
313,481	80,52
314,012	77,06
314,542	79,88
315,072	80,39
315,601	81,48
316,131	83,65
316,661	80,53
317,19	90,21
317,72	74,84
318,249	82,3
318,778	79,75
319,307	77,13
319,836	81,22
320,365	82,03
320,893	79,56
321,422	78,48
321,95	74,1
322,479	82,01
323,007	78,63
323,535	74,94
324,063	77,02
324,591	86,37
325,118	86,56
325,646	79,43
326,173	78,11
326,701	81,71
327,228	83,79
327,755	86,02
328,282	73,5
328,809	75,22
329,336	84,17
329,862	82,83
330,389	81,58
330,915	80,5
331,441	79,28
331,968	81,66
332,494	73,93
333,02	81,94
333,545	79,7
334,071	82,67
334,597	77,03
335,122	80,75
335,648	80,83
336,173	78,33
336,698	78,43
337,223	79,3
337,748	71,77
338,272	71,57
338,797	72,63
339,322	79,75
339,846	76,59
340,37	77,81
340,894	76,71
341,419	76,82
341,942	68,73
342,466	71,2
342,99	76,05
343,514	77,5
344,037	72,1
344,56	81,57
345,084	72,17
345,607	79,38
346,13	74,28
346,653	73,49
347,175	74,5
347,698	73,22
348,221	65,96
348,743	74,83
349,265	70,88
349,787	70,38
350,309	74,97
350,831	73,12
351,353	67,06
351,875	68,63
352,397	60,79
352,918	69,25
353,439	69,86
353,961	71,17
354,482	62,2
355,003	68,28
355,524	62,14
356,044	71,22
356,565	66,89
357,086	67,13
357,606	66,83
358,126	67,69
358,646	67,58
359,167	64,84
359,687	66,51
360,206	67,02
360,726	71,75
361,246	67
361,765	63,58
362,285	62,26
362,804	62,07
363,323	63,95
363,842	68,93
364,361	64,94
364,88	64,47
365,398	64,05
365,917	63,37
366,435	63,85
366,954	65,12
367,472	58,91
367,99	65,83
368,508	60
369,026	60,63
369,544	62,01
370,061	58,86
370,579	58,93
371,096	57,96
371,613	60,71
372,131	59,42
372,648	56,15
373,165	56,31
373,681	59,06
374,198	58,21
374,715	55,31
375,231	59,71
375,747	56,38
376,264	53,94
376,78	60,37
377,296	57,07
377,812	56,21
378,327	54,66
378,843	52,97
379,359	54
379,874	55,77
380,389	53,21
380,905	53,17
381,42	51,87
381,935	51,66
382,449	49,59
382,964	50,75
383,479	52,04
383,993	47,33
384,508	48,72
385,022	45,63
385,536	48,07
386,05	47,16
386,564	46,57
387,078	46,79
387,592	46,08
388,105	42,21
388,619	45,5
389,132	41,25
389,645	43,88
390,158	40,16
390,671	40,66
391,184	40,69
391,697	41,25
392,21	40
392,722	41,46
393,235	39,41
393,747	39,55
394,259	39,25
394,771	39,56
395,283	38,97
395,795	37,8
396,307	38,36
396,818	37,39
397,33	37,99
397,841	34,56
398,353	34,76
398,864	35,87
399,375	34,86
399,886	35,06
400,397	32,64
400,907	31,15
401,418	31,17
401,928	32,25
402,439	31,19
402,949	29,63
403,459	30,39
403,969	29,18
404,479	28,26
404,989	26,65
405,498	27,05
406,008	27,38
406,517	25,3
407,027	25,72
407,536	24,93
408,045	23,42
408,554	22,43
409,063	21,98
409,572	21,13
410,08	20,74
410,589	19,88
411,097	19,65
411,606	18,95
412,114	17,81
412,622	17,57
413,13	17,55
413,638	17,82
414,145	16,78
414,653	16,09
415,16	16,02
415,668	15,76
416,175	14,55
416,682	14,39
417,189	14,22
417,696	14,37
418,203	13,66
418,71	14,08
419,216	13,61
419,723	13,47
420,229	12,52
420,735	12,66
421,242	12,82
421,748	12,45
422,254	11,86
422,759	12,51
423,265	12,22
423,771	11,92
424,276	11,45
424,781	11,64
425,287	11,38
425,792	11,76
426,297	11,08
426,802	11,43
427,306	11,44
427,811	11,4
428,316	11,39
428,82	11,26
429,324	11,04
429,829	10,83
430,333	10,74
430,837	10,62
431,34	10,72
431,844	10,7
432,348	11,05
432,851	10,55
433,355	10,62
433,858	10,65
434,361	10,89
434,864	10,68
435,367	10,45
435,87	10,44
436,373	10,28
436,876	9,86
437,378	10,26
437,88	10,14
438,383	9,93
438,885	10,16
439,387	10,05
439,889	10,1
440,391	10,33
440,892	9,98
441,394	9,9
441,896	10,28
442,397	10,31
442,898	9,77
443,399	9,93
443,9	10,32
444,401	10,29
444,902	9,78
445,403	9,94
445,903	9,99
446,404	9,98
446,904	10,24
447,405	9,9
447,905	9,83
448,405	10,26
448,905	10,24
449,404	10,16
449,904	10,05
450,404	9,93
450,903	10,21
451,403	10,21
451,902	10,08
452,401	10,12
452,9	10,01
453,399	9,92
453,898	10,15
454,396	10,07
454,895	10,3
455,393	10,25
455,892	10,6
456,39	10,39
456,888	10,06
457,386	10,16
457,884	10,29
458,382	10,34
458,879	10,4
459,377	10,13
459,874	10,22
460,372	10,55
460,869	10,11
461,366	10,63
461,863	10,32
462,36	10,18
462,857	10,35
463,353	10,3
463,85	10,43
464,346	10,56
464,843	10,26
465,339	10,27
465,835	10,07
466,331	10,33
466,827	10,05
467,323	10,23
467,818	10,06
468,314	9,97
468,809	10,1
469,305	10,32
469,8	10,07
470,295	10,35
470,79	10,27
471,285	10,44
471,78	10,12
472,274	10,28
472,769	10,22
473,263	10,06
473,758	10,19
474,252	10,15
474,746	10,01
475,24	10,22
475,734	10,19
476,228	10,22
476,721	10,35
477,215	10,36
477,708	10,21
478,202	10,55
478,695	10,28
479,188	10,42
479,681	10,46
480,174	10,26
480,667	10,46
481,159	10,46
481,652	10,3
482,144	10,41
482,637	10,35
483,129	10,27
483,621	10,38
484,113	10,4
484,605	10,1
485,097	10,3
485,588	10,46
486,08	10,42
486,571	10,54
487,063	10,42
487,554	10,78
488,045	10,51
488,536	10,48
489,027	10,43
489,518	10,74
490,008	10,82
490,499	10,62
490,989	10,74
491,48	10,8
491,97	10,75
492,46	10,81
492,95	10,64
493,44	10,74
493,93	11,01
494,419	10,99
494,909	11,18
495,398	11,17
495,888	11,28
496,377	11,33
496,866	11,21
497,355	11,55
497,844	11,34
498,333	11,31
498,821	11,68
499,31	11,79
499,798	11,79
500,287	11,72
500,775	12,11
501,263	12,18
501,751	12,1
502,239	12,45
502,727	12,34
503,215	12,59
503,702	12,91
504,19	12,78
504,677	12,94
505,164	13,02
505,651	13,26
506,139	13,41
506,625	13,75
507,112	13,93
507,599	14,17
508,086	14,23
508,572	14,77
509,058	14,86
509,545	14,76
510,031	15,25
510,517	15,4
511,003	15,43
511,489	15,95
511,974	16,28
512,46	16,72
512,946	16,9
513,431	17
513,916	17,37
514,401	17,46
514,887	18,19
515,371	18,18
515,856	18,28
516,341	19,12
516,826	19,25
517,31	19,6
517,795	19,83
518,279	20,65
518,763	20,56
519,247	21,13
519,731	21,56
520,215	22,12
520,699	22,26
521,182	22,62
521,666	23,2
522,149	23,5
522,633	23,91
523,116	24,04
523,599	24,78
524,082	25,09
524,565	25,25
525,048	25,58
525,53	25,96
526,013	26,06
526,495	26,78
526,978	27,14
527,46	26,96
527,942	27,64
528,424	27,7
528,906	28,04
529,388	28,28
529,87	28,89
530,351	28,81
530,833	29,09
531,314	29
531,795	29,75
532,277	29,91
532,758	29,75
533,238	30,04
533,719	30,25
534,2	30,61
534,681	30,56
535,161	30,92
535,642	30,95
536,122	30,62
536,602	30,81
537,082	31,31
537,562	31,42
538,042	31,56
538,522	31,48
539,001	31,49
539,481	31,75
539,96	31,52
540,44	32,15
540,919	31,55
541,398	31,81
541,877	32,21
542,356	31,64
542,835	31,97
543,313	32,12
543,792	32,09
544,27	32,17
544,749	32,25
545,227	32,47
545,705	32,31
546,183	32,43
546,661	32,36
547,139	32,63
547,616	32,45
548,094	32,39
548,571	32,45
549,049	32,5
549,526	32,84
550,003	32,98
550,48	32,69
550,957	33,1
551,434	32,89
551,911	32,85
552,387	33,06
552,864	33,07
553,34	32,86
553,817	32,94
554,293	32,84
554,769	33,39
555,245	32,98
555,721	32,83
556,197	32,77
556,672	32,89
557,148	32,82
557,623	32,74
558,099	32,68
558,574	32,8
559,049	32,45
559,524	32,39
559,999	32,49
560,474	32,34
560,948	32,07
561,423	32,16
561,897	31,92
562,372	31,99
562,846	31,76
563,32	31,66
563,794	31,71
564,268	31,55
564,742	31,22
565,216	31,37
565,69	30,75
566,163	30,94
566,636	30,61
567,11	30,48
567,583	30,11
568,056	30,35
568,529	29,55
569,002	29,55
569,475	29,48
569,947	28,9
570,42	28,97
570,892	28,52
571,365	28,4
571,837	28,29
572,309	28,09
572,781	27,74
573,253	27,5
573,725	27,32
574,197	27,09
574,668	27,03
575,14	26,93
575,611	26,42
576,082	26,32
576,554	26,12
577,025	26,05
577,496	25,58
577,967	25,77
578,437	25,51
578,908	25,38
579,379	25,06
579,849	24,77
580,319	24,76
580,79	24,66
581,26	24,46
581,73	24,21
582,2	24,23
582,669	24,03
583,139	23,83
583,609	23,66
584,078	23,52
584,548	23,62
585,017	23,38
585,486	23,12
585,955	23,03
586,424	22,98
586,893	23,06
587,362	22,71
587,83	22,48
588,299	22,65
588,767	22,52
589,236	22,42
589,704	22,28
590,172	22,26
590,64	22,09
591,108	22,12
591,576	21,83
592,043	21,91
592,511	21,84
592,978	21,76
593,446	21,69
593,913	21,6
594,38	21,58
594,847	21,44
595,314	21,37
595,781	21,22
596,248	21,42
596,715	21,31
597,181	21,32
597,647	21,21
598,114	21,16
598,58	21,11
599,046	21,09
599,512	21,17
599,978	21,01
600,444	20,76
600,91	20,86
601,375	20,86
601,841	20,72
602,306	20,6
602,771	20,59
603,236	20,65
603,702	20,67
604,167	20,45
604,631	20,34
605,096	20,11
605,561	20,23
606,025	20,11
606,49	20,13
606,954	20,03
607,418	19,81
607,882	19,89
608,347	19,67
608,81	19,45
609,274	19,25
609,738	19,34
610,202	19,34
610,665	19
611,128	18,98
611,592	18,99
612,055	18,9
612,518	18,71
612,981	18,69
613,444	18,27
613,907	18,19
614,369	18,3
614,832	18,19
615,294	18,01
615,757	18,13
616,219	18,05
616,681	17,74
617,143	17,74
617,605	17,59
618,067	17,37
618,529	17,3
618,99	17,39
619,452	17,31
619,913	17,13
620,375	17
620,836	17,13
621,297	17,09
621,758	16,87
622,219	16,7
622,68	16,85
623,14	16,95
623,601	16,76
624,061	16,7
624,522	16,59
624,982	16,42
625,442	16,69
625,902	16,54
626,362	16,52
626,822	16,7
627,282	16,54
627,742	16,46
628,201	16,34
628,661	16,33
629,12	16,33
629,579	16,33
630,038	16,39
630,497	16,26
630,956	16,21
631,415	16,34
631,874	16,15
632,332	16,19
632,791	16,16
633,249	16,03
633,708	15,96
634,166	15,99
634,624	15,86
635,082	15,65
635,54	15,69
635,998	15,74
636,455	15,55
636,913	15,4
637,37	15,31
637,828	15,12
638,285	15,02
638,742	14,94
639,199	14,79
639,656	14,71
640,113	14,55
640,57	14,43
641,027	14,25
641,483	14,23
641,94	14,11
642,396	13,91
642,852	13,88
643,309	13,53
643,765	13,71
644,221	13,48
644,676	13,33
645,132	13,19
645,588	13,04
646,043	12,91
646,499	12,84
646,954	12,73
647,409	12,5
647,864	12,36
648,319	12,41
648,774	12,19
649,229	12,13
649,684	12,07
650,139	12,08
650,593	12,04
651,047	11,98
651,502	11,91
651,956	11,73
652,41	11,64
652,864	11,67
653,318	11,59
653,772	11,54
654,225	11,63
654,679	11,45
655,133	11,42
655,586	11,45
656,039	11,37
656,492	11,43
656,946	11,35
657,399	11,16
657,851	11,19
658,304	11,04
658,757	10,98
659,209	10,83
659,662	10,88
660,114	10,77
660,567	10,79
661,019	10,56
661,471	10,62
661,923	10,57
662,375	10,58
662,826	10,26
663,278	10,29
663,73	10,27
664,181	10,26
664,632	10,21
665,084	10,19
665,535	10,11
665,986	10,22
666,437	10,11
666,888	10,04
667,338	10,11
667,789	10,08
668,24	10,14
668,69	10,02
669,14	10,2
669,591	10,17
670,041	10,25
670,491	10,23
670,941	10,22
671,391	10,26
671,84	10,36
672,29	10,52
672,74	10,42
673,189	10,5
673,638	10,56
674,088	10,61
674,537	10,72
674,986	10,78
675,435	10,75
675,883	10,95
676,332	10,92
676,781	11,11
677,229	11,22
677,678	11,27
678,126	11,42
678,574	11,63
679,022	11,64
679,47	11,76
679,918	11,93
680,366	11,97
680,814	12,05
681,261	12,22
681,709	12,28
682,156	12,47
682,604	12,57
683,051	12,75
683,498	12,79
683,945	12,87
684,392	12,98
684,839	13,25
685,286	13,32
685,732	13,41
686,179	13,65
686,625	13,58
687,071	13,92
687,518	14,06
687,964	14,34
688,41	14,55
688,856	14,8
689,301	15,05
689,747	15,42
690,193	15,65
690,638	16,11
691,084	16,36
691,529	16,91
691,974	17,24
692,419	17,75
692,864	18,28
693,309	18,78
693,754	19,53
694,199	19,96
694,643	20,67
695,088	21,31
695,532	21,91
695,977	22,5
696,421	23,15
696,865	23,84
697,309	24,74
697,753	25,17
698,197	25,94
698,64	26,81
699,084	27,2
699,527	27,97
699,971	28,94
700,414	29,24
700,857	29,96
701,3	30,64
701,743	31,25
702,186	32,11
702,629	32,77
703,072	33,18
703,515	33,84
703,957	34,45
704,399	35,06
704,842	35,65
705,284	36,24
705,726	36,81
706,168	37,47
706,61	38,03
707,052	38,37
707,494	38,84
707,935	39,45
708,377	40,17
708,818	40,48
709,26	41,16
709,701	41,57
710,142	41,81
710,583	42,53
711,024	43,05
711,465	43,66
711,905	43,88
712,346	44,4
712,787	45,04
713,227	45,6
713,667	45,9
714,108	46,37
714,548	46,73
714,988	46,95
715,428	47,42
715,868	47,68
716,307	48,22
716,747	48,68
717,186	49,06
717,626	49,51
718,065	50,13
718,504	50,04
718,944	50,71
719,383	50,94
719,822	51,41
720,261	51,53
720,699	51,88
721,138	52,22
721,576	52,48
722,015	52,84
722,453	53,28
722,892	53,6
723,33	53,99
723,768	54,14
724,206	54,6
724,644	54,64
725,081	54,99
725,519	55,06
725,957	55,45
726,394	55,78
726,832	55,91
727,269	56,29
727,706	56,27
728,143	56,65
728,58	56,78
729,017	56,9
729,454	57,18
729,89	57,41
730,327	57,42
730,764	57,71
731,2	57,74
731,636	58,1
732,072	58,27
732,509	58,14
732,945	58,19
733,38	58,59
733,816	58,29
734,252	58,52
734,688	58,5
735,123	58,76
735,559	59,2
735,994	59,4
736,429	59,02
736,864	59,34
737,299	58,88
737,734	59,18
738,169	59,42
738,604	59,57
739,038	59,5
739,473	59,57
739,907	59,9
740,342	59,79
740,776	59,36
741,21	59,86
741,644	59,95
742,078	59,93
742,512	59,83
742,946	60,22
743,379	59,85
743,813	59,88
744,246	59,67
744,68	59,93
745,113	59,81
745,546	59,73
745,979	59,92
746,412	60,16
746,845	59,76
747,278	59,93
747,711	59,86
748,143	59,89
748,576	59,88
749,008	59,84
749,441	59,66
749,873	59,78
750,305	59,66
750,737	59,57
751,169	59,75
751,601	59,79
752,032	59,86
752,464	59,7
752,896	59,59
753,327	59,46
753,758	59,59
754,19	59,56
754,621	59,59
755,052	59,58
755,483	59,4
755,914	59,35
756,344	59,77
756,775	59,47
757,206	59,54
757,636	59,44
758,066	59,06
758,497	59,41
758,927	59,06
759,357	59,29
759,787	59,32
760,217	59,11
760,647	58,79
761,076	59,24
761,506	59,04
761,935	58,97
762,365	58,81
762,794	58,81
763,223	58,94
763,653	58,98
764,082	58,96
764,51	58,82
764,939	58,89
765,368	58,92
765,797	59,02
766,225	58,83
766,654	58,55
767,082	58,59
767,51	58,76
767,938	58,47
768,367	58,41
768,795	58,45
769,222	58,44
769,65	58,41
770,078	58,77
770,505	58,25
770,933	58,33
771,36	58,47
771,788	58,5
772,215	58,54
772,642	58,08
773,069	58,33
773,496	58,4
773,923	58,14
774,349	58,22
774,776	58,2
775,203	58,22
775,629	58,21
776,055	58,25
776,482	57,91
776,908	58,25
777,334	57,92
777,76	58,13
778,186	57,95
778,611	58,13
779,037	58,19
779,463	57,76
779,888	58,04
780,314	57,75
780,739	58,12
781,164	57,86
781,589	57,65
782,014	57,91
782,439	57,82
782,864	57,97
783,289	57,83
783,713	57,69
784,138	57,65
784,562	57,62
784,987	57,6
785,411	57,77
785,835	57,71
786,259	57,71
786,683	57,99
787,107	57,66
787,531	57,66
787,954	57,51
788,378	57,75
788,802	57,8
789,225	57,67
789,648	57,51
790,071	58
790,495	57,43
790,918	57,78
791,34	57,63
791,763	57,6
792,186	57,6
792,609	57,76
793,031	57,57
793,454	57,45
793,876	57,68
794,298	57,66
794,721	57,56
795,143	57,81
795,565	57,48
795,986	57,73
796,408	57,33
796,83	57,4
797,252	57,4
797,673	57,78
798,094	57,35
798,516	57,46
798,937	57,57
799,358	57,52
799,779	57,3
800,2	57,51
800,621	57,47
801,042	57,32
801,462	57,3
801,883	57,47
802,303	57,35
802,724	57,33
803,144	57,6
803,564	57,18
803,984	57,35
804,404	57,33
804,824	57,62
805,244	57,46
805,664	57,6
806,084	57,26
806,503	57,42
806,923	57,4
807,342	57,29
807,761	57,15
808,18	57,26
808,599	57,2
809,018	57,24
809,437	57,5
809,856	57,09
810,275	57,16
810,693	57,33
811,112	57,29
811,53	57,24
811,949	57,43
812,367	56,95
812,785	57,4
813,203	57,39
813,621	57,26
814,039	57,44
814,457	57,04
814,874	57,16
815,292	57,49
815,709	57,12
816,127	57,07
816,544	57,47
816,961	57,33
817,378	57,39
817,795	57,07
818,212	57,11
818,629	56,99
819,046	57,3
819,462	57,06
819,879	57,25
820,295	56,79
820,712	56,68
821,128	57,11
821,544	57,03
821,96	57,1
822,376	57,17
822,792	57,02
823,208	57,12
823,624	57,15
824,039	57,21
824,455	57,11
824,87	57,28
825,286	56,88
825,701	57,3
826,116	56,78
826,531	56,99
826,946	56,91
827,361	56,77
827,776	56,81
828,19	56,9
828,605	56,93
829,02	57,18
829,434	56,72
829,848	57,11
830,263	57,06
830,677	56,85
831,091	57,23
831,505	56,92
831,919	56,98
832,332	56,91
832,746	56,96
833,16	56,87
833,573	56,76
