Data from I4__Relative__5__00167.txt Node

Date: Tue Jan 30 18:10:51 CET 2024
User: diatiterra
Spectrometer: HDX00911
Trigger mode: 0
Integration Time (sec): 6,000000E-3
Scans to average: 3
Nonlinearity correction enabled: true
Boxcar width: 0
Storing dark spectrum: false
XAxis mode: Wavelengths
Number of Pixels in Spectrum: 2068
>>>>>Begin Spectral Data<<<<<
194,468	146,23
195,025	104,97
195,581	110,9
196,138	110,36
196,694	103,44
197,251	80,8
197,807	76,06
198,363	73,17
198,919	87,62
199,474	85,9
200,03	80,08
200,586	78,58
201,141	75,5
201,696	69,63
202,251	75,35
202,806	75,96
203,361	75,69
203,916	74,89
204,471	73,19
205,025	75,09
205,58	78,99
206,134	81,65
206,688	70,67
207,242	70,71
207,796	76,82
208,35	71,33
208,904	75,44
209,457	75,7
210,011	79,11
210,564	71,28
211,117	74,79
211,67	86,42
212,223	82,31
212,776	78,57
213,329	80,26
213,881	79,45
214,434	70,9
214,986	85,65
215,538	78,24
216,09	72,4
216,642	81,47
217,194	79
217,746	73,43
218,297	72,5
218,849	80,48
219,4	78,44
219,951	78,51
220,502	84,54
221,053	74,94
221,604	69,59
222,155	76,59
222,705	72,35
223,256	75,14
223,806	74
224,356	77,82
224,906	76,43
225,456	76,57
226,006	71,33
226,556	73,62
227,106	80,56
227,655	73,8
228,204	77,78
228,754	74,26
229,303	76
229,852	78,92
230,401	76,25
230,949	75,41
231,498	74,7
232,047	73,35
232,595	80,09
233,143	73,31
233,691	75,73
234,239	72,37
234,787	75,05
235,335	74,63
235,883	71,9
236,43	73,29
236,978	77,23
237,525	73,92
238,072	74,26
238,619	79,13
239,166	77,02
239,713	72,81
240,26	79,44
240,806	76,73
241,353	76,3
241,899	72,06
242,445	76,95
242,991	70,22
243,537	76,53
244,083	76,67
244,629	80
245,174	73,42
245,72	77,39
246,265	83,28
246,81	79,04
247,355	74,72
247,9	76,73
248,445	79,87
248,99	79,79
249,534	77,68
250,079	81,28
250,623	76,14
251,168	77,48
251,712	71,97
252,256	70,65
252,8	79,34
253,343	78,32
253,887	77,66
254,43	88,22
254,974	78,32
255,517	75,85
256,06	83,91
256,603	80,18
257,146	80,18
257,689	84,22
258,232	80,95
258,774	77,47
259,317	75,99
259,859	75,9
260,401	82,12
260,943	81,78
261,485	73,13
262,027	79,56
262,569	78,81
263,11	78,64
263,652	80,15
264,193	76,11
264,734	76,55
265,275	80,57
265,816	80,32
266,357	78,54
266,898	79,44
267,438	79,38
267,979	82,33
268,519	83,93
269,059	77,68
269,6	78,23
270,14	80,65
270,68	71,45
271,219	81,34
271,759	81,58
272,298	77,53
272,838	77,56
273,377	79,91
273,916	79,2
274,455	75,41
274,994	82,13
275,533	72,45
276,072	78,74
276,61	83,79
277,149	71,55
277,687	76,42
278,225	79,79
278,763	81,13
279,301	74,04
279,839	80,01
280,377	76,57
280,914	81,15
281,452	82,66
281,989	83,36
282,526	74,54
283,064	82,16
283,601	76,46
284,137	76,9
284,674	77,22
285,211	75,8
285,747	81,59
286,284	84,49
286,82	78,44
287,356	77,25
287,892	80,83
288,428	78,86
288,964	74,69
289,5	73,17
290,035	78,49
290,571	74,47
291,106	82,84
291,641	77,16
292,176	73,39
292,711	78,19
293,246	74,89
293,781	78,08
294,315	70,46
294,85	84,82
295,384	78,19
295,918	74,04
296,453	76,59
296,987	76,02
297,52	76,83
298,054	73,9
298,588	76,54
299,121	80,56
299,655	75,97
300,188	79,26
300,721	75,55
301,254	79,22
301,787	77,54
302,32	78,14
302,853	73,23
303,385	79,56
303,918	78,25
304,45	69,76
304,982	78,65
305,514	76,41
306,046	76
306,578	75,22
307,11	77,71
307,641	79,88
308,173	83,03
308,704	82,01
309,236	81,92
309,767	77,24
310,298	75,27
310,829	79,38
311,359	78,84
311,89	72,82
312,421	70,38
312,951	77,1
313,481	79,6
314,012	71,58
314,542	80,97
315,072	74,85
315,601	74,25
316,131	72,88
316,661	73,53
317,19	78,01
317,72	74,01
318,249	74,41
318,778	73,93
319,307	72,65
319,836	76,3
320,365	76,88
320,893	74,29
321,422	70,65
321,95	75,37
322,479	80,23
323,007	68,59
323,535	76,23
324,063	74,79
324,591	78,87
325,118	75,42
325,646	76,37
326,173	68,63
326,701	75,82
327,228	72,45
327,755	77,08
328,282	73,72
328,809	76,76
329,336	76,71
329,862	72,39
330,389	72,59
330,915	70,96
331,441	71,04
331,968	67,59
332,494	70,7
333,02	69,68
333,545	69,98
334,071	74
334,597	69,72
335,122	78,13
335,648	73,53
336,173	71,45
336,698	67,96
337,223	68,44
337,748	69,44
338,272	66,08
338,797	70,21
339,322	74,52
339,846	69,81
340,37	70,41
340,894	72,44
341,419	72,23
341,942	67,56
342,466	62,46
342,99	71,39
343,514	71,98
344,037	61,5
344,56	67,71
345,084	62,74
345,607	68,67
346,13	63,66
346,653	64,97
347,175	61
347,698	67,53
348,221	61,52
348,743	62,62
349,265	63,51
349,787	63,08
350,309	62,29
350,831	63,94
351,353	59,96
351,875	60,96
352,397	54,6
352,918	61,57
353,439	62,94
353,961	61,29
354,482	57,21
355,003	54,4
355,524	55,27
356,044	56,28
356,565	55,33
357,086	57,74
357,606	53,24
358,126	58,82
358,646	54,16
359,167	57,18
359,687	53,18
360,206	53,8
360,726	57,22
361,246	51,5
361,765	53,8
362,285	53,86
362,804	51,16
363,323	53,72
363,842	53,58
364,361	51,97
364,88	53,61
365,398	50,59
365,917	52,06
366,435	48,55
366,954	52,63
367,472	44,83
367,99	53,72
368,508	47,78
369,026	42,66
369,544	48,65
370,061	47,39
370,579	46,48
371,096	43,72
371,613	46,27
372,131	48,43
372,648	45,91
373,165	39,88
373,681	43,81
374,198	45,6
374,715	44,23
375,231	39,42
375,747	42,87
376,264	40,07
376,78	42,06
377,296	38,53
377,812	44,41
378,327	39,88
378,843	39,38
379,359	39,42
379,874	39,66
380,389	37,66
380,905	36,91
381,42	35,08
381,935	39,02
382,449	34,45
382,964	33,65
383,479	34,27
383,993	33,81
384,508	33,44
385,022	31,91
385,536	35,34
386,05	33,54
386,564	33,43
387,078	33,38
387,592	30,65
388,105	29,5
388,619	30,44
389,132	29,73
389,645	28,92
390,158	28,94
390,671	27,46
391,184	28,53
391,697	25,5
392,21	27,67
392,722	29,35
393,235	25,94
393,747	26,75
394,259	26,22
394,771	26,95
395,283	26,45
395,795	26,75
396,307	26,67
396,818	24,23
397,33	24,14
397,841	24,54
398,353	23,19
398,864	23,78
399,375	23,06
399,886	22,94
400,397	21,12
400,907	21,09
401,418	20,51
401,928	20,64
402,439	19,74
402,949	19,91
403,459	18,37
403,969	18,93
404,479	18,28
404,989	17,65
405,498	16,72
406,008	16,63
406,517	15,79
407,027	15,99
407,536	15,75
408,045	14,33
408,554	14,2
409,063	13,72
409,572	12,97
410,08	12,95
410,589	12,22
411,097	12,44
411,606	11,53
412,114	11,25
412,622	11,09
413,13	10,95
413,638	10,8
414,145	9,86
414,653	9,84
415,16	9,19
415,668	8,94
416,175	8,92
416,682	8,44
417,189	8,56
417,696	8,39
418,203	8,38
418,71	8,51
419,216	8,09
419,723	7,64
420,229	7,76
420,735	7,37
421,242	7,63
421,748	7,25
422,254	7,22
422,759	7,31
423,265	6,91
423,771	6,83
424,276	6,83
424,781	6,85
425,287	6,39
425,792	6,34
426,297	6,63
426,802	6,63
427,306	6,57
427,811	6,25
428,316	6,21
428,82	6,28
429,324	6,08
429,829	5,77
430,333	5,84
430,837	5,97
431,34	5,82
431,844	6,07
432,348	6,02
432,851	5,98
433,355	5,84
433,858	5,87
434,361	5,78
434,864	5,72
435,367	5,49
435,87	5,69
436,373	5,72
436,876	5,67
437,378	5,58
437,88	5,56
438,383	5,34
438,885	5,56
439,387	5,52
439,889	5,23
440,391	5,26
440,892	5,65
441,394	5,37
441,896	5,55
442,397	5,39
442,898	5,15
443,399	5,42
443,9	5,38
444,401	5,37
444,902	5,21
445,403	5,23
445,903	5,3
446,404	5,15
446,904	5,31
447,405	5,23
447,905	5,14
448,405	5,4
448,905	5,21
449,404	5,42
449,904	5,23
450,404	5,29
450,903	5,43
451,403	5,43
451,902	5,43
452,401	5,45
452,9	5,34
453,399	5,44
453,898	5,61
454,396	5,36
454,895	5,41
455,393	5,24
455,892	5,53
456,39	5,31
456,888	5,32
457,386	5,35
457,884	5,35
458,382	5,15
458,879	5,3
459,377	5,63
459,874	5,4
460,372	5,32
460,869	5,47
461,366	5,47
461,863	5,45
462,36	5,28
462,857	5,4
463,353	5,31
463,85	5,25
464,346	5,17
464,843	5,23
465,339	5,49
465,835	5,25
466,331	5,28
466,827	5,14
467,323	5,3
467,818	5,26
468,314	5,24
468,809	5,14
469,305	5,1
469,8	5,31
470,295	5,41
470,79	5,18
471,285	5,33
471,78	5,25
472,274	5,35
472,769	5,21
473,263	5,19
473,758	5,17
474,252	5,27
474,746	5,1
475,24	5,11
475,734	5,23
476,228	5,18
476,721	5,1
477,215	5,16
477,708	5,33
478,202	5,32
478,695	5,28
479,188	5,2
479,681	5,13
480,174	5,13
480,667	5,13
481,159	5,27
481,652	5,18
482,144	5,27
482,637	5,28
483,129	5,1
483,621	5,25
484,113	5,32
484,605	5,28
485,097	5,32
485,588	5,28
486,08	5,22
486,571	5,18
487,063	5,27
487,554	5,33
488,045	5,16
488,536	5,33
489,027	5,4
489,518	5,35
490,008	5,37
490,499	5,39
490,989	5,32
491,48	5,62
491,97	5,71
492,46	5,54
492,95	5,67
493,44	5,65
493,93	5,73
494,419	5,61
494,909	5,71
495,398	5,72
495,888	5,85
496,377	5,98
496,866	5,94
497,355	5,99
497,844	6,19
498,333	6,17
498,821	6,18
499,31	6,21
499,798	6,48
500,287	6,32
500,775	6,5
501,263	6,81
501,751	6,68
502,239	6,87
502,727	7,01
503,215	7,14
503,702	7,19
504,19	7,37
504,677	7,52
505,164	7,64
505,651	7,77
506,139	7,97
506,625	8,07
507,112	8,3
507,599	8,51
508,086	8,52
508,572	8,84
509,058	9,02
509,545	9,2
510,031	9,12
510,517	9,41
511,003	9,64
511,489	10,04
511,974	9,99
512,46	10,52
512,946	10,66
513,431	10,88
513,916	11,04
514,401	11,25
514,887	11,77
515,371	11,95
515,856	12,17
516,341	12,52
516,826	12,48
517,31	12,94
517,795	13,29
518,279	13,84
518,763	13,99
519,247	14,24
519,731	14,53
520,215	14,65
520,699	15,14
521,182	15,38
521,666	15,9
522,149	16,23
522,633	16,6
523,116	16,59
523,599	16,91
524,082	17,28
524,565	17,56
525,048	17,94
525,53	18,27
526,013	18,58
526,495	19,03
526,978	19,03
527,46	19,15
527,942	19,39
528,424	19,75
528,906	19,91
529,388	20,07
529,87	20,16
530,351	20,57
530,833	20,82
531,314	20,92
531,795	21,08
532,277	21,3
532,758	21,47
533,238	21,7
533,719	21,81
534,2	21,67
534,681	21,9
535,161	22,13
535,642	22,06
536,122	22,31
536,602	22,14
537,082	22,29
537,562	22,44
538,042	22,72
538,522	22,46
539,001	22,53
539,481	22,53
539,96	22,74
540,44	22,96
540,919	22,89
541,398	23,02
541,877	23,12
542,356	22,93
542,835	23,21
543,313	23,1
543,792	23,55
544,27	23,42
544,749	23,38
545,227	23,32
545,705	23,32
546,183	23,58
546,661	23,54
547,139	23,68
547,616	23,54
548,094	23,54
548,571	23,66
549,049	23,53
549,526	23,7
550,003	23,39
550,48	23,51
550,957	23,85
551,434	23,74
551,911	23,75
552,387	24
552,864	23,58
553,34	23,84
553,817	23,9
554,293	23,45
554,769	24,01
555,245	23,9
555,721	23,89
556,197	23,88
556,672	23,91
557,148	23,73
557,623	23,55
558,099	23,68
558,574	23,44
559,049	23,6
559,524	23,62
559,999	23,46
560,474	23,34
560,948	22,97
561,423	23,28
561,897	22,89
562,372	22,89
562,846	22,9
563,32	22,83
563,794	22,86
564,268	22,42
564,742	22,34
565,216	22,25
565,69	22,29
566,163	22,14
566,636	21,48
567,11	21,79
567,583	21,35
568,056	21,32
568,529	20,93
569,002	20,92
569,475	20,86
569,947	20,7
570,42	20,49
570,892	20,25
571,365	20,29
571,837	20,08
572,309	19,9
572,781	19,47
573,253	19,54
573,725	19,27
574,197	19,04
574,668	18,94
575,14	18,77
575,611	18,53
576,082	18,41
576,554	18,52
577,025	18,3
577,496	17,91
577,967	17,9
578,437	17,83
578,908	17,5
579,379	17,45
579,849	17,23
580,319	16,98
580,79	16,99
581,26	17,1
581,73	16,74
582,2	16,77
582,669	16,6
583,139	16,39
583,609	16,5
584,078	16,15
584,548	16,19
585,017	16,15
585,486	16,06
585,955	15,81
586,424	15,75
586,893	15,66
587,362	15,56
587,83	15,47
588,299	15,39
588,767	15,33
589,236	15,32
589,704	15,31
590,172	15,1
590,64	14,84
591,108	15,01
591,576	14,98
592,043	14,73
592,511	14,81
592,978	14,67
593,446	14,66
593,913	14,75
594,38	14,52
594,847	14,51
595,314	14,58
595,781	14,52
596,248	14,51
596,715	14,3
597,181	14,35
597,647	14,32
598,114	14,3
598,58	14,28
599,046	14,16
599,512	14,27
599,978	14
600,444	14,17
600,91	14,13
601,375	14,06
601,841	13,97
602,306	14,12
602,771	14,03
603,236	13,84
603,702	13,84
604,167	13,8
604,631	13,61
605,096	13,6
605,561	13,59
606,025	13,39
606,49	13,38
606,954	13,33
607,418	13,35
607,882	13,15
608,347	13,01
608,81	13,03
609,274	12,84
609,738	12,8
610,202	12,82
610,665	12,59
611,128	12,51
611,592	12,53
612,055	12,29
612,518	12,24
612,981	12,22
613,444	12,12
613,907	11,99
614,369	11,83
614,832	11,92
615,294	11,59
615,757	11,72
616,219	11,56
616,681	11,64
617,143	11,47
617,605	11,38
618,067	11,38
618,529	11,08
618,99	11,14
619,452	10,93
619,913	10,99
620,375	10,91
620,836	10,91
621,297	10,81
621,758	10,81
622,219	10,69
622,68	10,64
623,14	10,76
623,601	10,55
624,061	10,64
624,522	10,52
624,982	10,5
625,442	10,48
625,902	10,43
626,362	10,44
626,822	10,45
627,282	10,39
627,742	10,36
628,201	10,38
628,661	10,33
629,12	10,24
629,579	10,22
630,038	10,42
630,497	10,31
630,956	10,25
631,415	10,26
631,874	10,17
632,332	10,19
632,791	10,18
633,249	10,14
633,708	9,99
634,166	10,02
634,624	9,94
635,082	9,71
635,54	9,71
635,998	9,75
636,455	9,66
636,913	9,71
637,37	9,74
637,828	9,44
638,285	9,32
638,742	9,11
639,199	9,1
639,656	8,95
640,113	8,87
640,57	8,73
641,027	8,67
641,483	8,51
641,94	8,4
642,396	8,28
642,852	8,17
643,309	8,16
643,765	8,12
644,221	7,97
644,676	7,8
645,132	7,64
645,588	7,68
646,043	7,43
646,499	7,37
646,954	7,25
647,409	7,21
647,864	6,98
648,319	6,99
648,774	6,83
649,229	6,85
649,684	6,79
650,139	6,72
650,593	6,65
651,047	6,55
651,502	6,54
651,956	6,48
652,41	6,41
652,864	6,43
653,318	6,38
653,772	6,33
654,225	6,26
654,679	6,26
655,133	6,25
655,586	6,22
656,039	6,21
656,492	6,1
656,946	6,01
657,399	5,94
657,851	6
658,304	5,81
658,757	5,8
659,209	5,75
659,662	5,68
660,114	5,54
660,567	5,49
661,019	5,54
661,471	5,4
661,923	5,35
662,375	5,37
662,826	5,25
663,278	5,21
663,73	5,16
664,181	5,12
664,632	5,06
665,084	5,04
665,535	4,98
665,986	5,04
666,437	4,95
666,888	4,92
667,338	5
667,789	4,86
668,24	4,88
668,69	4,91
669,14	4,96
669,591	4,94
670,041	4,98
670,491	5,01
670,941	5,11
671,391	5,01
671,84	5,1
672,29	5,17
672,74	5,17
673,189	5,24
673,638	5,28
674,088	5,39
674,537	5,36
674,986	5,46
675,435	5,45
675,883	5,56
676,332	5,62
676,781	5,73
677,229	5,9
677,678	5,95
678,126	5,99
678,574	6,05
679,022	6,22
679,47	6,28
679,918	6,3
680,366	6,49
680,814	6,55
681,261	6,63
681,709	6,69
682,156	6,84
682,604	6,93
683,051	7,06
683,498	7,18
683,945	7,33
684,392	7,34
684,839	7,47
685,286	7,58
685,732	7,74
686,179	7,88
686,625	7,98
687,071	8,1
687,518	8,33
687,964	8,44
688,41	8,64
688,856	8,86
689,301	9,09
689,747	9,43
690,193	9,68
690,638	10,05
691,084	10,4
691,529	10,73
691,974	11,21
692,419	11,61
692,864	11,98
693,309	12,53
693,754	12,98
694,199	13,53
694,643	13,91
695,088	14,63
695,532	15,18
695,977	15,8
696,421	16,27
696,865	16,91
697,309	17,48
697,753	17,97
698,197	18,64
698,64	19,19
699,084	19,61
699,527	20,3
699,971	20,8
700,414	21,44
700,857	22,09
701,3	22,63
701,743	23,23
702,186	23,8
702,629	24,17
703,072	24,72
703,515	25,34
703,957	25,64
704,399	26,23
704,842	26,8
705,284	27,18
705,726	27,93
706,168	28,22
706,61	28,73
707,052	29,26
707,494	29,38
707,935	30,03
708,377	30,46
708,818	30,89
709,26	31,36
709,701	31,61
710,142	32,1
710,583	32,57
711,024	32,9
711,465	33,2
711,905	33,49
712,346	33,9
712,787	34,29
713,227	34,73
713,667	35,3
714,108	35,7
714,548	35,73
714,988	36,17
715,428	36,49
715,868	36,87
716,307	37,01
716,747	37,55
717,186	37,73
717,626	38,18
718,065	38,78
718,504	38,7
718,944	39,38
719,383	39,37
719,822	39,78
720,261	39,98
720,699	40,06
721,138	40,34
721,576	40,77
722,015	40,94
722,453	41,17
722,892	41,42
723,33	41,66
723,768	42,12
724,206	42,21
724,644	42,59
725,081	42,53
725,519	42,59
725,957	42,8
726,394	43,03
726,832	43,13
727,269	43,41
727,706	43,52
728,143	44,01
728,58	43,95
729,017	43,95
729,454	44,29
729,89	44,3
730,327	44,62
730,764	44,65
731,2	44,63
731,636	44,99
732,072	45
732,509	45,06
732,945	45,34
733,38	45,28
733,816	45,29
734,252	45,41
734,688	45,11
735,123	45,58
735,559	45,79
735,994	45,87
736,429	45,65
736,864	46,03
737,299	45,8
737,734	45,87
738,169	46
738,604	46,19
739,038	46,1
739,473	46,1
739,907	46,17
740,342	46,35
740,776	46,26
741,21	46,53
741,644	46,38
742,078	46,38
742,512	46,34
742,946	46,61
743,379	46,12
743,813	46,48
744,246	46,47
744,68	46,53
745,113	46,42
745,546	46,27
745,979	46,29
746,412	46,57
746,845	46,3
747,278	46,22
747,711	46,61
748,143	46,56
748,576	46,27
749,008	46,21
749,441	46,05
749,873	46,31
750,305	46,23
750,737	46,13
751,169	46,06
751,601	46,15
752,032	46,24
752,464	46,19
752,896	46,23
753,327	46,14
753,758	45,97
754,19	46,18
754,621	46,2
755,052	46,21
755,483	46,03
755,914	46,13
756,344	46,08
756,775	45,99
757,206	46,04
757,636	45,84
758,066	45,87
758,497	45,57
758,927	45,75
759,357	45,82
759,787	45,81
760,217	45,84
760,647	45,65
761,076	45,75
761,506	45,66
761,935	45,62
762,365	45,48
762,794	45,75
763,223	45,55
763,653	45,45
764,082	45,81
764,51	45,56
764,939	45,58
765,368	45,68
765,797	45,55
766,225	45,44
766,654	45,24
767,082	45,3
767,51	45,29
767,938	45,45
768,367	45,34
768,795	45,27
769,222	45,52
769,65	45,4
770,078	45,05
770,505	45,23
770,933	45,15
771,36	45,05
771,788	45,17
772,215	45,41
772,642	44,98
773,069	45,26
773,496	45,07
773,923	45
774,349	44,88
774,776	45,03
775,203	45,01
775,629	45,06
776,055	44,95
776,482	44,8
776,908	44,94
777,334	44,96
777,76	44,96
778,186	44,86
778,611	44,89
779,037	44,88
779,463	44,75
779,888	44,89
780,314	44,72
780,739	44,91
781,164	44,64
781,589	44,84
782,014	44,78
782,439	44,78
782,864	44,84
783,289	44,85
783,713	44,8
784,138	44,57
784,562	44,8
784,987	44,66
785,411	44,69
785,835	44,65
786,259	44,81
786,683	44,8
787,107	44,78
787,531	44,66
787,954	44,57
788,378	44,56
788,802	44,7
789,225	44,61
789,648	44,77
790,071	44,59
790,495	44,47
790,918	44,62
791,34	44,55
791,763	44,75
792,186	44,75
792,609	44,74
793,031	44,69
793,454	44,6
793,876	44,78
794,298	44,49
794,721	44,58
795,143	44,75
795,565	44,54
795,986	44,57
796,408	44,39
796,83	44,48
797,252	44,65
797,673	44,6
798,094	44,48
798,516	44,45
798,937	44,7
799,358	44,62
799,779	44,47
800,2	44,74
800,621	44,54
801,042	44,42
801,462	44,33
801,883	44,54
802,303	44,65
802,724	44,4
803,144	44,6
803,564	44,41
803,984	44,42
804,404	44,62
804,824	44,63
805,244	44,41
805,664	44,64
806,084	44,45
806,503	44,48
806,923	44,33
807,342	44,56
807,761	44,26
808,18	44,38
808,599	44,33
809,018	44,51
809,437	44,46
809,856	44,26
810,275	44,41
810,693	44,4
811,112	44,27
811,53	44,27
811,949	44,66
812,367	44,34
812,785	44,43
813,203	44,62
813,621	44,53
814,039	44,31
814,457	44,16
814,874	44,46
815,292	44,32
815,709	44,52
816,127	44,41
816,544	44,4
816,961	44,38
817,378	44,5
817,795	44,56
818,212	44,52
818,629	44,24
819,046	44,31
819,462	44,23
819,879	44,33
820,295	44,12
820,712	44,18
821,128	44,13
821,544	44,1
821,96	44,2
822,376	44,28
822,792	44,35
823,208	44,23
823,624	44,21
824,039	44,51
824,455	44,28
824,87	44,57
825,286	44,27
825,701	44,4
826,116	44,25
826,531	44,17
826,946	44,48
827,361	44,02
827,776	44,28
828,19	44,19
828,605	44,19
829,02	44,24
829,434	44,27
829,848	44,41
830,263	44,39
830,677	44,31
831,091	44,22
831,505	44,26
831,919	44,1
832,332	44,03
832,746	44,19
833,16	44,13
833,573	44,14
833,987	44,21
834,4	44,19
834,813	44,03
835,226	44,03
835,639	43,99
836,052	44,15
836,465	44,15
836,878	44,37
837,29	44,19
837,703	44,05
838,116	44,17
838,528	44,14
838,94	44,15
839,352	44,03
839,765	44,01
840,177	44,07
840,589	43,97
841	44,09
841,412	44,03
841,824	44,22
842,235	43,98
842,647	44,21
843,058	44,12
