Data from L5__Relative__1__00173.txt Node

Date: Tue Jan 30 18:11:25 CET 2024
User: diatiterra
Spectrometer: HDX00911
Trigger mode: 0
Integration Time (sec): 6,000000E-3
Scans to average: 3
Nonlinearity correction enabled: true
Boxcar width: 0
Storing dark spectrum: false
XAxis mode: Wavelengths
Number of Pixels in Spectrum: 2068
>>>>>Begin Spectral Data<<<<<
194,468	153,81
195,025	125,77
195,581	135,18
196,138	114,91
196,694	119,08
197,251	96,48
197,807	100,43
198,363	92,04
198,919	93,28
199,474	100,03
200,03	90,36
200,586	92,32
201,141	87,44
201,696	86,57
202,251	89,4
202,806	93,89
203,361	93,66
203,916	89,35
204,471	91,75
205,025	87,84
205,58	92,73
206,134	95,57
206,688	87,34
207,242	90,16
207,796	93,08
208,35	90,37
208,904	95,63
209,457	89,55
210,011	94,1
210,564	92,46
211,117	98,98
211,67	100,67
212,223	100,61
212,776	94,75
213,329	98,08
213,881	93,92
214,434	89,63
214,986	101,29
215,538	95,73
216,09	95,53
216,642	91,56
217,194	92,17
217,746	94,35
218,297	91,02
218,849	99,79
219,4	100
219,951	102,48
220,502	94,23
221,053	91,91
221,604	94,89
222,155	96,51
222,705	94,18
223,256	88,79
223,806	94,6
224,356	93,72
224,906	98,09
225,456	90,66
226,006	89,07
226,556	87,29
227,106	98,94
227,655	90,64
228,204	89,94
228,754	94,35
229,303	91,53
229,852	90,88
230,401	96,05
230,949	97,93
231,498	88,3
232,047	88,51
232,595	98,51
233,143	93,65
233,691	92,23
234,239	86,97
234,787	92,22
235,335	93,34
235,883	99,56
236,43	94,41
236,978	89,83
237,525	91,17
238,072	89,53
238,619	94,57
239,166	85,73
239,713	89,03
240,26	93,36
240,806	90,81
241,353	89,35
241,899	88,08
242,445	94,08
242,991	89,93
243,537	93,24
244,083	91,27
244,629	91,92
245,174	93,88
245,72	92,11
246,265	94,68
246,81	97,58
247,355	90,92
247,9	92,67
248,445	99,78
248,99	96,1
249,534	94,2
250,079	95,38
250,623	86,77
251,168	92,97
251,712	84,92
252,256	85,94
252,8	90,79
253,343	96,84
253,887	88,13
254,43	94
254,974	96,03
255,517	91,29
256,06	101,6
256,603	94,89
257,146	95,65
257,689	101,16
258,232	91,35
258,774	93,78
259,317	95,41
259,859	94,93
260,401	100,24
260,943	96,62
261,485	89,43
262,027	98,68
262,569	93,48
263,11	90,96
263,652	92,63
264,193	96,25
264,734	89,77
265,275	92,28
265,816	88,02
266,357	95,41
266,898	90,48
267,438	91,93
267,979	100,47
268,519	100,68
269,059	96,07
269,6	96,01
270,14	94,78
270,68	87,85
271,219	97,74
271,759	97,81
272,298	93,52
272,838	90,42
273,377	88,68
273,916	86,55
274,455	87,5
274,994	92,07
275,533	89,78
276,072	95,41
276,61	91,45
277,149	89,6
277,687	91,49
278,225	91,25
278,763	97,99
279,301	89,92
279,839	94,78
280,377	90,89
280,914	90,68
281,452	100,93
281,989	96,51
282,526	89
283,064	96,57
283,601	91,58
284,137	93,12
284,674	91,78
285,211	101,15
285,747	96,58
286,284	91,11
286,82	92,89
287,356	91,03
287,892	103,11
288,428	90,75
288,964	92,95
289,5	92
290,035	93,07
290,571	90,64
291,106	101,7
291,641	97,98
292,176	92,1
292,711	91,36
293,246	97,03
293,781	93,97
294,315	92,19
294,85	101,87
295,384	94,63
295,918	87,76
296,453	89,72
296,987	91,65
297,52	93,61
298,054	95,18
298,588	98,15
299,121	91,42
299,655	85,63
300,188	96,07
300,721	92,29
301,254	94,54
301,787	91,1
302,32	104,27
302,853	94,86
303,385	93,12
303,918	93,56
304,45	89,85
304,982	93,2
305,514	89,67
306,046	87,37
306,578	95,27
307,11	95,81
307,641	98,89
308,173	95,07
308,704	94,48
309,236	99,09
309,767	92,13
310,298	88,5
310,829	94,86
311,359	89,42
311,89	92,15
312,421	91,6
312,951	92,08
313,481	93,14
314,012	89,69
314,542	93,88
315,072	95,11
315,601	88,08
316,131	96,43
316,661	93,88
317,19	93,09
317,72	89,4
318,249	90,83
318,778	89,45
319,307	85,88
319,836	93,3
320,365	94,18
320,893	94,07
321,422	88,26
321,95	90,87
322,479	90,9
323,007	80,12
323,535	83,94
324,063	89,3
324,591	95,92
325,118	94,45
325,646	90,6
326,173	93,02
326,701	90,42
327,228	94,45
327,755	93,75
328,282	88,25
328,809	84,22
329,336	89,15
329,862	94,57
330,389	88,27
330,915	89,15
331,441	91,76
331,968	85,29
332,494	82,01
333,02	86,67
333,545	92,45
334,071	92,45
334,597	86,22
335,122	96,51
335,648	84,58
336,173	87,91
336,698	87,26
337,223	88,73
337,748	81,89
338,272	76,69
338,797	83,49
339,322	91,74
339,846	83,78
340,37	91,94
340,894	89,96
341,419	86,01
341,942	83,77
342,466	76,66
342,99	88,12
343,514	84,86
344,037	76,56
344,56	83,55
345,084	69,9
345,607	88,87
346,13	76,7
346,653	79,97
347,175	76,59
347,698	88,59
348,221	80,92
348,743	77,49
349,265	77,5
349,787	79,29
350,309	78,36
350,831	82,13
351,353	70,37
351,875	81,29
352,397	70,54
352,918	80,33
353,439	75,22
353,961	73,55
354,482	69,68
355,003	70,15
355,524	67,76
356,044	75,32
356,565	70,63
357,086	71,29
357,606	71,15
358,126	76,24
358,646	68,65
359,167	69,7
359,687	65,81
360,206	69,33
360,726	73,23
361,246	71,43
361,765	65,23
362,285	66,61
362,804	66,38
363,323	67,36
363,842	71,06
364,361	64,67
364,88	68,28
365,398	68,58
365,917	67,33
366,435	66,11
366,954	67,67
367,472	64,51
367,99	67,18
368,508	60,13
369,026	60,76
369,544	64,59
370,061	62,68
370,579	65,05
371,096	60,67
371,613	67,1
372,131	66,36
372,648	60,78
373,165	59,33
373,681	59,49
374,198	65,55
374,715	60,17
375,231	64,39
375,747	58,7
376,264	56,71
376,78	59,24
377,296	56,98
377,812	61,83
378,327	58,36
378,843	56,86
379,359	54,46
379,874	56,78
380,389	52,23
380,905	55,9
381,42	53,82
381,935	55,66
382,449	52,56
382,964	52,34
383,479	49,91
383,993	49,15
384,508	50,31
385,022	50,02
385,536	52,55
386,05	48,33
386,564	50,37
387,078	48,4
387,592	47,59
388,105	45,27
388,619	47,36
389,132	42,94
389,645	44,8
390,158	43,59
390,671	42,25
391,184	43,54
391,697	42,81
392,21	40,86
392,722	42,59
393,235	40,57
393,747	41,35
394,259	39,89
394,771	40,3
395,283	39,43
395,795	40,61
396,307	41,71
396,818	40,39
397,33	38,33
397,841	36,24
398,353	37,37
398,864	35,68
399,375	36,42
399,886	35,06
400,397	33,47
400,907	32,81
401,418	32,77
401,928	33,65
402,439	31,89
402,949	31,64
403,459	30,21
403,969	29,21
404,479	28,23
404,989	27,41
405,498	27,25
406,008	27,17
406,517	25,88
407,027	25,66
407,536	25,44
408,045	23,1
408,554	23,38
409,063	22,94
409,572	22,15
410,08	21,9
410,589	20,79
411,097	20,36
411,606	20,24
412,114	19,19
412,622	18,01
413,13	18,45
413,638	18,13
414,145	17,47
414,653	16,11
415,16	16,15
415,668	16,08
416,175	15,7
416,682	14,85
417,189	15,05
417,696	14,58
418,203	13,83
418,71	14,11
419,216	14,19
419,723	13,77
420,229	13,55
420,735	13,63
421,242	13,57
421,748	13,25
422,254	12,83
422,759	12,9
423,265	12,58
423,771	11,94
424,276	11,8
424,781	11,69
425,287	11,73
425,792	12,14
426,297	12,05
426,802	11,84
427,306	11,66
427,811	11,92
428,316	11,44
428,82	11,45
429,324	11,2
429,829	11,58
430,333	11,53
430,837	11,37
431,34	11,07
431,844	11,33
432,348	11,13
432,851	11,22
433,355	10,93
433,858	10,88
434,361	11,18
434,864	10,65
435,367	10,33
435,87	11,05
436,373	10,58
436,876	10,48
437,378	10,73
437,88	10,58
438,383	10,65
438,885	10,39
439,387	10,3
439,889	10,24
440,391	10,27
440,892	10,21
441,394	10,42
441,896	10,22
442,397	10,33
442,898	10,14
443,399	10,16
443,9	10,41
444,401	10,37
444,902	9,82
445,403	10,41
445,903	10,05
446,404	10,13
446,904	10,24
447,405	10,06
447,905	10,2
448,405	10,42
448,905	10,38
449,404	10,25
449,904	10,24
450,404	10,32
450,903	10,5
451,403	10,69
451,902	10,61
452,401	10,39
452,9	10,2
453,399	10,34
453,898	10,76
454,396	10,4
454,895	10,57
455,393	10,55
455,892	10,62
456,39	10,58
456,888	10,34
457,386	10,4
457,884	10,46
458,382	10,25
458,879	10,52
459,377	10,75
459,874	10,49
460,372	10,73
460,869	10,46
461,366	10,65
461,863	10,45
462,36	10,61
462,857	10,56
463,353	10,65
463,85	10,44
464,346	10,44
464,843	10,46
465,339	10,61
465,835	10,64
466,331	10,29
466,827	10,49
467,323	10,66
467,818	10,37
468,314	10,2
468,809	10,32
469,305	10,54
469,8	10,57
470,295	10,52
470,79	10,66
471,285	10,52
471,78	10,35
472,274	10,52
472,769	10,54
473,263	10,42
473,758	10,27
474,252	10,42
474,746	10,46
475,24	10,48
475,734	10,69
476,228	10,5
476,721	10,68
477,215	10,75
477,708	10,5
478,202	10,44
478,695	10,58
479,188	10,7
479,681	10,54
480,174	10,42
480,667	10,63
481,159	10,5
481,652	10,61
482,144	10,64
482,637	10,62
483,129	10,25
483,621	10,56
484,113	10,47
484,605	10,73
485,097	10,63
485,588	10,66
486,08	10,68
486,571	10,48
487,063	10,65
487,554	10,82
488,045	10,78
488,536	10,76
489,027	10,9
489,518	10,84
490,008	10,84
490,499	11
490,989	11,01
491,48	11,19
491,97	10,91
492,46	11,14
492,95	11,06
493,44	11,17
493,93	11,04
494,419	11,31
494,909	11,3
495,398	11,31
495,888	11,48
496,377	11,55
496,866	11,54
497,355	11,64
497,844	11,9
498,333	11,84
498,821	11,97
499,31	12,03
499,798	12,14
500,287	12,24
500,775	12,37
501,263	12,65
501,751	12,49
502,239	13,05
502,727	13,07
503,215	13,26
503,702	13,12
504,19	13,27
504,677	13,61
505,164	13,6
505,651	13,88
506,139	14,18
506,625	14,18
507,112	14,36
507,599	14,97
508,086	14,64
508,572	15,35
509,058	15,45
509,545	15,64
510,031	15,92
510,517	16,08
511,003	16,35
511,489	16,94
511,974	16,93
512,46	17,44
512,946	17,71
513,431	17,87
513,916	17,92
514,401	18,3
514,887	19,16
515,371	19,19
515,856	19,57
516,341	20,03
516,826	20,4
517,31	20,42
517,795	21
518,279	21,57
518,763	21,95
519,247	22,32
519,731	22,74
520,215	23,26
520,699	23,54
521,182	23,86
521,666	24,12
522,149	24,89
522,633	25,18
523,116	25,33
523,599	25,88
524,082	26,39
524,565	26,88
525,048	27,08
525,53	27,81
526,013	27,65
526,495	28,18
526,978	28,64
527,46	28,65
527,942	29,38
528,424	29,54
528,906	29,7
529,388	30,21
529,87	30,31
530,351	30,3
530,833	30,78
531,314	31,13
531,795	31,24
532,277	31,08
532,758	31,84
533,238	31,61
533,719	31,72
534,2	31,82
534,681	32,32
535,161	32,35
535,642	32,56
536,122	32,52
536,602	32,64
537,082	32,91
537,562	33,15
538,042	33,33
538,522	33,13
539,001	33,07
539,481	33,59
539,96	33,6
540,44	33,68
540,919	33,53
541,398	33,59
541,877	34
542,356	33,63
542,835	34,07
543,313	33,84
543,792	34,1
544,27	33,84
544,749	34,07
545,227	34,36
545,705	34,26
546,183	34,27
546,661	34,51
547,139	34,62
547,616	34,56
548,094	34,47
548,571	34,54
549,049	34,72
549,526	34,57
550,003	34,94
550,48	34,84
550,957	34,81
551,434	34,77
551,911	34,56
552,387	35,18
552,864	34,75
553,34	34,77
553,817	35,02
554,293	34,87
554,769	35,3
555,245	34,63
555,721	34,62
556,197	34,89
556,672	34,93
557,148	34,75
557,623	34,81
558,099	34,88
558,574	34,48
559,049	34,35
559,524	34,59
559,999	34,55
560,474	34,63
560,948	34,04
561,423	34,42
561,897	33,98
562,372	33,7
562,846	33,67
563,32	33,95
563,794	33,56
564,268	33,37
564,742	33,13
565,216	33,09
565,69	32,98
566,163	32,7
566,636	32,48
567,11	32,34
567,583	32,04
568,056	31,94
568,529	31,43
569,002	31,45
569,475	31,6
569,947	31,13
570,42	31,08
570,892	30,63
571,365	30,11
571,837	29,95
572,309	29,93
572,781	29,9
573,253	29,61
573,725	29,34
574,197	28,83
574,668	28,71
575,14	28,46
575,611	28,29
576,082	28,12
576,554	28,22
577,025	27,89
577,496	27,6
577,967	27,48
578,437	27,14
578,908	27,11
579,379	26,84
579,849	26,72
580,319	26,7
580,79	26,5
581,26	26,41
581,73	26,22
582,2	25,93
582,669	25,86
583,139	25,66
583,609	25,52
584,078	25,38
584,548	25,25
585,017	25,22
585,486	25,05
585,955	25
586,424	24,89
586,893	24,62
587,362	24,42
587,83	24,51
588,299	24,11
588,767	24,16
589,236	24,13
589,704	23,91
590,172	24,09
590,64	23,91
591,108	23,93
591,576	23,8
592,043	23,72
592,511	23,61
592,978	23,34
593,446	23,33
593,913	23,28
594,38	23,35
594,847	23,18
595,314	22,99
595,781	23,33
596,248	23,11
596,715	23,08
597,181	22,8
597,647	22,71
598,114	22,88
598,58	22,9
599,046	22,77
599,512	22,69
599,978	22,74
600,444	22,64
600,91	22,73
601,375	22,47
601,841	22,43
602,306	22,39
602,771	22,28
603,236	22,08
603,702	22,08
604,167	22,09
604,631	21,91
605,096	22,04
605,561	21,87
606,025	21,76
606,49	21,68
606,954	21,49
607,418	21,47
607,882	21,4
608,347	21,14
608,81	21,01
609,274	21,09
609,738	20,91
610,202	20,8
610,665	20,63
611,128	20,43
611,592	20,43
612,055	20,28
612,518	20,22
612,981	19,96
613,444	19,88
613,907	19,8
614,369	19,53
614,832	19,56
615,294	19,49
615,757	19,43
616,219	19,24
616,681	19,11
617,143	19,05
617,605	18,89
618,067	18,87
618,529	18,55
618,99	18,56
619,452	18,49
619,913	18,67
620,375	18,15
620,836	18,31
621,297	18,28
621,758	18,06
622,219	18
622,68	17,86
623,14	18,05
623,601	18,01
624,061	17,76
624,522	17,84
624,982	17,69
625,442	17,82
625,902	17,57
626,362	17,74
626,822	17,64
627,282	17,7
627,742	17,52
628,201	17,57
628,661	17,59
629,12	17,51
629,579	17,47
630,038	17,61
630,497	17,42
630,956	17,31
631,415	17,47
631,874	17,35
632,332	17,36
632,791	17,33
633,249	17,24
633,708	16,93
634,166	17,22
634,624	17,08
635,082	16,74
635,54	16,85
635,998	16,7
636,455	16,63
636,913	16,47
637,37	16,48
637,828	16,32
638,285	16,25
638,742	16,08
639,199	16,03
639,656	15,75
640,113	15,73
640,57	15,45
641,027	15,43
641,483	15,37
641,94	15,1
642,396	15,04
642,852	14,9
643,309	14,66
643,765	14,65
644,221	14,47
644,676	14,33
645,132	14,18
645,588	13,94
646,043	13,88
646,499	13,74
646,954	13,55
647,409	13,63
647,864	13,3
648,319	13,22
648,774	13,03
649,229	12,98
649,684	12,92
650,139	12,89
650,593	12,74
651,047	12,69
651,502	12,55
651,956	12,49
652,41	12,38
652,864	12,43
653,318	12,24
653,772	12,22
654,225	12,17
654,679	12,06
655,133	11,97
655,586	11,95
656,039	11,93
656,492	11,86
656,946	11,72
657,399	11,58
657,851	11,67
658,304	11,49
658,757	11,39
659,209	11,26
659,662	11,11
660,114	11,13
660,567	11
661,019	10,93
661,471	10,89
661,923	10,76
662,375	10,8
662,826	10,68
663,278	10,48
663,73	10,47
664,181	10,35
664,632	10,31
665,084	10,21
665,535	10,19
665,986	10,17
666,437	10,22
666,888	10,05
667,338	10,13
667,789	10,14
668,24	10,06
668,69	10,18
669,14	10,07
669,591	10,12
670,041	10,11
670,491	10,21
670,941	10,07
671,391	10,14
671,84	10,19
672,29	10,21
672,74	10,3
673,189	10,33
673,638	10,32
674,088	10,42
674,537	10,52
674,986	10,55
675,435	10,69
675,883	10,74
676,332	10,85
676,781	10,94
677,229	11,08
677,678	11,1
678,126	11,16
678,574	11,35
679,022	11,39
679,47	11,49
679,918	11,61
680,366	11,7
680,814	11,89
681,261	11,89
681,709	12,06
682,156	12,17
682,604	12,32
683,051	12,46
683,498	12,56
683,945	12,75
684,392	12,84
684,839	12,95
685,286	13,09
685,732	13,19
686,179	13,5
686,625	13,58
687,071	13,85
687,518	14,1
687,964	14,28
688,41	14,59
688,856	14,93
689,301	15,17
689,747	15,47
690,193	15,85
690,638	16,27
691,084	16,77
691,529	17,19
691,974	17,86
692,419	18,37
692,864	18,88
693,309	19,6
693,754	20,19
694,199	20,78
694,643	21,32
695,088	21,95
695,532	22,8
695,977	23,45
696,421	24,17
696,865	24,79
697,309	25,64
697,753	26,26
698,197	27,12
698,64	27,93
699,084	28,57
699,527	29,31
699,971	29,97
700,414	30,77
700,857	31,44
701,3	32,11
701,743	32,71
702,186	33,49
702,629	34,21
703,072	34,74
703,515	35,89
703,957	36,12
704,399	36,91
704,842	37,54
705,284	38,15
705,726	38,75
706,168	39,58
706,61	39,89
707,052	40,61
707,494	40,95
707,935	41,62
708,377	42,18
708,818	42,77
709,26	43,25
709,701	43,75
710,142	44,23
710,583	44,74
711,024	45,38
711,465	45,99
711,905	46,31
712,346	46,85
712,787	47,3
713,227	47,72
713,667	48,52
714,108	48,88
714,548	49,17
714,988	49,68
715,428	50,31
715,868	50,45
716,307	50,73
716,747	51,46
717,186	51,63
717,626	51,88
718,065	52,85
718,504	52,97
718,944	53,71
719,383	54,09
719,822	54,12
720,261	54,53
720,699	54,92
721,138	55,13
721,576	55,32
722,015	55,95
722,453	56,25
722,892	56,55
723,33	56,93
723,768	57,24
724,206	57,66
724,644	57,65
725,081	57,88
725,519	58,1
725,957	58,2
726,394	58,51
726,832	58,86
727,269	59,31
727,706	59,24
728,143	59,62
728,58	59,73
729,017	59,94
729,454	60,17
729,89	60,5
730,327	60,41
730,764	60,74
731,2	60,73
731,636	61,13
732,072	61,23
732,509	61,43
732,945	61,39
733,38	61,56
733,816	61,75
734,252	61,87
734,688	61,69
735,123	61,89
735,559	62,21
735,994	62,5
736,429	62,21
736,864	62,52
737,299	62,36
737,734	62,36
738,169	62,67
738,604	62,73
739,038	62,6
739,473	62,83
739,907	62,89
740,342	62,95
740,776	62,68
741,21	62,96
741,644	63,17
742,078	63,25
742,512	63,36
742,946	63,2
743,379	63,2
743,813	63,49
744,246	63,09
744,68	63,28
745,113	63,29
745,546	63,03
745,979	63,38
746,412	63,47
746,845	63,01
747,278	63,32
747,711	63,33
748,143	63,16
748,576	63,32
749,008	63,45
749,441	63,31
749,873	63,31
750,305	63,22
750,737	63,01
751,169	63,09
751,601	63,07
752,032	63,07
752,464	62,98
752,896	62,97
753,327	62,98
753,758	63,01
754,19	63,05
754,621	63,23
755,052	63,18
755,483	62,87
755,914	62,79
756,344	62,92
756,775	62,95
757,206	62,97
757,636	62,95
758,066	62,84
758,497	62,59
758,927	62,45
759,357	62,74
759,787	62,76
760,217	62,69
760,647	62,51
761,076	62,75
761,506	62,61
761,935	62,42
762,365	62,62
762,794	62,61
763,223	62,35
763,653	62,59
764,082	62,64
764,51	62,7
764,939	62,42
765,368	62,26
765,797	62,64
766,225	62,41
766,654	62,1
767,082	62,06
767,51	62,18
767,938	62,22
768,367	61,92
768,795	62,07
769,222	62,28
769,65	62,15
770,078	62,18
770,505	61,83
770,933	62,13
771,36	61,98
771,788	61,68
772,215	61,82
772,642	61,89
773,069	61,88
773,496	61,86
773,923	61,72
774,349	61,85
774,776	61,87
775,203	61,8
775,629	62,06
776,055	61,75
776,482	61,91
776,908	61,67
777,334	61,61
777,76	61,73
778,186	61,73
778,611	61,79
779,037	61,73
779,463	61,63
779,888	61,73
780,314	61,73
780,739	61,96
781,164	61,62
781,589	61,53
782,014	61,62
782,439	61,56
782,864	61,73
783,289	61,71
783,713	61,4
784,138	61,33
784,562	61,6
784,987	61,37
785,411	61,63
785,835	61,28
786,259	61,31
786,683	61,7
787,107	61,63
787,531	61,29
787,954	61,39
788,378	61,68
788,802	61,69
789,225	61,45
789,648	61,67
790,071	61,46
790,495	61,3
790,918	61,68
791,34	61,42
791,763	61,5
792,186	61,31
792,609	61,85
793,031	61,29
793,454	61,56
793,876	61,48
794,298	61,23
794,721	61,2
795,143	61,61
795,565	61,11
795,986	61,66
796,408	61,3
796,83	61,23
797,252	61,52
797,673	61,48
798,094	61,38
798,516	61,27
798,937	61,31
799,358	61,18
799,779	60,94
800,2	61,34
800,621	61,37
801,042	61,16
801,462	61,17
801,883	61,32
802,303	61,5
802,724	61,09
803,144	61,43
803,564	61,22
803,984	61,18
804,404	61,41
804,824	61,54
805,244	61,41
805,664	61,44
806,084	61,11
806,503	61,49
806,923	61,27
807,342	61,19
807,761	60,86
808,18	61,31
808,599	61,24
809,018	61,48
809,437	61,36
809,856	61,17
810,275	61,17
810,693	61,45
811,112	61,22
811,53	61,24
811,949	61,22
812,367	61,08
812,785	61,3
813,203	61,3
813,621	61,37
814,039	61,06
814,457	60,91
814,874	61,25
815,292	61,16
815,709	61,18
816,127	61,38
816,544	61,46
816,961	61,25
817,378	61,57
817,795	61,42
818,212	61,16
818,629	61,4
819,046	61,2
819,462	61,17
819,879	61,38
820,295	61,05
820,712	60,86
821,128	61,12
821,544	60,92
821,96	60,81
822,376	61,2
822,792	60,95
823,208	61,09
823,624	61,35
824,039	60,95
824,455	61,14
824,87	61,26
825,286	60,94
825,701	61,1
826,116	60,92
826,531	60,97
826,946	61,22
827,361	60,81
827,776	61,05
828,19	60,91
828,605	60,8
829,02	61,02
829,434	61,03
829,848	61,29
830,263	61,06
830,677	61,15
831,091	61,2
831,505	61,08
831,919	60,88
832,332	60,86
832,746	60,67
