Data from L5__Relative__4__00176.txt Node

Date: Tue Jan 30 18:11:36 CET 2024
User: diatiterra
Spectrometer: HDX00911
Trigger mode: 0
Integration Time (sec): 6,000000E-3
Scans to average: 3
Nonlinearity correction enabled: true
Boxcar width: 0
Storing dark spectrum: false
XAxis mode: Wavelengths
Number of Pixels in Spectrum: 2068
>>>>>Begin Spectral Data<<<<<
194,468	141,77
195,025	101,58
195,581	105,4
196,138	104,46
196,694	94,12
197,251	79,84
197,807	76,9
198,363	75,47
198,919	78,49
199,474	83,85
200,03	72,33
200,586	72,32
201,141	67,6
201,696	67,21
202,251	67,2
202,806	74,74
203,361	76,53
203,916	70,07
204,471	76,91
205,025	72,26
205,58	78,18
206,134	75,32
206,688	69,06
207,242	74,44
207,796	78,65
208,35	74,14
208,904	74,25
209,457	73,42
210,011	76,79
210,564	70,68
211,117	79,92
211,67	84,22
212,223	77,84
212,776	73,74
213,329	80,05
213,881	79,24
214,434	75,09
214,986	80,3
215,538	80,68
216,09	71,8
216,642	77,57
217,194	75,51
217,746	77,61
218,297	72,7
218,849	83,27
219,4	76,32
219,951	77,27
220,502	82,06
221,053	77,01
221,604	72,53
222,155	77
222,705	73,8
223,256	72,49
223,806	76
224,356	80,12
224,906	77,92
225,456	72,21
226,006	73,09
226,556	72,84
227,106	79,92
227,655	73,8
228,204	76,52
228,754	74,47
229,303	74,39
229,852	77,83
230,401	80,84
230,949	76,86
231,498	69,72
232,047	69,25
232,595	74,95
233,143	77,12
233,691	79,11
234,239	67,84
234,787	73,21
235,335	74,42
235,883	75,22
236,43	75,57
236,978	74,38
237,525	71,86
238,072	77,82
238,619	76,96
239,166	72,66
239,713	75,24
240,26	73,45
240,806	74,28
241,353	75,29
241,899	74,21
242,445	74,2
242,991	77,41
243,537	76,96
244,083	73,83
244,629	79,39
245,174	73,2
245,72	79,1
246,265	82,11
246,81	75,28
247,355	75,59
247,9	80,51
248,445	77,81
248,99	74,79
249,534	77,46
250,079	83,05
250,623	71,73
251,168	72,52
251,712	72,18
252,256	70,03
252,8	78,11
253,343	70,95
253,887	74,1
254,43	77,56
254,974	77,22
255,517	78,76
256,06	75,75
256,603	78,26
257,146	76,69
257,689	75,52
258,232	77,06
258,774	76,61
259,317	78,91
259,859	73,15
260,401	77,86
260,943	78,61
261,485	77,09
262,027	75,79
262,569	76,98
263,11	73,3
263,652	82,23
264,193	76,11
264,734	76,12
265,275	73,51
265,816	77,61
266,357	76,66
266,898	77,28
267,438	80,72
267,979	77,34
268,519	80,41
269,059	78,12
269,6	78,01
270,14	77,91
270,68	73,07
271,219	77,46
271,759	80,05
272,298	74,72
272,838	79,52
273,377	72,22
273,916	71,84
274,455	74,16
274,994	83,24
275,533	70,45
276,072	79,62
276,61	83,57
277,149	72,4
277,687	72,49
278,225	72,91
278,763	77,09
279,301	71,04
279,839	78,87
280,377	80,26
280,914	74,15
281,452	77,64
281,989	81,71
282,526	73,52
283,064	85,38
283,601	73,22
284,137	79,34
284,674	76,37
285,211	85,31
285,747	79,45
286,284	78,1
286,82	76
287,356	79,33
287,892	86,28
288,428	74,01
288,964	71,16
289,5	75,55
290,035	78,04
290,571	73,19
291,106	83,32
291,641	78,29
292,176	75,26
292,711	74,08
293,246	69,79
293,781	77,86
294,315	73,84
294,85	79,75
295,384	79,36
295,918	72,78
296,453	71,99
296,987	77,52
297,52	71,31
298,054	71,93
298,588	75,84
299,121	73,31
299,655	79,62
300,188	75,55
300,721	76,21
301,254	82,94
301,787	80,51
302,32	79,08
302,853	76,87
303,385	84,23
303,918	78,01
304,45	69,11
304,982	76,6
305,514	75,96
306,046	69,47
306,578	78,02
307,11	75,5
307,641	81,01
308,173	77,84
308,704	78,08
309,236	75,88
309,767	75,75
310,298	73,32
310,829	77,37
311,359	74,69
311,89	71,69
312,421	74,37
312,951	73,13
313,481	77,31
314,012	74,53
314,542	79
315,072	73,35
315,601	72,33
316,131	79,39
316,661	79,87
317,19	72,98
317,72	73,39
318,249	77,4
318,778	79,1
319,307	71,3
319,836	73,39
320,365	79,46
320,893	74,07
321,422	76,96
321,95	71,13
322,479	75,57
323,007	69,23
323,535	67,02
324,063	71,88
324,591	79,78
325,118	80,06
325,646	76,15
326,173	80,82
326,701	79,09
327,228	75,12
327,755	80,22
328,282	73,07
328,809	76,76
329,336	76,48
329,862	77,18
330,389	77,2
330,915	77,61
331,441	75,05
331,968	72,92
332,494	69,89
333,02	72,91
333,545	74,95
334,071	71,56
334,597	74,32
335,122	73,97
335,648	66,45
336,173	75,2
336,698	70,63
337,223	71,72
337,748	71,97
338,272	62,29
338,797	68,8
339,322	77,57
339,846	72,89
340,37	75,57
340,894	75,64
341,419	73,9
341,942	65,61
342,466	68,46
342,99	72,55
343,514	71,57
344,037	65,04
344,56	76,82
345,084	66,41
345,607	73,93
346,13	67,39
346,653	67,93
347,175	66,9
347,698	72,65
348,221	67,44
348,743	68,29
349,265	66,83
349,787	71,09
350,309	68,54
350,831	64,84
351,353	61,12
351,875	60,96
352,397	60,02
352,918	64,81
353,439	67,96
353,961	66,06
354,482	60,95
355,003	60,8
355,524	60,74
356,044	63,5
356,565	60,54
357,086	62,05
357,606	59,47
358,126	60,96
358,646	62,7
359,167	65,28
359,687	61,6
360,206	56,41
360,726	60,19
361,246	60,51
361,765	55,73
362,285	58,21
362,804	56,55
363,323	60,68
363,842	61,82
364,361	58,32
364,88	58,64
365,398	59,78
365,917	59,69
366,435	57,59
366,954	59,21
367,472	54,3
367,99	58,97
368,508	55,31
369,026	52,56
369,544	54,78
370,061	52,83
370,579	53,63
371,096	54,34
371,613	56,33
372,131	57,68
372,648	53,4
373,165	54,36
373,681	51,33
374,198	53,93
374,715	53,73
375,231	52,74
375,747	51,44
376,264	49,44
376,78	52,65
377,296	52,73
377,812	50,21
378,327	48,69
378,843	46,41
379,359	52,35
379,874	52,36
380,389	48,59
380,905	48,25
381,42	46,19
381,935	47,67
382,449	44,31
382,964	44,78
383,479	44,41
383,993	44,67
384,508	43,29
385,022	44,48
385,536	44,67
386,05	42,26
386,564	42,99
387,078	42,97
387,592	40,33
388,105	39,72
388,619	40,8
389,132	36,91
389,645	38,62
390,158	39,06
390,671	36,96
391,184	36,83
391,697	35,91
392,21	38,45
392,722	35,35
393,235	35,4
393,747	35,88
394,259	36,44
394,771	36,9
395,283	33,96
395,795	34,53
396,307	33,66
396,818	32,85
397,33	34,4
397,841	32,64
398,353	32,3
398,864	32,22
399,375	30,29
399,886	31,22
400,397	30,48
400,907	27,42
401,418	28,33
401,928	29,02
402,439	28,88
402,949	27,58
403,459	26,65
403,969	27,31
404,479	25,34
404,989	24,71
405,498	24,65
406,008	23,46
406,517	23,02
407,027	22,42
407,536	22,27
408,045	20,91
408,554	20,31
409,063	19,6
409,572	18,88
410,08	18,35
410,589	17,86
411,097	17,55
411,606	16,71
412,114	16,27
412,622	15,75
413,13	15,63
413,638	14,99
414,145	14,48
414,653	13,95
415,16	13,23
415,668	13,83
416,175	13,09
416,682	12,57
417,189	12,58
417,696	12,21
418,203	11,55
418,71	12,24
419,216	11,88
419,723	11,49
420,229	11,29
420,735	11,07
421,242	11,13
421,748	10,62
422,254	10,91
422,759	10,7
423,265	10,43
423,771	10,33
424,276	10,14
424,781	10,38
425,287	9,92
425,792	10,15
426,297	10,38
426,802	9,75
427,306	9,66
427,811	9,88
428,316	9,38
428,82	9,66
429,324	9,46
429,829	9,14
430,333	9,4
430,837	9,29
431,34	9,36
431,844	9,32
432,348	9,63
432,851	9,17
433,355	9,32
433,858	9,04
434,361	8,9
434,864	8,75
435,367	8,75
435,87	8,74
436,373	9,06
436,876	8,78
437,378	8,96
437,88	8,88
438,383	8,76
438,885	8,87
439,387	8,69
439,889	8,79
440,391	8,88
440,892	8,81
441,394	8,92
441,896	8,61
442,397	8,62
442,898	8,73
443,399	8,78
443,9	9
444,401	8,92
444,902	8,64
445,403	8,76
445,903	8,55
446,404	8,69
446,904	8,78
447,405	8,58
447,905	8,55
448,405	8,96
448,905	8,72
449,404	8,91
449,904	8,77
450,404	8,88
450,903	8,97
451,403	8,93
451,902	8,99
452,401	8,87
452,9	8,95
453,399	8,8
453,898	9,19
454,396	8,89
454,895	9
455,393	8,85
455,892	8,91
456,39	9,46
456,888	9,16
457,386	9,26
457,884	8,78
458,382	9,21
458,879	8,94
459,377	9,19
459,874	9,34
460,372	9,32
460,869	9,07
461,366	9,03
461,863	9,29
462,36	9,28
462,857	9,37
463,353	8,96
463,85	9,16
464,346	9,16
464,843	9,01
465,339	9,15
465,835	9,22
466,331	9,04
466,827	9,06
467,323	8,99
467,818	9,03
468,314	9,09
468,809	8,99
469,305	9,07
469,8	8,94
470,295	9,01
470,79	9
471,285	8,97
471,78	9
472,274	8,82
472,769	8,88
473,263	9,07
473,758	8,87
474,252	8,81
474,746	9,15
475,24	9,1
475,734	8,99
476,228	9,05
476,721	9,1
477,215	9,14
477,708	9,23
478,202	9,2
478,695	9,3
479,188	8,91
479,681	9,03
480,174	9,06
480,667	9,34
481,159	9,11
481,652	8,98
482,144	9,07
482,637	9,21
483,129	9,14
483,621	9,24
484,113	9,24
484,605	9,21
485,097	9,24
485,588	9,16
486,08	9,31
486,571	9,2
487,063	9,42
487,554	9,21
488,045	9,32
488,536	9,37
489,027	9,27
489,518	9,6
490,008	9,49
490,499	9,52
490,989	9,51
491,48	9,51
491,97	9,61
492,46	9,83
492,95	9,65
493,44	9,75
493,93	9,95
494,419	9,74
494,909	10,06
495,398	10,08
495,888	10,19
496,377	10,25
496,866	10,32
497,355	10,42
497,844	10,4
498,333	10,42
498,821	10,79
499,31	10,7
499,798	10,78
500,287	10,92
500,775	10,93
501,263	11,32
501,751	11,5
502,239	11,46
502,727	11,61
503,215	11,73
503,702	11,81
504,19	11,78
504,677	12,09
505,164	12,33
505,651	12,47
506,139	12,61
506,625	12,69
507,112	13,09
507,599	13,41
508,086	13,5
508,572	13,98
509,058	14,03
509,545	13,67
510,031	14,33
510,517	14,33
511,003	14,8
511,489	15,16
511,974	15,21
512,46	15,3
512,946	15,67
513,431	16,04
513,916	16
514,401	16,51
514,887	16,77
515,371	17,15
515,856	17,24
516,341	17,55
516,826	17,84
517,31	18,24
517,795	18,8
518,279	18,84
518,763	19,05
519,247	19,56
519,731	19,95
520,215	20,05
520,699	20,37
521,182	20,64
521,666	20,8
522,149	21,22
522,633	21,54
523,116	21,66
523,599	22,13
524,082	22,81
524,565	22,95
525,048	23,14
525,53	23,27
526,013	23,36
526,495	24,05
526,978	24,33
527,46	24,43
527,942	24,54
528,424	24,66
528,906	24,97
529,388	24,91
529,87	25,21
530,351	25,56
530,833	25,89
531,314	25,85
531,795	25,98
532,277	26,21
532,758	26,51
533,238	26,45
533,719	26,56
534,2	26,71
534,681	26,7
535,161	26,87
535,642	26,85
536,122	26,99
536,602	27,16
537,082	27,26
537,562	27,35
538,042	27,45
538,522	27,39
539,001	27,42
539,481	27,6
539,96	27,5
540,44	27,47
540,919	27,47
541,398	27,6
541,877	27,58
542,356	27,89
542,835	27,73
543,313	27,87
543,792	28
544,27	28,24
544,749	27,95
545,227	28,26
545,705	28,36
546,183	28,16
546,661	28,19
547,139	28,01
547,616	28,34
548,094	28,24
548,571	28,13
549,049	28,13
549,526	28,32
550,003	28,42
550,48	28,13
550,957	28,71
551,434	28,39
551,911	28,25
552,387	28,56
552,864	28,4
553,34	28,49
553,817	28,72
554,293	28,66
554,769	28,93
555,245	28,49
555,721	28,19
556,197	28,48
556,672	28,49
557,148	28,63
557,623	28,36
558,099	28,8
558,574	28,23
559,049	28,08
559,524	28,17
559,999	28,38
560,474	28,22
560,948	27,95
561,423	27,95
561,897	27,96
562,372	27,65
562,846	27,79
563,32	27,7
563,794	27,86
564,268	27,57
564,742	27,42
565,216	27,48
565,69	27,3
566,163	27,13
566,636	26,8
567,11	26,96
567,583	26,44
568,056	26,53
568,529	26,25
569,002	26,33
569,475	26,26
569,947	25,47
570,42	25,83
570,892	25,41
571,365	25,47
571,837	25,32
572,309	25,18
572,781	25,02
573,253	24,68
573,725	24,45
574,197	24,37
574,668	24,39
575,14	23,91
575,611	23,89
576,082	23,89
576,554	23,97
577,025	23,7
577,496	23,23
577,967	23,3
578,437	23,1
578,908	23,09
579,379	22,67
579,849	22,71
580,319	22,56
580,79	22,5
581,26	22,46
581,73	22,23
582,2	21,94
582,669	21,97
583,139	21,8
583,609	21,78
584,078	21,63
584,548	21,58
585,017	21,51
585,486	21,46
585,955	21,24
586,424	21,09
586,893	21,02
587,362	20,72
587,83	20,9
588,299	20,6
588,767	20,7
589,236	20,93
589,704	20,56
590,172	20,27
590,64	20,42
591,108	20,2
591,576	20,18
592,043	20,25
592,511	20,31
592,978	20,12
593,446	20,15
593,913	19,99
594,38	19,83
594,847	19,74
595,314	19,81
595,781	19,8
596,248	19,75
596,715	19,7
597,181	19,55
597,647	19,66
598,114	19,66
598,58	19,58
599,046	19,53
599,512	19,35
599,978	19,34
600,444	19,32
600,91	19,36
601,375	19,29
601,841	19,26
602,306	19,25
602,771	19,35
603,236	19,08
603,702	19,06
604,167	18,97
604,631	19,02
605,096	19,08
605,561	18,96
606,025	18,79
606,49	18,57
606,954	18,73
607,418	18,59
607,882	18,48
608,347	18,39
608,81	18,37
609,274	18,11
609,738	18,2
610,202	18,14
610,665	18,04
611,128	17,92
611,592	17,79
612,055	17,69
612,518	17,72
612,981	17,51
613,444	17,38
613,907	17,38
614,369	17,33
614,832	17,34
615,294	17,06
615,757	17,06
616,219	16,96
616,681	16,81
617,143	16,74
617,605	16,62
618,067	16,57
618,529	16,56
618,99	16,51
619,452	16,41
619,913	16,41
620,375	16,26
620,836	16,31
621,297	16,15
621,758	16
622,219	16,1
622,68	15,99
623,14	15,96
623,601	15,98
624,061	15,83
624,522	15,76
624,982	15,8
625,442	15,93
625,902	15,71
626,362	15,62
626,822	15,78
627,282	15,66
627,742	15,58
628,201	15,47
628,661	15,61
629,12	15,59
629,579	15,56
630,038	15,55
630,497	15,48
630,956	15,65
631,415	15,44
631,874	15,51
632,332	15,38
632,791	15,43
633,249	15,36
633,708	15,26
634,166	15,11
634,624	15,03
635,082	15,01
635,54	15,08
635,998	14,76
636,455	14,73
636,913	14,7
637,37	14,62
637,828	14,33
638,285	14,33
638,742	14,28
639,199	14,07
639,656	13,94
640,113	13,8
640,57	13,73
641,027	13,67
641,483	13,43
641,94	13,36
642,396	13,4
642,852	13,12
643,309	13,01
643,765	12,85
644,221	12,7
644,676	12,59
645,132	12,4
645,588	12,52
646,043	12,24
646,499	12,16
646,954	11,87
647,409	11,93
647,864	11,72
648,319	11,74
648,774	11,6
649,229	11,35
649,684	11,37
650,139	11,34
650,593	11,33
651,047	11,21
651,502	11,15
651,956	11,14
652,41	11,06
652,864	11,01
653,318	10,89
653,772	10,86
654,225	10,9
654,679	10,67
655,133	10,74
655,586	10,61
656,039	10,63
656,492	10,65
656,946	10,63
657,399	10,43
657,851	10,44
658,304	10,29
658,757	10,28
659,209	10,15
659,662	10,16
660,114	9,91
660,567	9,97
661,019	9,81
661,471	9,77
661,923	9,68
662,375	9,6
662,826	9,55
663,278	9,55
663,73	9,39
664,181	9,42
664,632	9,34
665,084	9,19
665,535	9,24
665,986	9,22
666,437	9,15
666,888	9,14
667,338	8,99
667,789	9,05
668,24	9,05
668,69	9,03
669,14	8,99
669,591	8,97
670,041	8,94
670,491	9,03
670,941	9,04
671,391	9,06
671,84	9,08
672,29	9,13
672,74	9,23
673,189	9,25
673,638	9,32
674,088	9,35
674,537	9,39
674,986	9,42
675,435	9,53
675,883	9,71
676,332	9,69
676,781	9,78
677,229	9,87
677,678	9,96
678,126	10,04
678,574	10,18
679,022	10,24
679,47	10,32
679,918	10,47
680,366	10,54
680,814	10,67
681,261	10,73
681,709	10,9
682,156	11,06
682,604	11,2
683,051	11,36
683,498	11,47
683,945	11,59
684,392	11,75
684,839	11,92
685,286	12,01
685,732	12,27
686,179	12,36
686,625	12,61
687,071	12,79
687,518	13,15
687,964	13,21
688,41	13,58
688,856	13,84
689,301	14,18
689,747	14,45
690,193	14,71
690,638	15,1
691,084	15,42
691,529	15,99
691,974	16,42
692,419	16,71
692,864	17,29
693,309	17,57
693,754	18,29
694,199	18,65
694,643	19,14
695,088	19,79
695,532	20,27
695,977	20,63
696,421	21,33
696,865	21,84
697,309	22,44
697,753	22,79
698,197	23,49
698,64	23,86
699,084	24,31
699,527	24,72
699,971	25,31
700,414	25,74
700,857	26,31
701,3	26,9
701,743	27,17
702,186	27,61
702,629	28,01
703,072	28,48
703,515	29,06
703,957	29,3
704,399	29,9
704,842	30,09
705,284	30,44
705,726	30,92
706,168	31,3
706,61	31,75
707,052	31,84
707,494	32,17
707,935	32,55
708,377	33,13
708,818	33,16
709,26	33,71
709,701	33,95
710,142	34,2
710,583	34,53
711,024	34,94
711,465	35,03
711,905	35,37
712,346	35,61
712,787	35,99
713,227	36,13
713,667	36,53
714,108	36,92
714,548	36,96
714,988	37,1
715,428	37,34
715,868	37,68
716,307	37,84
716,747	38,36
717,186	38,27
717,626	38,75
718,065	39,15
718,504	39,13
718,944	39,37
719,383	39,53
719,822	39,7
720,261	39,81
720,699	40
721,138	40,25
721,576	40,38
722,015	40,68
722,453	40,87
722,892	40,94
723,33	41
723,768	41,16
724,206	41,55
724,644	41,34
725,081	41,79
725,519	41,72
725,957	41,75
726,394	42,01
726,832	41,95
727,269	42,43
727,706	42,4
728,143	42,43
728,58	42,61
729,017	42,61
729,454	43,08
729,89	43,03
730,327	42,96
730,764	42,99
731,2	43,3
731,636	43,25
732,072	43,35
732,509	43,26
732,945	43,26
733,38	43,32
733,816	43,5
734,252	43,54
734,688	43,42
735,123	43,44
735,559	43,69
735,994	43,85
736,429	43,82
736,864	43,98
737,299	43,58
737,734	43,83
738,169	43,67
738,604	43,88
739,038	43,96
739,473	43,85
739,907	44,19
740,342	43,89
740,776	43,85
741,21	43,98
741,644	43,85
742,078	44,12
742,512	44
742,946	43,98
743,379	43,87
743,813	43,98
744,246	43,88
744,68	43,9
745,113	43,85
745,546	43,77
745,979	43,77
746,412	43,99
746,845	43,68
747,278	43,82
747,711	43,74
748,143	43,56
748,576	43,57
749,008	43,72
749,441	43,67
749,873	43,6
750,305	43,34
750,737	43,54
751,169	43,58
751,601	43,52
752,032	43,47
752,464	43,47
752,896	43,52
753,327	43,48
753,758	43,21
754,19	43,26
754,621	43,3
755,052	43,44
755,483	43,13
755,914	43
756,344	43,24
756,775	43,34
757,206	43,42
757,636	43,04
758,066	43,19
758,497	43,01
758,927	42,74
759,357	43,21
759,787	43,17
760,217	42,85
760,647	42,92
761,076	42,61
761,506	42,82
761,935	42,69
762,365	42,66
762,794	42,75
763,223	42,43
763,653	42,95
764,082	42,7
764,51	42,75
764,939	42,54
765,368	42,52
765,797	42,65
766,225	42,43
766,654	42,34
767,082	42,38
767,51	42,45
767,938	42,51
768,367	42,27
768,795	42,24
769,222	42,5
769,65	42,39
770,078	42,31
770,505	42,03
770,933	42,32
771,36	42,21
771,788	42,23
772,215	42,33
772,642	42,16
773,069	42,08
773,496	42,16
773,923	41,78
774,349	41,87
774,776	42,15
775,203	41,93
775,629	41,91
776,055	42,12
776,482	41,98
776,908	42,04
777,334	42,1
777,76	42,12
778,186	41,82
778,611	41,72
779,037	41,97
779,463	41,82
779,888	41,69
780,314	41,8
780,739	41,98
781,164	41,68
781,589	41,85
782,014	41,7
782,439	41,79
782,864	41,75
783,289	41,69
783,713	41,68
784,138	41,54
784,562	41,6
784,987	41,57
785,411	41,78
785,835	41,83
786,259	41,6
786,683	41,7
787,107	41,46
787,531	41,55
787,954	41,55
788,378	41,86
788,802	41,6
789,225	41,54
789,648	41,7
790,071	41,81
790,495	41,37
790,918	41,59
791,34	41,49
791,763	41,54
792,186	41,71
792,609	41,67
793,031	41,43
793,454	41,57
793,876	41,42
794,298	41,38
794,721	41,44
795,143	41,39
795,565	41,35
795,986	41,47
796,408	41,32
796,83	41,21
797,252	41,52
797,673	41,38
798,094	41,43
798,516	41,36
798,937	41,45
799,358	41,56
799,779	41,12
800,2	41,5
800,621	41,38
801,042	41,18
801,462	41,19
801,883	41,4
802,303	41,35
802,724	41,32
803,144	41,37
803,564	41,07
803,984	41,47
804,404	41,35
804,824	41,42
805,244	41,39
805,664	41,32
806,084	41,15
806,503	41,32
806,923	41,18
807,342	41,19
807,761	41,18
808,18	41,21
808,599	41,1
809,018	41,19
809,437	41,35
809,856	40,98
810,275	41,14
810,693	41,26
811,112	41,2
811,53	41,21
811,949	41,37
812,367	41,14
812,785	41,16
813,203	41,33
813,621	41,31
814,039	40,98
814,457	41
814,874	41,15
815,292	41,4
815,709	41,15
816,127	41,26
816,544	41,08
816,961	41,1
817,378	41,4
817,795	41,22
818,212	41,33
818,629	41,22
819,046	41,04
819,462	41,22
819,879	41,41
820,295	41,07
820,712	41,06
821,128	41,05
821,544	40,95
821,96	40,97
822,376	40,96
822,792	40,99
823,208	40,96
823,624	41,28
824,039	41,17
824,455	41,03
824,87	41,31
825,286	41
825,701	41,21
826,116	40,97
826,531	41
826,946	40,99
827,361	40,93
827,776	40,81
828,19	40,87
828,605	40,92
829,02	41,1
829,434	40,9
829,848	41,09
830,263	41
830,677	40,95
831,091	40,98
831,505	41
831,919	40,78
832,332	40,64
832,746	40,9
833,16	40,88
833,573	41
833,987	40,98
834,4	40,76
834,813	40,87
835,226	40,83
835,639	40,91
836,052	40,93
836,465	41,04
836,878	40,99
837,29	40,71
837,703	41,02
838,116	41,12
838,528	40,86
838,94	41,05
839,352	40,82
