Data from L5__Relative__7__00179.txt Node

Date: Tue Jan 30 18:11:47 CET 2024
User: diatiterra
Spectrometer: HDX00911
Trigger mode: 0
Integration Time (sec): 6,000000E-3
Scans to average: 3
Nonlinearity correction enabled: true
Boxcar width: 0
Storing dark spectrum: false
XAxis mode: Wavelengths
Number of Pixels in Spectrum: 2068
>>>>>Begin Spectral Data<<<<<
194,468	157,82
195,025	126,25
195,581	124,64
196,138	118,09
196,694	115,77
197,251	93,63
197,807	94,34
198,363	89,31
198,919	96,32
199,474	97,52
200,03	95,39
200,586	88,08
201,141	88,25
201,696	83,78
202,251	89,61
202,806	88,59
203,361	86,26
203,916	87,54
204,471	97,53
205,025	88,86
205,58	89,09
206,134	93,68
206,688	86,33
207,242	85,44
207,796	89,83
208,35	85,16
208,904	91,48
209,457	87,27
210,011	97,68
210,564	88,3
211,117	92,01
211,67	102,65
212,223	92,88
212,776	94,96
213,329	95,29
213,881	93,29
214,434	82,65
214,986	91,44
215,538	91,25
216,09	87,21
216,642	95,88
217,194	90,73
217,746	91,42
218,297	88,83
218,849	93,78
219,4	93,45
219,951	96,9
220,502	95,47
221,053	86,32
221,604	90,77
222,155	97,94
222,705	91,89
223,256	90,42
223,806	88,4
224,356	92,47
224,906	98,09
225,456	97,01
226,006	89,27
226,556	88,07
227,106	95,52
227,655	91,47
228,204	90,78
228,754	91,63
229,303	91,32
229,852	96,31
230,401	94,8
230,949	96,69
231,498	84,27
232,047	90,15
232,595	98,3
233,143	91,53
233,691	89,05
234,239	83,81
234,787	86,29
235,335	92,72
235,883	94,92
236,43	89,23
236,978	87,6
237,525	91,99
238,072	85,77
238,619	90,88
239,166	89,29
239,713	89,03
240,26	89,94
240,806	90,81
241,353	89,35
241,899	87,88
242,445	92,6
242,991	87,26
243,537	94,08
244,083	86,2
244,629	96,77
245,174	86,92
245,72	92,96
246,265	99,1
246,81	96,92
247,355	90,71
247,9	94,14
248,445	98,64
248,99	96,97
249,534	95,54
250,079	96,05
250,623	81,15
251,168	88,84
251,712	86,19
252,256	85,11
252,8	91
253,343	95,16
253,887	84,18
254,43	99,1
254,974	89,39
255,517	90,17
256,06	95,25
256,603	99,58
257,146	96,09
257,689	101,16
258,232	94,59
258,774	90,99
259,317	90,61
259,859	87,95
260,401	100,02
260,943	91,96
261,485	93,84
262,027	88,01
262,569	88,79
263,11	89,53
263,652	92,17
264,193	85,41
264,734	94,89
265,275	89,85
265,816	93,67
266,357	91,45
266,898	96,33
267,438	91,71
267,979	98,21
268,519	93,18
269,059	93,44
269,6	92,9
270,14	104,57
270,68	86,63
271,219	97,97
271,759	94,52
272,298	92,65
272,838	93,69
273,377	87,82
273,916	91,8
274,455	91,46
274,994	96,48
275,533	94,45
276,072	93,22
276,61	90,32
277,149	89,38
277,687	96,08
278,225	85,83
278,763	92,6
279,301	91,43
279,839	95,92
280,377	88,94
280,914	86,66
281,452	99,33
281,989	101,44
282,526	87,57
283,064	95,06
283,601	92,23
284,137	88,01
284,674	96,21
285,211	100,02
285,747	88,87
286,284	95,45
286,82	88,89
287,356	84,14
287,892	93,63
288,428	91,41
288,964	89,21
289,5	92,65
290,035	89,48
290,571	88,73
291,106	100,51
291,641	93,91
292,176	90,86
292,711	89,2
293,246	90,85
293,781	91,29
294,315	89,03
294,85	93,11
295,384	95,33
295,918	90,08
296,453	86,88
296,987	94,44
297,52	92,06
298,054	87,28
298,588	96,27
299,121	90,29
299,655	90,14
300,188	89,96
300,721	90,75
301,254	88,63
301,787	86,02
302,32	94,85
302,853	89,72
303,385	98,23
303,918	91,17
304,45	84,45
304,982	98,43
305,514	96,64
306,046	89,47
306,578	90,74
307,11	88,53
307,641	95,95
308,173	96,72
308,704	94,48
309,236	94,45
309,767	91,71
310,298	86,34
310,829	94,86
311,359	88,59
311,89	92,37
312,421	88,24
312,951	89,21
313,481	97,04
314,012	87,59
314,542	90,16
315,072	88,28
315,601	89,36
316,131	91,72
316,661	91,69
317,19	92,85
317,72	86,69
318,249	92,11
318,778	87,08
319,307	92,61
319,836	95,32
320,365	89,27
320,893	93,41
321,422	89,13
321,95	86,2
322,479	93,57
323,007	85,04
323,535	86,51
324,063	90,19
324,591	87,97
325,118	85,17
325,646	93,22
326,173	92,79
326,701	86,07
327,228	89,79
327,755	92,3
328,282	88,89
328,809	83,78
329,336	92,1
329,862	86,09
330,389	87,8
330,915	86,71
331,441	83,09
331,968	86,35
332,494	80,8
333,02	85,81
333,545	92,01
334,071	88,9
334,597	85,59
335,122	92,79
335,648	85,62
336,173	86,25
336,698	84,39
337,223	84,83
337,748	83,84
338,272	80,47
338,797	81,88
339,322	91,3
339,846	86,65
340,37	88,13
340,894	82,91
341,419	83,71
341,942	78,89
342,466	75,39
342,99	84,61
343,514	87,52
344,037	83,43
344,56	84,35
345,084	74,45
345,607	86,05
346,13	77,81
346,653	75,34
347,175	78,87
347,698	84,41
348,221	74,09
348,743	79,26
349,265	75,3
349,787	78,22
350,309	76,58
350,831	80,15
351,353	71,69
351,875	72,46
352,397	69,61
352,918	76,07
353,439	79,54
353,961	71,34
354,482	70,15
355,003	72,18
355,524	67,61
356,044	72,37
356,565	73,24
357,086	73,29
357,606	68,91
358,126	70,13
358,646	67,73
359,167	68,53
359,687	69,32
360,206	68,71
360,726	71,3
361,246	69,66
361,765	66,05
362,285	68,92
362,804	64,09
363,323	64,24
363,842	70,06
364,361	67,23
364,88	64,2
365,398	64,96
365,917	67,33
366,435	67,17
366,954	61,76
367,472	62,65
367,99	69,34
368,508	62,84
369,026	64,3
369,544	61,52
370,061	61,29
370,579	60,55
371,096	62,93
371,613	63,31
372,131	64,39
372,648	60,45
373,165	59,87
373,681	61,85
374,198	61,83
374,715	59,22
375,231	61,79
375,747	60,42
376,264	52,7
376,78	57,08
377,296	57,27
377,812	56,99
378,327	56,74
378,843	55,93
379,359	53,91
379,874	56,23
380,389	54,09
380,905	54,67
381,42	51,7
381,935	53,08
382,449	53,36
382,964	51,94
383,479	50,7
383,993	49,38
384,508	48,35
385,022	47,36
385,536	48
386,05	47,97
386,564	47,34
387,078	47,26
387,592	44,97
388,105	44,06
388,619	44,85
389,132	42,33
389,645	45,24
390,158	43,3
390,671	41,85
391,184	42,28
391,697	41,52
392,21	40,7
392,722	41,19
393,235	41,26
393,747	39,92
394,259	40,36
394,771	40,78
395,283	39,18
395,795	39,34
396,307	38,46
396,818	38,32
397,33	37,26
397,841	35,35
398,353	36,33
398,864	36,35
399,375	34,77
399,886	33,46
400,397	33,03
400,907	31,3
401,418	31,58
401,928	32,55
402,439	30,42
402,949	28,61
403,459	29,99
403,969	30,58
404,479	27,76
404,989	26,52
405,498	26,38
406,008	25,62
406,517	25,42
407,027	25,52
407,536	23,97
408,045	22,67
408,554	21,82
409,063	20,9
409,572	21,04
410,08	20,42
410,589	19,33
411,097	19,39
411,606	18,12
412,114	17,91
412,622	17,88
413,13	16,92
413,638	16,76
414,145	16,54
414,653	15,63
415,16	15,44
415,668	14,43
416,175	14,27
416,682	13,94
417,189	14,27
417,696	13,41
418,203	13,43
418,71	13,18
419,216	13,28
419,723	12,99
420,229	12,78
420,735	12,44
421,242	12,05
421,748	12,04
422,254	12,17
422,759	12,58
423,265	11,28
423,771	11,35
424,276	11,53
424,781	11,39
425,287	10,95
425,792	11,06
426,297	11,38
426,802	10,48
427,306	10,7
427,811	11,2
428,316	10,57
428,82	10,58
429,324	10,73
429,829	10,58
430,333	10,08
430,837	10,34
431,34	10,2
431,844	10,33
432,348	10,59
432,851	10,13
433,355	9,98
433,858	9,92
434,361	10,15
434,864	10,15
435,367	9,49
435,87	9,87
436,373	9,88
436,876	9,61
437,378	9,7
437,88	9,49
438,383	9,63
438,885	9,82
439,387	9,84
439,889	9,3
440,391	9,4
440,892	9,36
441,394	9,34
441,896	9,41
442,397	9,42
442,898	9,45
443,399	9,62
443,9	9,79
444,401	9,57
444,902	9,62
445,403	9,56
445,903	9,38
446,404	9,54
446,904	9,44
447,405	9,35
447,905	9,48
448,405	9,69
448,905	9,52
449,404	9,8
449,904	9,48
450,404	9,61
450,903	9,72
451,403	9,8
451,902	9,73
452,401	9,95
452,9	10,17
453,399	10,07
453,898	9,97
454,396	9,96
454,895	9,92
455,393	9,76
455,892	9,93
456,39	9,82
456,888	9,69
457,386	9,7
457,884	9,93
458,382	9,98
458,879	9,99
459,377	10,06
459,874	10,04
460,372	10,27
460,869	10,12
461,366	10,04
461,863	10,08
462,36	9,86
462,857	10,03
463,353	9,77
463,85	10,05
464,346	9,77
464,843	9,94
465,339	10,04
465,835	9,86
466,331	10,24
466,827	9,84
467,323	9,85
467,818	10,01
468,314	9,74
468,809	9,61
469,305	9,96
469,8	9,86
470,295	10,08
470,79	9,97
471,285	9,82
471,78	9,71
472,274	10,1
472,769	9,97
473,263	9,78
473,758	10,12
474,252	9,88
474,746	9,91
475,24	9,8
475,734	9,93
476,228	9,83
476,721	9,98
477,215	10,1
477,708	9,99
478,202	10,06
478,695	9,89
479,188	10,16
479,681	10,01
480,174	10,05
480,667	9,97
481,159	9,97
481,652	10,12
482,144	9,83
482,637	9,97
483,129	10,06
483,621	10,27
484,113	10,11
484,605	10,07
485,097	10,24
485,588	10,16
486,08	10,21
486,571	10,39
487,063	10,17
487,554	10,27
488,045	10,52
488,536	10,49
489,027	10,43
489,518	10,65
490,008	10,48
490,499	10,56
490,989	10,73
491,48	10,81
491,97	10,91
492,46	10,78
492,95	11,17
493,44	10,99
493,93	11,26
494,419	11,16
494,909	11,15
495,398	11,36
495,888	11,31
496,377	11,69
496,866	11,64
497,355	11,77
497,844	11,99
498,333	12,07
498,821	12,28
499,31	12,48
499,798	12,63
500,287	12,58
500,775	12,89
501,263	13,3
501,751	13,17
502,239	13,43
502,727	13,73
503,215	13,81
503,702	13,97
504,19	14,39
504,677	14,23
505,164	14,74
505,651	14,75
506,139	14,96
506,625	15,63
507,112	15,76
507,599	16,13
508,086	16,07
508,572	16,64
509,058	16,97
509,545	17,26
510,031	17,71
510,517	17,88
511,003	18,13
511,489	18,17
511,974	18,86
512,46	19,22
512,946	19,38
513,431	20
513,916	20,27
514,401	20,75
514,887	21,46
515,371	21,62
515,856	21,93
516,341	22,62
516,826	22,78
517,31	23,26
517,795	23,62
518,279	24,39
518,763	24,5
519,247	24,84
519,731	25,29
520,215	26
520,699	26,43
521,182	26,75
521,666	27,34
522,149	27,74
522,633	28,15
523,116	28,5
523,599	29,06
524,082	29,81
524,565	29,86
525,048	30,24
525,53	30,83
526,013	31,01
526,495	31,92
526,978	31,94
527,46	32,25
527,942	32,77
528,424	32,88
528,906	33,05
529,388	33,26
529,87	33,81
530,351	33,34
530,833	33,91
531,314	34,08
531,795	34,53
532,277	34,82
532,758	35,48
533,238	35,09
533,719	35,49
534,2	35,45
534,681	35,69
535,161	36
535,642	35,77
536,122	36,1
536,602	36,12
537,082	36,43
537,562	36,81
538,042	36,69
538,522	36,65
539,001	36,98
539,481	36,62
539,96	36,81
540,44	37,05
540,919	37,11
541,398	37,17
541,877	37,32
542,356	37,37
542,835	37,23
543,313	37,41
543,792	37,47
544,27	37,7
544,749	37,55
545,227	37,94
545,705	37,97
546,183	37,3
546,661	37,77
547,139	37,64
547,616	37,98
548,094	37,82
548,571	38,07
549,049	37,9
549,526	38,29
550,003	38,12
550,48	38,2
550,957	38,42
551,434	38,17
551,911	38,16
552,387	38,51
552,864	38,14
553,34	38,32
553,817	38,53
554,293	38,23
554,769	38,85
555,245	38,51
555,721	38,3
556,197	38,31
556,672	38,15
557,148	38,42
557,623	38,23
558,099	37,88
558,574	38,02
559,049	38,36
559,524	37,86
559,999	37,62
560,474	37,98
560,948	37,64
561,423	37,42
561,897	37,51
562,372	37,18
562,846	37,3
563,32	37,02
563,794	36,91
564,268	36,62
564,742	37,04
565,216	36,31
565,69	36,4
566,163	36,2
566,636	35,63
567,11	36
567,583	35,35
568,056	35,61
568,529	34,73
569,002	34,81
569,475	34,69
569,947	34,29
570,42	34,15
570,892	33,77
571,365	33,98
571,837	33,4
572,309	33,18
572,781	33,19
573,253	32,78
573,725	32,55
574,197	32,18
574,668	32,14
575,14	31,81
575,611	31,56
576,082	31,28
576,554	31,24
577,025	31,01
577,496	30,65
577,967	30,56
578,437	30,56
578,908	30,13
579,379	29,95
579,849	29,78
580,319	29,69
580,79	29,48
581,26	29,49
581,73	29,23
582,2	29,01
582,669	28,79
583,139	28,55
583,609	28,4
584,078	28,58
584,548	28,23
585,017	28,11
585,486	27,79
585,955	27,67
586,424	27,65
586,893	27,54
587,362	27,31
587,83	27,42
588,299	27,09
588,767	27,07
589,236	26,74
589,704	26,82
590,172	26,98
590,64	26,68
591,108	26,49
591,576	26,4
592,043	26,29
592,511	26,52
592,978	26,25
593,446	26,11
593,913	25,92
594,38	26,13
594,847	25,8
595,314	25,92
595,781	25,86
596,248	25,64
596,715	25,52
597,181	25,67
597,647	25,41
598,114	25,51
598,58	25,54
599,046	25,32
599,512	25,35
599,978	25,3
600,444	25,09
600,91	25,08
601,375	25,07
601,841	25,11
602,306	25,15
602,771	24,95
603,236	24,95
603,702	24,83
604,167	24,82
604,631	24,47
605,096	24,45
605,561	24,43
606,025	24,23
606,49	24,14
606,954	24,32
607,418	24,07
607,882	23,76
608,347	23,87
608,81	23,68
609,274	23,57
609,738	23,39
610,202	23,28
610,665	23,25
611,128	22,97
611,592	22,96
612,055	22,71
612,518	22,47
612,981	22,32
613,444	22,31
613,907	22,06
614,369	22,05
614,832	22,05
615,294	21,75
615,757	21,62
616,219	21,48
616,681	21,46
617,143	21,36
617,605	21,22
618,067	21,13
618,529	20,82
618,99	20,8
619,452	20,62
619,913	20,56
620,375	20,46
620,836	20,42
621,297	20,27
621,758	20,41
622,219	20,13
622,68	20,21
623,14	20,07
623,601	20,06
624,061	19,98
624,522	19,89
624,982	19,95
625,442	19,87
625,902	19,88
626,362	19,82
626,822	19,71
627,282	19,75
627,742	19,58
628,201	19,66
628,661	19,68
629,12	19,46
629,579	19,49
630,038	19,6
630,497	19,47
630,956	19,56
631,415	19,52
631,874	19,52
632,332	19,41
632,791	19,26
633,249	19,27
633,708	19,18
634,166	19,18
634,624	19,06
635,082	18,87
635,54	18,99
635,998	18,79
636,455	18,73
636,913	18,47
637,37	18,45
637,828	18,34
638,285	18,11
638,742	17,97
639,199	17,77
639,656	17,68
640,113	17,68
640,57	17,38
641,027	17,27
641,483	16,96
641,94	16,96
642,396	16,78
642,852	16,49
643,309	16,31
643,765	16,25
644,221	15,96
644,676	15,93
645,132	15,78
645,588	15,46
646,043	15,31
646,499	15,03
646,954	14,96
647,409	14,87
647,864	14,55
648,319	14,56
648,774	14,42
649,229	14,24
649,684	14,2
650,139	14,02
650,593	13,88
651,047	13,87
651,502	13,75
651,956	13,69
652,41	13,4
652,864	13,46
653,318	13,31
653,772	13,32
654,225	13,26
654,679	12,96
655,133	13,03
655,586	12,79
656,039	12,8
656,492	12,65
656,946	12,63
657,399	12,46
657,851	12,32
658,304	12,26
658,757	12,21
659,209	11,86
659,662	11,85
660,114	11,8
660,567	11,56
661,019	11,53
661,471	11,42
661,923	11,17
662,375	11,16
662,826	11,09
663,278	10,92
663,73	10,74
664,181	10,75
664,632	10,6
665,084	10,46
665,535	10,46
665,986	10,39
666,437	10,3
666,888	10,21
667,338	10,24
667,789	10,24
668,24	10,13
668,69	10,09
669,14	10,09
669,591	10,06
670,041	10,11
670,491	10,04
670,941	10,12
671,391	9,96
671,84	10,18
672,29	10,14
672,74	10,29
673,189	10,24
673,638	10,29
674,088	10,33
674,537	10,34
674,986	10,47
675,435	10,55
675,883	10,75
676,332	10,82
676,781	10,89
677,229	10,92
677,678	11,05
678,126	11,15
678,574	11,29
679,022	11,37
679,47	11,4
679,918	11,53
680,366	11,68
680,814	11,86
681,261	12,04
681,709	12,2
682,156	12,31
682,604	12,45
683,051	12,77
683,498	12,77
683,945	12,95
684,392	13,21
684,839	13,48
685,286	13,7
685,732	13,97
686,179	14,06
686,625	14,47
687,071	14,67
687,518	15,01
687,964	15,44
688,41	15,8
688,856	16,26
689,301	16,7
689,747	17,07
690,193	17,6
690,638	18,17
691,084	18,78
691,529	19,33
691,974	19,97
692,419	20,7
692,864	21,42
693,309	21,97
693,754	22,86
694,199	23,63
694,643	24,17
695,088	25,13
695,532	25,92
695,977	26,74
696,421	27,58
696,865	28,18
697,309	28,96
697,753	29,71
698,197	30,68
698,64	31,26
699,084	31,87
699,527	32,93
699,971	33,62
700,414	34,27
700,857	34,85
701,3	35,76
701,743	36,17
702,186	36,95
702,629	37,72
703,072	38,38
703,515	39,19
703,957	39,68
704,399	40,26
704,842	40,75
705,284	41,31
705,726	42,08
706,168	42,43
706,61	43,19
707,052	43,58
707,494	44,14
707,935	44,78
708,377	45,12
708,818	45,77
709,26	46,25
709,701	46,74
710,142	47,02
710,583	47,51
711,024	48,08
711,465	48,55
711,905	48,74
712,346	49,23
712,787	49,64
713,227	50,23
713,667	50,92
714,108	51,03
714,548	51,39
714,988	51,64
715,428	52,2
715,868	52,41
716,307	52,67
716,747	53,23
717,186	53,58
717,626	53,98
718,065	54,4
718,504	54,21
718,944	55,07
719,383	55,49
719,822	55,5
720,261	55,67
720,699	56,2
721,138	56,31
721,576	56,63
722,015	56,81
722,453	57,34
722,892	57,5
723,33	57,65
723,768	58,33
724,206	58,29
724,644	58,41
725,081	58,62
725,519	58,92
725,957	59,03
726,394	59,11
726,832	59,17
727,269	59,62
727,706	59,46
728,143	59,81
728,58	60,21
729,017	60,21
729,454	60,63
729,89	60,56
730,327	60,62
730,764	60,71
731,2	61,1
731,636	61,22
732,072	61,34
732,509	61,41
732,945	61,25
733,38	61,56
733,816	61,5
734,252	61,55
734,688	61,67
735,123	61,56
735,559	62,07
735,994	61,98
736,429	61,93
736,864	62,33
737,299	61,97
737,734	62,14
738,169	62,28
738,604	62,33
739,038	62,49
739,473	62,44
739,907	62,36
740,342	62,37
740,776	61,88
741,21	62,4
741,644	62,43
742,078	62,79
742,512	62,42
742,946	62,77
743,379	62,59
743,813	62,45
744,246	62,51
744,68	62,4
745,113	62,34
745,546	62,13
745,979	62,21
746,412	62,24
746,845	62,29
747,278	62,63
747,711	62,46
748,143	62,5
748,576	62,32
749,008	62,44
749,441	62,41
749,873	62,19
750,305	62,06
750,737	62,14
751,169	62,08
751,601	62,14
752,032	62,03
752,464	62,08
752,896	62,06
753,327	61,93
753,758	61,98
754,19	62,05
754,621	61,97
755,052	62,09
755,483	61,69
755,914	61,96
756,344	61,91
756,775	61,87
757,206	61,84
757,636	61,65
758,066	61,36
758,497	61,71
758,927	61,54
759,357	61,53
759,787	61,71
760,217	61,54
760,647	61,19
761,076	61,76
761,506	61,36
761,935	61,48
762,365	61,33
762,794	61,13
763,223	61,15
763,653	61,61
764,082	61,27
764,51	61,18
764,939	61,1
765,368	61,17
765,797	60,84
766,225	61,07
766,654	60,75
767,082	61,17
767,51	60,99
767,938	61
768,367	60,76
768,795	60,93
769,222	61,02
769,65	60,99
770,078	60,88
770,505	60,43
770,933	60,69
771,36	60,76
771,788	60,61
772,215	60,73
772,642	60,41
773,069	60,51
773,496	60,56
773,923	60,47
774,349	60,48
774,776	60,26
775,203	60,3
775,629	60,38
776,055	60,23
776,482	60,41
776,908	60,46
777,334	60,27
777,76	60,42
778,186	60,22
778,611	60,12
779,037	60,21
779,463	60,23
779,888	60,24
780,314	60,18
780,739	60,37
781,164	59,99
781,589	60,14
782,014	60,18
782,439	60,23
782,864	59,98
783,289	60,23
783,713	60,17
784,138	60,03
784,562	60,06
784,987	59,79
785,411	60,11
785,835	59,92
786,259	59,92
786,683	60,09
787,107	59,94
787,531	59,81
787,954	59,82
788,378	60,17
788,802	60,13
789,225	59,99
789,648	59,82
790,071	59,92
790,495	59,78
790,918	59,95
791,34	60,24
791,763	60
792,186	59,92
792,609	60,03
793,031	60,01
793,454	59,84
793,876	59,72
794,298	59,8
794,721	59,77
795,143	59,9
795,565	59,67
795,986	59,84
796,408	59,8
796,83	59,63
797,252	60,07
797,673	59,72
798,094	59,82
798,516	59,73
798,937	59,73
799,358	59,82
799,779	59,82
800,2	59,86
800,621	59,62
801,042	59,6
801,462	59,69
801,883	59,81
802,303	59,75
802,724	59,62
803,144	60
803,564	59,49
803,984	59,7
804,404	59,65
804,824	59,85
805,244	59,72
805,664	59,87
806,084	59,63
806,503	59,84
806,923	59,44
807,342	59,4
807,761	59,38
808,18	59,78
808,599	59,46
809,018	59,3
809,437	59,66
809,856	59,3
810,275	59,25
810,693	59,57
811,112	59,42
811,53	59,54
811,949	59,77
812,367	59,56
812,785	59,68
813,203	59,44
813,621	59,8
814,039	59,51
814,457	59,1
814,874	59,67
815,292	59,52
815,709	59,24
816,127	59,34
816,544	59,8
816,961	59,72
817,378	59,7
817,795	59,48
818,212	59,77
818,629	59,37
819,046	59,24
819,462	59,41
819,879	59,53
820,295	59,25
820,712	59,52
821,128	59,51
821,544	59,25
821,96	59,47
822,376	59,13
822,792	59,48
823,208	59,24
823,624	59,69
824,039	59,34
824,455	59,44
824,87	59,28
825,286	59,25
825,701	59,44
826,116	59,35
826,531	59,18
826,946	59,29
827,361	59,19
827,776	59,2
828,19	59,12
828,605	59,16
829,02	59,25
829,434	59,18
829,848	59,46
830,263	59,5
830,677	59,37
831,091	59,24
831,505	59,36
831,919	59,18
832,332	58,77
832,746	59,36
833,16	59,48
833,573	59,22
833,987	59,11
834,4	59,09
834,813	58,92
