Data from L5__Relative__2__00174.txt Node

Date: Tue Jan 30 18:11:28 CET 2024
User: diatiterra
Spectrometer: HDX00911
Trigger mode: 0
Integration Time (sec): 6,000000E-3
Scans to average: 3
Nonlinearity correction enabled: true
Boxcar width: 0
Storing dark spectrum: false
XAxis mode: Wavelengths
Number of Pixels in Spectrum: 2068
>>>>>Begin Spectral Data<<<<<
194,468	152,03
195,025	121,9
195,581	123,27
196,138	110,82
196,694	109,15
197,251	87,45
197,807	97,28
198,363	85,12
198,919	84,58
199,474	94,11
200,03	90,57
200,586	82,22
201,141	86,23
201,696	81,36
202,251	82,48
202,806	79,83
203,361	85,84
203,916	86,54
204,471	87,63
205,025	81,37
205,58	85,25
206,134	86,29
206,688	83,12
207,242	83,67
207,796	93,49
208,35	87,97
208,904	86,13
209,457	81,2
210,011	85,23
210,564	87,12
211,117	91,39
211,67	90,8
212,223	84,75
212,776	91,81
213,329	90,99
213,881	87,21
214,434	82,26
214,986	92,51
215,538	90,24
216,09	88,43
216,642	89,5
217,194	83,94
217,746	86,82
218,297	78,08
218,849	89,7
219,4	92,6
219,951	86,78
220,502	87,01
221,053	82,18
221,604	83,32
222,155	88,09
222,705	86,28
223,256	85,32
223,806	89
224,356	84,73
224,906	85,56
225,456	85,5
226,006	83,81
226,556	86,9
227,106	86,97
227,655	82,53
228,204	83,65
228,754	91,63
229,303	82,65
229,852	85,88
230,401	83,96
230,949	91,94
231,498	81,4
232,047	84,42
232,595	86,73
233,143	84,96
233,691	83,49
234,239	80,26
234,787	87,93
235,335	84,61
235,883	86,95
236,43	80,74
236,978	82,72
237,525	79,87
238,072	82,42
238,619	87,4
239,166	82,76
239,713	81,93
240,26	83,94
240,806	84,48
241,353	84,33
241,899	86,12
242,445	85,62
242,991	79,46
243,537	85,2
244,083	84,37
244,629	84,84
245,174	84,39
245,72	86,78
246,265	89,09
246,81	90,74
247,355	85,95
247,9	89,94
248,445	89,03
248,99	88,27
249,534	84,83
250,079	91,2
250,623	79,95
251,168	83,47
251,712	79,82
252,256	79,12
252,8	85,88
253,343	86,32
253,887	78,65
254,43	94,7
254,974	91,38
255,517	84,13
256,06	88,68
256,603	82,52
257,146	93,47
257,689	89,71
258,232	83,55
258,774	82,19
259,317	86,22
259,859	79,7
260,401	91,29
260,943	86,87
261,485	84,36
262,027	86,9
262,569	87,98
263,11	79,87
263,652	84,31
264,193	87,4
264,734	82,95
265,275	89,41
265,816	81,45
266,357	88,75
266,898	83,55
267,438	83,19
267,979	88,45
268,519	83,49
269,059	80,97
269,6	87,12
270,14	85,66
270,68	78,74
271,219	87,49
271,759	87,94
272,298	75,59
272,838	86,28
273,377	79,7
273,916	81,93
274,455	80,62
274,994	89,2
275,533	83,34
276,072	85,76
276,61	79,74
277,149	84,5
277,687	81,23
278,225	81,04
278,763	88,1
279,301	83,7
279,839	85,01
280,377	87,21
280,914	82,63
281,452	82,43
281,989	88,76
282,526	76,57
283,064	91,41
283,601	82,29
284,137	86,23
284,674	85,02
285,211	88,93
285,747	86,3
286,284	87,46
286,82	86,89
287,356	86,64
287,892	86,52
288,428	87,01
288,964	84,23
289,5	81,18
290,035	86,11
290,571	85,11
291,106	86,42
291,641	87,12
292,176	85,24
292,711	85,75
293,246	81,7
293,781	88,38
294,315	82,07
294,85	89,89
295,384	94,86
295,918	81,22
296,453	80,09
296,987	84,8
297,52	88,75
298,054	84,21
298,588	90,16
299,121	88,25
299,655	88,42
300,188	82,1
300,721	79,3
301,254	88,41
301,787	85,38
302,32	87,55
302,853	84,58
303,385	84,45
303,918	89,49
304,45	80,13
304,982	85,24
305,514	88,33
306,046	74,74
306,578	85,14
307,11	80,36
307,641	91,88
308,173	87,75
308,704	88,94
309,236	90,97
309,767	84,69
310,298	81,78
310,829	87,23
311,359	87,14
311,89	90,57
312,421	79,62
312,951	86,35
313,481	84,65
314,012	81,06
314,542	83,16
315,072	84,87
315,601	80,21
316,131	93,29
316,661	82,5
317,19	88,06
317,72	79,83
318,249	83,16
318,778	86,64
319,307	78,25
319,836	86,37
320,365	86,47
320,893	85,94
321,422	84,57
321,95	81,11
322,479	82,46
323,007	82,9
323,535	81,37
324,063	82,82
324,591	86,6
325,118	91,2
325,646	88,41
326,173	82,86
326,701	86,28
327,228	86,68
327,755	91,33
328,282	81,41
328,809	82,68
329,336	82,36
329,862	80,66
330,389	84,35
330,915	81,83
331,441	79,92
331,968	78,68
332,494	77,57
333,02	80,65
333,545	87,48
334,071	83,34
334,597	78,49
335,122	83,6
335,648	80,2
336,173	81,25
336,698	77,61
337,223	81,55
337,748	75,67
338,272	74,04
338,797	77,05
339,322	85,85
339,846	80,49
340,37	78,93
340,894	75,43
341,419	79,96
341,942	74,39
342,466	74,29
342,99	76,25
343,514	75,04
344,037	77,3
344,56	79,99
345,084	69,2
345,607	76,75
346,13	75,21
346,653	72,56
347,175	74,69
347,698	80,24
348,221	67,25
348,743	68,29
349,265	74,37
349,787	73,77
350,309	69,08
350,831	67,18
351,353	66,4
351,875	71,79
352,397	63,73
352,918	73,34
353,439	69,69
353,961	69,98
354,482	65,94
355,003	63,6
355,524	65,89
356,044	66,79
356,565	69,5
357,086	66,21
357,606	69,39
358,126	67,99
358,646	65,29
359,167	63,37
359,687	59,92
360,206	63,79
360,726	66,56
361,246	61,98
361,765	64,13
362,285	62,12
362,804	62,07
363,323	65,8
363,842	63,81
364,361	65,48
364,88	62,03
365,398	59,52
365,917	62,96
366,435	58,66
366,954	59,62
367,472	59,91
367,99	61,93
368,508	57,9
369,026	58,56
369,544	56,25
370,061	57,47
370,579	52,93
371,096	57,62
371,613	57,63
372,131	58,49
372,648	56,26
373,165	53,06
373,681	53,37
374,198	53,16
374,715	52,99
375,231	53,47
375,747	52,75
376,264	50,31
376,78	52,34
377,296	50,31
377,812	50,8
378,327	50,59
378,843	48,63
379,359	49,87
379,874	49,97
380,389	47,43
380,905	47,46
381,42	46,19
381,935	49,58
382,449	44,31
382,964	45,5
383,479	45,35
383,993	44,82
384,508	43,58
385,022	42,11
385,536	42,65
386,05	42,55
386,564	42,71
387,078	42,83
387,592	39,48
388,105	38,25
388,619	38,8
389,132	38,05
389,645	38,01
390,158	36,33
390,671	38,16
391,184	36,09
391,697	35,53
392,21	37,38
392,722	35,73
393,235	35,24
393,747	34,5
394,259	34,8
394,771	35,46
395,283	34,82
395,795	35,34
396,307	34,01
396,818	33,3
397,33	32,02
397,841	31
398,353	31,21
398,864	33,13
399,375	31,71
399,886	29,19
400,397	28,01
400,907	28,32
401,418	27,24
401,928	28,57
402,439	26,93
402,949	26,6
403,459	25,16
403,969	25,66
404,479	25,27
404,989	24,22
405,498	23,97
406,008	23,46
406,517	22,96
407,027	22,07
407,536	20,47
408,045	20,54
408,554	19,24
409,063	19,26
409,572	18,27
410,08	18,19
410,589	17,9
411,097	16,91
411,606	16,58
412,114	16,33
412,622	15,54
413,13	15,93
413,638	15,24
414,145	13,38
414,653	13,87
415,16	13,42
415,668	13,57
416,175	12,94
416,682	11,93
417,189	12,34
417,696	11,78
418,203	11,37
418,71	11,64
419,216	11,89
419,723	11,37
420,229	10,69
420,735	10,62
421,242	10,97
421,748	10,47
422,254	10,47
422,759	10,4
423,265	10,1
423,771	10,08
424,276	9,8
424,781	10,1
425,287	9,49
425,792	10,14
426,297	9,48
426,802	9,57
427,306	9,61
427,811	9,2
428,316	9,41
428,82	9,42
429,324	9,3
429,829	9,25
430,333	9,27
430,837	9,27
431,34	8,8
431,844	9,27
432,348	8,98
432,851	8,79
433,355	9,04
433,858	8,74
434,361	8,92
434,864	8,47
435,367	8,37
435,87	8,72
436,373	8,68
436,876	8,47
437,378	8,52
437,88	8,13
438,383	8,29
438,885	8,51
439,387	8,72
439,889	8,53
440,391	8,29
440,892	8,42
441,394	8,17
441,896	8,55
442,397	8,61
442,898	8,5
443,399	8,11
443,9	7,98
444,401	8,67
444,902	8,07
445,403	8,41
445,903	8,16
446,404	8,33
446,904	8,34
447,405	8,01
447,905	8,18
448,405	8,79
448,905	8,57
449,404	8,21
449,904	8,36
450,404	8,43
450,903	8,64
451,403	8,41
451,902	8,83
452,401	8,6
452,9	8,45
453,399	8,33
453,898	8,73
454,396	8,72
454,895	8,77
455,393	8,84
455,892	8,94
456,39	8,74
456,888	8,76
457,386	8,69
457,884	8,44
458,382	8,92
458,879	8,74
459,377	8,98
459,874	9,05
460,372	8,83
460,869	8,72
461,366	8,59
461,863	8,61
462,36	8,69
462,857	9,09
463,353	8,88
463,85	8,71
464,346	8,55
464,843	8,77
465,339	8,79
465,835	8,81
466,331	8,71
466,827	8,72
467,323	8,65
467,818	8,8
468,314	8,63
468,809	8,64
469,305	8,72
469,8	8,83
470,295	8,49
470,79	8,95
471,285	8,75
471,78	8,84
472,274	8,78
472,769	8,7
473,263	8,9
473,758	8,73
474,252	8,54
474,746	8,72
475,24	8,55
475,734	8,85
476,228	8,63
476,721	8,84
477,215	8,82
477,708	8,96
478,202	8,93
478,695	9,04
479,188	8,96
479,681	8,86
480,174	8,7
480,667	8,91
481,159	8,63
481,652	8,92
482,144	8,97
482,637	8,9
483,129	8,75
483,621	8,88
484,113	8,97
484,605	9
485,097	9,03
485,588	8,9
486,08	9,22
486,571	9,3
487,063	8,9
487,554	9,12
488,045	9,25
488,536	8,91
489,027	9,08
489,518	9,41
490,008	9,34
490,499	9,33
490,989	9,55
491,48	9,65
491,97	9,5
492,46	9,6
492,95	9,67
493,44	9,59
493,93	9,9
494,419	9,79
494,909	9,81
495,398	9,92
495,888	9,87
496,377	10,17
496,866	10,2
497,355	10,31
497,844	10,26
498,333	10,35
498,821	10,7
499,31	10,89
499,798	10,69
500,287	10,86
500,775	11,01
501,263	11,52
501,751	11,53
502,239	11,56
502,727	11,99
503,215	11,97
503,702	12,18
504,19	12,22
504,677	12,64
505,164	12,77
505,651	12,83
506,139	13,05
506,625	13,3
507,112	13,57
507,599	13,7
508,086	14,07
508,572	14,63
509,058	14,59
509,545	14,79
510,031	15,14
510,517	15,53
511,003	16,05
511,489	16,08
511,974	16,51
512,46	16,63
512,946	16,88
513,431	17,24
513,916	17,22
514,401	17,96
514,887	18,57
515,371	18,52
515,856	18,7
516,341	19,43
516,826	20,07
517,31	20,17
517,795	20,34
518,279	20,83
518,763	21,15
519,247	21,75
519,731	22,24
520,215	22,5
520,699	22,92
521,182	23,19
521,666	23,5
522,149	24,01
522,633	24,46
523,116	24,59
523,599	25,33
524,082	25,54
524,565	25,92
525,048	26,44
525,53	26,49
526,013	26,79
526,495	27,41
526,978	27,58
527,46	27,63
527,942	27,98
528,424	28,42
528,906	28,74
529,388	28,59
529,87	29,3
530,351	29,5
530,833	29,56
531,314	29,87
531,795	29,71
532,277	30,38
532,758	30,67
533,238	30,73
533,719	30,87
534,2	30,72
534,681	31,13
535,161	31,38
535,642	31,36
536,122	31,37
536,602	31,78
537,082	31,66
537,562	31,87
538,042	32,06
538,522	31,65
539,001	31,9
539,481	31,93
539,96	32,16
540,44	32,27
540,919	32,07
541,398	32,02
541,877	32,46
542,356	32,55
542,835	32,55
543,313	32,6
543,792	32,8
544,27	32,65
544,749	32,93
545,227	32,76
545,705	32,61
546,183	33
546,661	33,05
547,139	33,04
547,616	32,81
548,094	33,13
548,571	33,07
549,049	33
549,526	33,01
550,003	33,2
550,48	33,07
550,957	33,15
551,434	32,98
551,911	33,36
552,387	33,42
552,864	33,2
553,34	33,34
553,817	33,49
554,293	33,43
554,769	33,71
555,245	33,2
555,721	33,66
556,197	33,17
556,672	33,16
557,148	33,3
557,623	33,22
558,099	33,21
558,574	33,28
559,049	33,02
559,524	33,08
559,999	33,58
560,474	33,05
560,948	32,77
561,423	32,68
561,897	32,62
562,372	32,26
562,846	32,34
563,32	32,38
563,794	32,17
564,268	32,05
564,742	32,02
565,216	31,66
565,69	31,58
566,163	31,45
566,636	31,06
567,11	31,18
567,583	30,83
568,056	30,84
568,529	30,38
569,002	30,23
569,475	30,32
569,947	29,86
570,42	29,69
570,892	29,52
571,365	29,3
571,837	29,12
572,309	28,78
572,781	28,63
573,253	28,38
573,725	28,13
574,197	28,03
574,668	27,92
575,14	27,68
575,611	27,25
576,082	27,12
576,554	27,15
577,025	26,96
577,496	26,43
577,967	26,56
578,437	26,4
578,908	26,22
579,379	26,15
579,849	25,8
580,319	25,67
580,79	25,45
581,26	25,42
581,73	25,22
582,2	25,42
582,669	24,87
583,139	24,78
583,609	24,54
584,078	24,57
584,548	24,46
585,017	24,4
585,486	24,32
585,955	23,87
586,424	24,09
586,893	23,93
587,362	23,7
587,83	23,46
588,299	23,35
588,767	23,48
589,236	23,42
589,704	23,32
590,172	23,45
590,64	23,29
591,108	22,9
591,576	22,73
592,043	22,93
592,511	22,72
592,978	22,63
593,446	22,52
593,913	22,56
594,38	22,41
594,847	22,47
595,314	22,33
595,781	22,3
596,248	22,47
596,715	22,13
597,181	22,42
597,647	22,1
598,114	22,22
598,58	22,06
599,046	21,9
599,512	22,06
599,978	21,76
600,444	21,7
600,91	21,78
601,375	21,72
601,841	21,8
602,306	21,68
602,771	21,6
603,236	21,57
603,702	21,51
604,167	21,32
604,631	21,32
605,096	21,23
605,561	21,18
606,025	21,01
606,49	21,02
606,954	20,84
607,418	20,85
607,882	20,72
608,347	20,62
608,81	20,4
609,274	20,17
609,738	20,24
610,202	20,34
610,665	19,95
611,128	19,87
611,592	19,86
612,055	19,56
612,518	19,46
612,981	19,47
613,444	19,37
613,907	19,22
614,369	19,23
614,832	19,04
615,294	18,69
615,757	18,92
616,219	18,66
616,681	18,62
617,143	18,43
617,605	18,24
618,067	18,27
618,529	18,05
618,99	18,15
619,452	17,93
619,913	18,05
620,375	17,72
620,836	17,82
621,297	17,57
621,758	17,6
622,219	17,52
622,68	17,5
623,14	17,66
623,601	17,55
624,061	17,42
624,522	17,26
624,982	17,17
625,442	17,31
625,902	17,22
626,362	17,14
626,822	17,11
627,282	17,07
627,742	16,97
628,201	17,03
628,661	16,95
629,12	17
629,579	16,96
630,038	17,05
630,497	16,85
630,956	16,95
631,415	16,77
631,874	16,87
632,332	16,84
632,791	16,84
633,249	16,7
633,708	16,56
634,166	16,7
634,624	16,4
635,082	16,3
635,54	16,4
635,998	16,2
636,455	16,2
636,913	16,07
637,37	15,96
637,828	15,75
638,285	15,74
638,742	15,56
639,199	15,41
639,656	15,33
640,113	15,1
640,57	14,99
641,027	14,75
641,483	14,67
641,94	14,37
642,396	14,47
642,852	14,2
643,309	14,01
643,765	13,92
644,221	13,92
644,676	13,68
645,132	13,6
645,588	13,31
646,043	13,18
646,499	13,02
646,954	12,96
647,409	12,74
647,864	12,62
648,319	12,44
648,774	12,4
649,229	12,31
649,684	12,13
650,139	12,14
650,593	11,99
651,047	12,02
651,502	11,77
651,956	11,63
652,41	11,71
652,864	11,6
653,318	11,51
653,772	11,49
654,225	11,52
654,679	11,35
655,133	11,32
655,586	11,21
656,039	11,29
656,492	11,11
656,946	11,07
657,399	10,89
657,851	10,8
658,304	10,77
658,757	10,57
659,209	10,51
659,662	10,45
660,114	10,32
660,567	10,28
661,019	10,17
661,471	10,06
661,923	10,03
662,375	9,89
662,826	9,84
663,278	9,76
663,73	9,56
664,181	9,47
664,632	9,4
665,084	9,37
665,535	9,25
665,986	9,32
666,437	9,18
666,888	9,22
667,338	9,21
667,789	9,15
668,24	9,1
668,69	9,02
669,14	9,06
669,591	9,03
670,041	9,02
670,491	9,07
670,941	9,17
671,391	9,13
671,84	9,15
672,29	9,18
672,74	9,26
673,189	9,3
673,638	9,26
674,088	9,42
674,537	9,53
674,986	9,49
675,435	9,63
675,883	9,69
676,332	9,72
676,781	9,95
677,229	9,91
677,678	10,11
678,126	10,22
678,574	10,32
679,022	10,36
679,47	10,43
679,918	10,67
680,366	10,7
680,814	10,85
681,261	10,86
681,709	11,16
682,156	11,22
682,604	11,46
683,051	11,5
683,498	11,71
683,945	11,86
684,392	12,01
684,839	12,25
685,286	12,41
685,732	12,63
686,179	12,66
686,625	13,02
687,071	13,2
687,518	13,49
687,964	13,83
688,41	14,12
688,856	14,49
689,301	14,89
689,747	15,19
690,193	15,78
690,638	16,19
691,084	16,63
691,529	17,12
691,974	17,67
692,419	18,26
692,864	18,86
693,309	19,5
693,754	20,15
694,199	20,9
694,643	21,46
695,088	22,21
695,532	22,83
695,977	23,57
696,421	24,24
696,865	24,88
697,309	25,55
697,753	26,23
698,197	26,98
698,64	27,62
699,084	28,42
699,527	28,9
699,971	29,55
700,414	30,38
700,857	30,93
701,3	31,3
701,743	31,94
702,186	32,74
702,629	33,2
703,072	33,65
703,515	34,35
703,957	34,79
704,399	35,36
704,842	35,89
705,284	36,41
705,726	37,01
706,168	37,53
706,61	38,06
707,052	38,37
707,494	38,82
707,935	39,46
708,377	39,86
708,818	40,17
709,26	40,72
709,701	41,23
710,142	41,58
710,583	41,87
711,024	42,29
711,465	42,76
711,905	43,14
712,346	43,55
712,787	43,79
713,227	44,05
713,667	44,69
714,108	45,02
714,548	45,41
714,988	45,54
715,428	45,99
715,868	46,38
716,307	46,45
716,747	47,05
717,186	47,19
717,626	47,68
718,065	48,22
718,504	47,99
718,944	48,65
719,383	48,67
719,822	49,05
720,261	49,3
720,699	49,64
721,138	49,65
721,576	49,88
722,015	50,25
722,453	50,69
722,892	50,91
723,33	50,92
723,768	51,38
724,206	51,59
724,644	51,61
725,081	51,85
725,519	51,86
725,957	51,91
726,394	52,18
726,832	52,34
727,269	52,72
727,706	52,81
728,143	53
728,58	53,23
729,017	53,13
729,454	53,46
729,89	53,46
730,327	53,6
730,764	53,87
731,2	54,05
731,636	54,19
732,072	54,16
732,509	54,15
732,945	54,25
733,38	54,55
733,816	54,42
734,252	54,53
734,688	54,2
735,123	54,69
735,559	54,96
735,994	54,93
736,429	54,94
736,864	55,02
737,299	54,58
737,734	54,95
738,169	55,07
738,604	55,19
739,038	55,21
739,473	55,16
739,907	55,21
740,342	55,08
740,776	54,92
741,21	55,33
741,644	55,38
742,078	55,39
742,512	55,19
742,946	55,36
743,379	55,29
743,813	55,3
744,246	55,22
744,68	55,32
745,113	55,27
745,546	55,26
745,979	55,15
746,412	55,12
746,845	55,09
747,278	55,2
747,711	55,31
748,143	55,27
748,576	54,99
749,008	55,2
749,441	54,9
749,873	54,85
750,305	54,94
750,737	54,87
751,169	55,01
751,601	55,01
752,032	55,03
752,464	55,09
752,896	54,94
753,327	54,88
753,758	54,82
754,19	54,7
754,621	54,86
755,052	54,8
755,483	54,59
755,914	54,77
756,344	54,68
756,775	54,92
757,206	54,63
757,636	54,48
758,066	54,57
758,497	54,44
758,927	54,35
759,357	54,46
759,787	54,51
760,217	54,48
760,647	54,28
761,076	54,56
761,506	54,32
761,935	54,07
762,365	54,22
762,794	54,18
763,223	54,13
763,653	54,21
764,082	54,14
764,51	54,2
764,939	54,24
765,368	54,02
765,797	54,24
766,225	53,97
766,654	53,68
767,082	53,97
767,51	53,87
767,938	53,74
768,367	53,68
768,795	53,84
769,222	53,81
769,65	53,85
770,078	53,73
770,505	53,58
770,933	53,58
771,36	53,61
771,788	53,65
772,215	53,68
772,642	53,74
773,069	53,5
773,496	53,47
773,923	53,45
774,349	53,37
774,776	53,43
775,203	53,59
775,629	53,46
776,055	53,56
776,482	53,39
776,908	53,38
777,334	53,29
777,76	53,33
778,186	53,43
778,611	53,19
779,037	53,25
779,463	53,14
779,888	53,18
780,314	53,26
780,739	53,22
781,164	53,13
781,589	53,05
782,014	53,2
782,439	53,27
782,864	53,23
783,289	53,19
783,713	53,13
784,138	52,75
784,562	52,76
784,987	52,99
785,411	53,05
785,835	52,97
786,259	53,24
786,683	53,26
787,107	53,04
787,531	53,01
787,954	53
788,378	53,28
788,802	53,19
789,225	52,98
789,648	52,98
790,071	53,16
790,495	52,58
790,918	52,96
791,34	53
791,763	52,66
792,186	52,99
792,609	52,91
793,031	52,96
793,454	52,81
793,876	52,91
794,298	52,84
794,721	52,73
795,143	52,88
795,565	52,79
795,986	53,06
796,408	52,52
796,83	52,81
797,252	52,86
797,673	52,98
798,094	52,79
798,516	52,73
798,937	53,1
799,358	52,7
799,779	52,82
800,2	52,79
800,621	52,74
801,042	52,86
801,462	52,73
801,883	52,9
802,303	52,75
802,724	52,53
803,144	52,9
803,564	52,61
803,984	52,74
804,404	52,89
804,824	53,02
805,244	52,81
805,664	52,73
806,084	52,71
806,503	52,83
806,923	53,01
807,342	52,59
807,761	52,6
808,18	52,58
808,599	52,66
809,018	52,59
809,437	52,71
809,856	52,62
810,275	52,58
810,693	52,66
811,112	52,6
811,53	52,57
811,949	52,74
812,367	52,48
812,785	52,61
813,203	52,74
813,621	52,81
814,039	52,59
814,457	52,49
814,874	52,53
815,292	52,58
815,709	52,63
816,127	52,76
816,544	52,72
816,961	52,69
817,378	52,74
817,795	52,73
818,212	52,74
818,629	52,72
819,046	52,4
819,462	52,73
819,879	52,61
820,295	52,29
820,712	52,32
821,128	52,67
821,544	52,53
821,96	52,41
822,376	52,44
822,792	52,78
823,208	52,48
823,624	52,74
824,039	52,61
824,455	52,54
824,87	52,83
825,286	52,54
825,701	52,54
826,116	52,3
826,531	52,29
826,946	52,54
827,361	52,3
827,776	52,24
828,19	52,38
828,605	52,53
829,02	52,49
829,434	52,4
829,848	52,57
830,263	52,61
830,677	52,5
831,091	52,42
831,505	52,34
831,919	52,26
832,332	52,29
832,746	52,31
833,16	52,32
833,573	52,24
833,987	52,45
834,4	52,3
834,813	52,08
835,226	52,09
835,639	52,3
836,052	52,45
836,465	52,56
836,878	52,53
837,29	52,5
837,703	52,55
838,116	52,61
838,528	52,1
838,94	52,41
839,352	52,02
