Data from D5__Relative__2__00045.txt Node

Date: Thu Feb 01 16:19:53 CET 2024
User: diatiterra
Spectrometer: HDX00911
Trigger mode: 0
Integration Time (sec): 6,000000E-3
Scans to average: 2
Nonlinearity correction enabled: false
Boxcar width: 0
Storing dark spectrum: false
XAxis mode: Wavelengths
Number of Pixels in Spectrum: 2068
>>>>>Begin Spectral Data<<<<<
194,468	153,85
195,025	75
195,581	116,67
196,138	114,71
196,694	95,6
197,251	74,6
197,807	73,84
198,363	60,95
198,919	60,87
199,474	62,42
200,03	65,91
200,586	61,39
201,141	53,09
201,696	60,12
202,251	64,64
202,806	58,62
203,361	60,66
203,916	60,54
204,471	48,91
205,025	54,59
205,58	59,54
206,134	59,04
206,688	55,5
207,242	62,21
207,796	58,59
208,35	67,44
208,904	64,41
209,457	67,06
210,011	63,19
210,564	61,83
211,117	79,74
211,67	66,29
212,223	66,49
212,776	58,82
213,329	70,05
213,881	62,18
214,434	63
214,986	63,25
215,538	66,3
216,09	58,85
216,642	63,25
217,194	68,24
217,746	72,57
218,297	59,44
218,849	66,28
219,4	51,11
219,951	66,86
220,502	66,86
221,053	63,1
221,604	70,41
222,155	65,78
222,705	63,16
223,256	57,3
223,806	55,43
224,356	54,12
224,906	63,64
225,456	55,61
226,006	65,57
226,556	52,97
227,106	62,8
227,655	60,21
228,204	51,41
228,754	68,39
229,303	61,18
229,852	55,56
230,401	70,37
230,949	63,84
231,498	65,43
232,047	62,78
232,595	66,67
233,143	64,21
233,691	60,99
234,239	62,3
234,787	56,98
235,335	66,86
235,883	53,68
236,43	61,94
236,978	62,77
237,525	54,77
238,072	56,67
238,619	54,27
239,166	60,29
239,713	62,01
240,26	62,57
240,806	58,9
241,353	54,65
241,899	63,74
242,445	49,11
242,991	57,84
243,537	49,67
244,083	57,69
244,629	56
245,174	56,32
245,72	51,4
246,265	47,12
246,81	62,5
247,355	52,2
247,9	54,71
248,445	59,87
248,99	58,89
249,534	53,37
250,079	57,83
250,623	51,63
251,168	54,6
251,712	58,82
252,256	56,52
252,8	51,41
253,343	55,49
253,887	53,55
254,43	62,5
254,974	54,19
255,517	53,67
256,06	58,52
256,603	61,8
257,146	55,8
257,689	48,68
258,232	62,43
258,774	61,9
259,317	54,4
259,859	53,4
260,401	55,06
260,943	54,78
261,485	67,03
262,027	59,26
262,569	62,25
263,11	55,93
263,652	59,89
264,193	52,27
264,734	56,73
265,275	46,35
265,816	48,11
266,357	58,2
266,898	53,03
267,438	60,13
267,979	51,14
268,519	60,12
269,059	65,06
269,6	56,83
270,14	56,12
270,68	58,9
271,219	56,32
271,759	69,23
272,298	60,54
272,838	52,63
273,377	69,83
273,916	70,47
274,455	66,67
274,994	62,78
275,533	64,67
276,072	70,66
276,61	56,21
277,149	60
277,687	63,25
278,225	64,71
278,763	61,27
279,301	63,83
279,839	63,3
280,377	57,76
280,914	54,64
281,452	53,63
281,989	64,71
282,526	59,49
283,064	68,75
283,601	54,49
284,137	63,8
284,674	64,61
285,211	60,75
285,747	65,33
286,284	65,29
286,82	60,94
287,356	51,55
287,892	61,88
288,428	56,9
288,964	56,99
289,5	59,54
290,035	66,48
290,571	62,96
291,106	55,06
291,641	58,72
292,176	59,68
292,711	61,05
293,246	55,43
293,781	54,7
294,315	52,04
294,85	59,35
295,384	72,25
295,918	65,96
296,453	58,92
296,987	54,1
297,52	58,7
298,054	63,22
298,588	67,68
299,121	60,89
299,655	57,65
300,188	72
300,721	61,49
301,254	64,02
301,787	56,99
302,32	58,55
302,853	64,8
303,385	56,52
303,918	73,71
304,45	61,73
304,982	58,76
305,514	53,72
306,046	55,98
306,578	64,17
307,11	60,77
307,641	53,85
308,173	61,8
308,704	71,02
309,236	58,88
309,767	59,47
310,298	66,67
310,829	60
311,359	54,11
311,89	66,67
312,421	55,14
312,951	60,57
313,481	54,71
314,012	61,46
314,542	49,47
315,072	59,67
315,601	74,03
316,131	62,23
316,661	67,05
317,19	68,21
317,72	54,82
318,249	68,33
318,778	57,82
319,307	69,79
319,836	58,76
320,365	60,32
320,893	55,96
321,422	66,67
321,95	57,29
322,479	72,12
323,007	61,24
323,535	68,79
324,063	55,93
324,591	58,73
325,118	57,53
325,646	65,43
326,173	69,95
326,701	51,79
327,228	61,26
327,755	63,45
328,282	67,04
328,809	61,76
329,336	54,73
329,862	52,57
330,389	51,55
330,915	56,99
331,441	54,39
331,968	62,36
332,494	59,18
333,02	53,07
333,545	53,97
334,071	45,13
334,597	50
335,122	57,45
335,648	50
336,173	57,3
336,698	57,98
337,223	57,75
337,748	46,77
338,272	47,34
338,797	56,83
339,322	56,76
339,846	58,06
340,37	44,81
340,894	46,27
341,419	51,72
341,942	42,86
342,466	52,85
342,99	52,36
343,514	47,06
344,037	47,34
344,56	54,07
345,084	48,76
345,607	50,49
346,13	40,85
346,653	50,93
347,175	55,5
347,698	48,24
348,221	46,48
348,743	45,8
349,265	49,26
349,787	36,1
350,309	43,72
350,831	46,03
351,353	39,81
351,875	48,18
352,397	43,1
352,918	38,33
353,439	45,99
353,961	38,58
354,482	39,15
355,003	40,33
355,524	39,92
356,044	44,4
356,565	37,8
357,086	36,7
357,606	33,62
358,126	42,91
358,646	41,26
359,167	33,91
359,687	39,03
360,206	37,78
360,726	40,08
361,246	40
361,765	36,59
362,285	42,38
362,804	39,21
363,323	35,11
363,842	40,49
364,361	33,94
364,88	36,57
365,398	38,6
365,917	35,49
366,435	35,67
366,954	34,2
367,472	37,34
367,99	28,57
368,508	28
369,026	38,46
369,544	28,62
370,061	28,49
370,579	33,02
371,096	30,3
371,613	36,18
372,131	27,25
372,648	30,77
373,165	34,25
373,681	30,12
374,198	30,66
374,715	27,07
375,231	33,67
375,747	27,51
376,264	29,24
376,78	29,7
377,296	25,72
377,812	27,34
378,327	24,56
378,843	25,32
379,359	29,01
379,874	28,78
380,389	20,09
380,905	22,58
381,42	26,44
381,935	22,6
382,449	21,69
382,964	22,04
383,479	22,63
383,993	24,43
384,508	23,31
385,022	23,79
385,536	22,3
386,05	25,24
386,564	21,14
387,078	23,12
387,592	19,35
388,105	16,86
388,619	20,32
389,132	19,84
389,645	17,76
390,158	22,08
390,671	20,12
391,184	17,67
391,697	20,93
392,21	17,99
392,722	19,26
393,235	17,17
393,747	16,47
394,259	20,7
394,771	17,46
395,283	16,75
395,795	18,3
396,307	16,08
396,818	16,32
397,33	16,6
397,841	17,4
398,353	16,12
398,864	17,72
399,375	13,25
399,886	14,8
400,397	15,48
400,907	15,27
401,418	14,16
401,928	14,15
402,439	13,08
402,949	12,59
403,459	13,25
403,969	13,29
404,479	12,34
404,989	12,3
405,498	9,46
406,008	11,13
406,517	10,77
407,027	11,1
407,536	10,38
408,045	10,28
408,554	10,14
409,063	10,26
409,572	8,25
410,08	8,7
410,589	9,15
411,097	7,19
411,606	7,07
412,114	7,28
412,622	7,33
413,13	7,97
413,638	7,35
414,145	6,65
414,653	7,22
415,16	6,22
415,668	6,43
416,175	6,07
416,682	6,15
417,189	6,35
417,696	5,59
418,203	6,02
418,71	5,86
419,216	6,03
419,723	5,92
420,229	4,95
420,735	5,42
421,242	5,32
421,748	4,88
422,254	5,16
422,759	4,29
423,265	5,22
423,771	5,45
424,276	4,49
424,781	5,26
425,287	4,56
425,792	5,25
426,297	4,75
426,802	4,64
427,306	4,86
427,811	4,57
428,316	4,7
428,82	4,4
429,324	4,55
429,829	4,84
430,333	4,33
430,837	3,87
431,34	4,49
431,844	3,72
432,348	3,94
432,851	3,89
433,355	3,79
433,858	3,97
434,361	4,21
434,864	4,01
435,367	3,96
435,87	4
436,373	3,84
436,876	4,25
437,378	3,74
437,88	3,73
438,383	3,9
438,885	3,82
439,387	3,74
439,889	3,65
440,391	3,63
440,892	3,96
441,394	3,56
441,896	3,98
442,397	4,13
442,898	3,52
443,399	3,72
443,9	3,68
444,401	4,03
444,902	4
445,403	4,11
445,903	3,77
446,404	3,79
446,904	3,99
447,405	3,55
447,905	4,02
448,405	3,53
448,905	3,35
449,404	3,85
449,904	3,64
450,404	3,63
450,903	3,59
451,403	3,66
451,902	3,75
452,401	3,71
452,9	4
453,399	3,81
453,898	3,78
454,396	3,67
454,895	3,56
455,393	3,72
455,892	3,81
456,39	3,58
456,888	3,26
457,386	3,82
457,884	3,64
458,382	3,16
458,879	3,74
459,377	3,86
459,874	3,93
460,372	3,84
460,869	3,51
461,366	3,38
461,863	3,71
462,36	3,8
462,857	3,37
463,353	3,47
463,85	3,63
464,346	3,55
464,843	3,68
465,339	3,53
465,835	3,77
466,331	3,82
466,827	3,58
467,323	3,26
467,818	3,69
468,314	3,68
468,809	3,49
469,305	3,33
469,8	3,42
470,295	3,5
470,79	3,37
471,285	3,44
471,78	3,43
472,274	3,47
472,769	3,29
473,263	3,43
473,758	3,24
474,252	3,84
474,746	3,76
475,24	3,52
475,734	3,44
476,228	3,32
476,721	3,52
477,215	3,77
477,708	3,38
478,202	3,88
478,695	3,57
479,188	3,45
479,681	3,47
480,174	3,62
480,667	3,48
481,159	3,53
481,652	3,57
482,144	3,37
482,637	3,43
483,129	3,51
483,621	3,72
484,113	3,57
484,605	3,62
485,097	3,61
485,588	3,71
486,08	3,65
486,571	3,35
487,063	3,7
487,554	3,55
488,045	3,78
488,536	3,51
489,027	3,22
489,518	3,6
490,008	3,5
490,499	3,51
490,989	3,7
491,48	3,85
491,97	3,65
492,46	3,56
492,95	3,59
493,44	3,81
493,93	3,69
494,419	3,53
494,909	3,89
495,398	3,56
495,888	3,82
496,377	3,63
496,866	3,84
497,355	4
497,844	3,72
498,333	3,86
498,821	3,83
499,31	3,95
499,798	4,09
500,287	3,91
500,775	3,84
501,263	4,15
501,751	4,14
502,239	4,26
502,727	4,17
503,215	4,44
503,702	4,22
504,19	4,37
504,677	4,41
505,164	4,29
505,651	4,3
506,139	4,54
506,625	5,11
507,112	4,66
507,599	4,76
508,086	5,07
508,572	5
509,058	5,2
509,545	5,11
510,031	5,61
510,517	5,51
511,003	5,49
511,489	5,68
511,974	5,6
512,46	5,96
512,946	6,03
513,431	6,09
513,916	6,5
514,401	6,38
514,887	6,75
515,371	6,71
515,856	7,03
516,341	6,9
516,826	7,43
517,31	7,44
517,795	7,62
518,279	7,86
518,763	7,85
519,247	8,07
519,731	8,28
520,215	8,55
520,699	8,72
521,182	8,94
521,666	9,1
522,149	9,21
522,633	9,2
523,116	9,58
523,599	9,84
524,082	10,32
524,565	10,5
525,048	10,55
525,53	10,94
526,013	10,78
526,495	11,36
526,978	11,07
527,46	11,68
527,942	11,89
528,424	11,96
528,906	11,99
529,388	12,17
529,87	12,33
530,351	12,81
530,833	12,97
531,314	12,79
531,795	13,2
532,277	13,01
532,758	13,01
533,238	13,64
533,719	13,4
534,2	13,56
534,681	13,8
535,161	13,93
535,642	14,11
536,122	14,1
536,602	14,23
537,082	14,03
537,562	14,2
538,042	14,14
538,522	14,51
539,001	14,45
539,481	13,72
539,96	14,25
540,44	14,4
540,919	14,53
541,398	14,56
541,877	14,57
542,356	14,56
542,835	14,49
543,313	14,76
543,792	14,92
544,27	14,59
544,749	14,81
545,227	14,68
545,705	15,03
546,183	14,85
546,661	14,99
547,139	15,07
547,616	15,33
548,094	15,26
548,571	15,07
549,049	15,45
549,526	15,06
550,003	15,39
550,48	15,34
550,957	15,01
551,434	15,67
551,911	15,39
552,387	15,03
552,864	14,94
553,34	15,39
553,817	15,75
554,293	15,55
554,769	14,86
555,245	15,43
555,721	15,23
556,197	15,35
556,672	15,48
557,148	14,7
557,623	15,09
558,099	14,85
558,574	14,98
559,049	14,97
559,524	14,75
559,999	14,69
560,474	14,89
560,948	14,69
561,423	14,43
561,897	14,47
562,372	14,33
562,846	14,36
563,32	14,02
563,794	14,03
564,268	14,17
564,742	14,16
565,216	14,03
565,69	14,04
566,163	13,83
566,636	13,86
567,11	13,62
567,583	13,42
568,056	13,21
568,529	13,26
569,002	12,87
569,475	13,11
569,947	12,55
570,42	12,4
570,892	12,48
571,365	12,44
571,837	12,35
572,309	11,99
572,781	11,93
573,253	11,89
573,725	11,72
574,197	11,45
574,668	11,27
575,14	11,26
575,611	11,02
576,082	10,96
576,554	10,81
577,025	10,65
577,496	10,73
577,967	10,48
578,437	10,51
578,908	10,51
579,379	10,36
579,849	10,43
580,319	10,21
580,79	10
581,26	9,88
581,73	10,07
582,2	9,75
582,669	9,93
583,139	9,59
583,609	9,55
584,078	9,31
584,548	9,29
585,017	9,07
585,486	9,3
585,955	9,21
586,424	9,34
586,893	9,26
587,362	9,03
587,83	9
588,299	8,82
588,767	9,12
589,236	8,95
589,704	8,74
590,172	8,76
590,64	8,58
591,108	8,54
591,576	8,53
592,043	8,42
592,511	8,66
592,978	8,26
593,446	8,53
593,913	8,34
594,38	8,41
594,847	8,47
595,314	8,47
595,781	8,08
596,248	8,54
596,715	8,19
597,181	8,33
597,647	8
598,114	8,49
598,58	8,16
599,046	8,08
599,512	8,11
599,978	8,08
600,444	8,03
600,91	8,14
601,375	8,01
601,841	7,99
602,306	7,88
602,771	7,93
603,236	7,83
603,702	7,89
604,167	7,85
604,631	7,8
605,096	7,81
605,561	7,76
606,025	7,67
606,49	7,78
606,954	7,49
607,418	7,47
607,882	7,46
608,347	7,49
608,81	7,44
609,274	7,38
609,738	7,33
610,202	7,16
610,665	7,23
611,128	7,06
611,592	7,24
612,055	7,11
612,518	6,91
612,981	6,95
613,444	6,77
613,907	6,84
614,369	6,71
614,832	6,74
615,294	6,9
615,757	6,61
616,219	6,48
616,681	6,61
617,143	6,42
617,605	6,44
618,067	6,43
618,529	6,53
618,99	6,13
619,452	6,38
619,913	6,29
620,375	6,07
620,836	6,21
621,297	6,08
621,758	6,16
622,219	6,17
622,68	6,01
623,14	6,03
623,601	6,02
624,061	6,02
624,522	5,89
624,982	6,1
625,442	5,87
625,902	5,86
626,362	5,97
626,822	5,95
627,282	5,96
627,742	5,85
628,201	5,78
628,661	5,87
629,12	5,93
629,579	5,81
630,038	5,87
630,497	5,9
630,956	5,76
631,415	5,69
631,874	5,87
632,332	5,78
632,791	5,69
633,249	5,76
633,708	5,75
634,166	5,57
634,624	5,63
635,082	5,64
635,54	5,47
635,998	5,41
636,455	5,44
636,913	5,46
637,37	5,37
637,828	5,32
638,285	5,37
638,742	5,16
639,199	5,22
639,656	5,18
640,113	5,07
640,57	5,04
641,027	4,97
641,483	4,94
641,94	5
642,396	4,87
642,852	4,64
643,309	4,69
643,765	4,51
644,221	4,64
644,676	4,6
645,132	4,47
645,588	4,42
646,043	4,33
646,499	4,37
646,954	4,32
647,409	4,26
647,864	4,22
648,319	4,32
648,774	4,22
649,229	4,12
649,684	4,1
650,139	4,13
650,593	4,07
651,047	4,06
651,502	3,97
651,956	3,97
652,41	4,02
652,864	4,05
653,318	3,96
653,772	3,96
654,225	3,89
654,679	3,88
655,133	3,76
655,586	3,95
656,039	3,86
656,492	3,88
656,946	3,83
657,399	3,79
657,851	3,81
658,304	3,84
658,757	3,69
659,209	3,82
659,662	3,71
660,114	3,78
660,567	3,66
661,019	3,65
661,471	3,67
661,923	3,54
662,375	3,56
662,826	3,64
663,278	3,59
663,73	3,53
664,181	3,61
664,632	3,58
665,084	3,61
665,535	3,45
665,986	3,5
666,437	3,57
666,888	3,51
667,338	3,54
667,789	3,65
668,24	3,65
668,69	3,57
669,14	3,67
669,591	3,7
670,041	3,71
670,491	3,76
670,941	3,74
671,391	3,81
671,84	3,7
672,29	3,91
672,74	3,8
673,189	4,04
673,638	3,96
674,088	3,94
674,537	4,14
674,986	4,14
675,435	4,21
675,883	4,22
676,332	4,23
676,781	4,37
677,229	4,34
677,678	4,41
678,126	4,51
678,574	4,58
679,022	4,66
679,47	4,72
679,918	4,76
680,366	4,79
680,814	4,92
681,261	4,91
681,709	5,04
682,156	5,14
682,604	5,08
683,051	5,12
683,498	5,23
683,945	5,32
684,392	5,23
684,839	5,4
685,286	5,43
685,732	5,42
686,179	5,45
686,625	5,55
687,071	5,63
687,518	5,61
687,964	5,76
688,41	5,62
688,856	5,76
689,301	5,91
689,747	5,95
690,193	6,15
690,638	6,32
691,084	6,33
691,529	6,52
691,974	6,83
692,419	6,92
692,864	7,29
693,309	7,52
693,754	7,85
694,199	8,05
694,643	8,48
695,088	8,69
695,532	9,08
695,977	9,24
696,421	9,62
696,865	10,06
697,309	10,6
697,753	10,86
698,197	11,38
698,64	11,71
699,084	12,09
699,527	12,52
699,971	13,03
700,414	13,63
700,857	13,98
701,3	14,16
701,743	14,75
702,186	15,09
702,629	15,71
703,072	16,23
703,515	16,72
703,957	17,05
704,399	17,3
704,842	17,94
705,284	18,61
705,726	18,66
706,168	19,32
706,61	19,75
707,052	20,21
707,494	20,64
707,935	21,22
708,377	21,44
708,818	21,93
709,26	22,25
709,701	22,61
710,142	23,14
710,583	23,73
711,024	23,86
711,465	24,24
711,905	24,9
712,346	25,07
712,787	25,49
713,227	26,05
713,667	26,52
714,108	26,87
714,548	27,39
714,988	27,61
715,428	28,19
715,868	28,67
716,307	28,64
716,747	29,08
717,186	29,68
717,626	30,1
718,065	30,45
718,504	30,81
718,944	31,19
719,383	31,67
719,822	31,7
720,261	32,07
720,699	32,38
721,138	32,93
721,576	33,12
722,015	33,42
722,453	34,05
722,892	34
723,33	34,39
723,768	34,8
724,206	34,72
724,644	35,61
725,081	35,37
725,519	35,7
725,957	35,8
726,394	36,14
726,832	36,69
727,269	36,78
727,706	37,06
728,143	37,37
728,58	37,22
729,017	37,52
729,454	37,78
729,89	37,95
730,327	38,06
730,764	38,22
731,2	38,68
731,636	38,53
732,072	38,64
732,509	38,88
732,945	39,28
733,38	38,79
733,816	39,56
734,252	39,55
734,688	39,66
735,123	39,9
735,559	39,87
735,994	40,01
736,429	40,07
736,864	40,21
737,299	40,21
737,734	41,12
738,169	40,31
738,604	40,6
739,038	40,71
739,473	41,06
739,907	40,47
740,342	40,86
740,776	40,94
741,21	40,91
741,644	41,04
742,078	41,01
742,512	40,63
742,946	41,09
743,379	41,23
743,813	41
744,246	41,02
744,68	40,99
745,113	40,63
745,546	41,37
745,979	41,18
746,412	41,47
746,845	41,13
747,278	41,57
747,711	41,07
748,143	41,12
748,576	41,21
749,008	41,14
749,441	41,28
749,873	41,05
750,305	41,28
750,737	41,14
751,169	40,54
751,601	41,34
752,032	41,27
752,464	40,9
752,896	40,78
753,327	41
753,758	40,95
754,19	41,04
754,621	41
755,052	40,86
755,483	40,96
755,914	41,04
756,344	40,77
756,775	40,83
757,206	40,73
757,636	40,56
758,066	40,56
758,497	40,86
758,927	40,67
759,357	40,61
759,787	40,6
760,217	40,61
760,647	40,83
761,076	40,17
761,506	40,38
761,935	40,56
762,365	40,56
762,794	40,58
763,223	40,74
763,653	40,34
764,082	40,45
764,51	40,24
764,939	40,35
765,368	40,5
765,797	40,16
766,225	40,42
766,654	40,47
767,082	40,37
767,51	40,17
767,938	39,77
768,367	40,23
768,795	40,04
769,222	40,15
769,65	40,23
770,078	40,03
770,505	39,89
770,933	40,06
771,36	40,14
771,788	40,34
772,215	39,89
772,642	39,96
773,069	39,82
773,496	39,57
773,923	39,73
774,349	39,73
774,776	39,77
775,203	40,02
775,629	40,11
776,055	39,9
776,482	39,72
776,908	39,73
777,334	39,54
777,76	39,5
778,186	39,67
778,611	39,52
779,037	39,55
779,463	39,53
779,888	39,51
780,314	39,47
780,739	39,35
781,164	39,75
781,589	39,52
782,014	39,35
782,439	39,58
782,864	39,43
783,289	39,28
783,713	39,44
784,138	39,05
784,562	39,34
784,987	39,6
785,411	39,51
785,835	39,22
786,259	39,19
786,683	39,3
787,107	39,14
787,531	39,27
787,954	39,1
788,378	39,43
788,802	39,16
789,225	39,3
789,648	39,1
790,071	39,08
790,495	39,16
790,918	39,37
791,34	39,45
791,763	39,03
792,186	39,09
792,609	39,03
793,031	39,14
793,454	38,93
793,876	39,25
794,298	39,3
794,721	39,13
795,143	38,78
795,565	39,3
795,986	39,04
796,408	38,85
796,83	39,35
797,252	39,01
797,673	38,94
798,094	39,14
798,516	39,15
798,937	39,29
799,358	39,13
799,779	39,36
800,2	38,67
800,621	38,69
801,042	39,25
801,462	38,76
801,883	39,05
802,303	38,97
802,724	38,65
803,144	39,07
803,564	38,63
803,984	39,23
804,404	38,74
804,824	39,2
805,244	38,81
805,664	38,67
806,084	38,97
806,503	38,99
806,923	38,96
807,342	38,8
807,761	38,82
808,18	39
808,599	39,13
809,018	38,71
809,437	39,08
809,856	38,65
810,275	39,01
810,693	38,84
811,112	38,75
811,53	38,76
811,949	39,02
812,367	38,99
812,785	38,49
813,203	38,82
813,621	38,92
814,039	38,91
814,457	38,66
814,874	38,78
815,292	38,97
815,709	38,96
816,127	38,91
816,544	38,65
816,961	38,56
817,378	38,81
817,795	38,58
818,212	38,39
818,629	38,58
819,046	38,69
819,462	38,45
819,879	38,68
820,295	38,68
820,712	38,18
821,128	38,56
821,544	38,85
821,96	38,62
822,376	38,8
822,792	38,68
823,208	38,68
823,624	38,48
824,039	38,45
824,455	38,88
824,87	38,92
825,286	38,77
825,701	38,93
826,116	38,47
826,531	38,85
826,946	38,8
827,361	38,37
827,776	38,66
828,19	38,36
828,605	38,44
829,02	38,69
829,434	38,62
829,848	38,51
830,263	38,44
830,677	38,37
831,091	38,46
831,505	38,92
831,919	38,81
832,332	38,42
832,746	38,69
833,16	38,24
833,573	38,16
833,987	39,01
834,4	38,81
834,813	38,56
835,226	38,43
835,639	38,52
836,052	38,58
836,465	38,27
836,878	38,68
837,29	38,71
837,703	38,53
838,116	38,39
838,528	38,34
838,94	38,03
839,352	38,39
839,765	37,92
840,177	38,4
840,589	38,49
841	38,33
841,412	38,27
841,824	38,51
842,235	38,3
842,647	38,49
843,058	38,24
843,47	38,46
843,881	38,51
844,292	38,7
844,703	38,39
845,114	38,23
845,525	38,32
845,935	38,2
846,346	38,51
846,757	38,28
847,167	38,05
847,577	38,28
847,988	38,49
