Data from F5__Relative__2__00075.txt Node

Date: Thu Feb 01 16:23:14 CET 2024
User: diatiterra
Spectrometer: HDX00911
Trigger mode: 0
Integration Time (sec): 6,000000E-3
Scans to average: 2
Nonlinearity correction enabled: false
Boxcar width: 0
Storing dark spectrum: false
XAxis mode: Wavelengths
Number of Pixels in Spectrum: 2068
>>>>>Begin Spectral Data<<<<<
194,468	189,23
195,025	115,28
195,581	130,3
196,138	123,53
196,694	121,98
197,251	85,71
197,807	70,35
198,363	69,82
198,919	60,33
199,474	74,52
200,03	78,98
200,586	76,58
201,141	65,46
201,696	69,36
202,251	69,06
202,806	70,11
203,361	75,41
203,916	74,59
204,471	77,17
205,025	69,19
205,58	72,83
206,134	69,15
206,688	76,96
207,242	72,09
207,796	66,16
208,35	80,23
208,904	69,49
209,457	69,41
210,011	86,5
210,564	68,28
211,117	80,39
211,67	82,02
212,223	77,32
212,776	64,71
213,329	74,87
213,881	63,73
214,434	82,5
214,986	79,52
215,538	86,96
216,09	77,6
216,642	85,54
217,194	78,24
217,746	85,14
218,297	68,89
218,849	81,4
219,4	66,67
219,951	81,71
220,502	72,19
221,053	80,95
221,604	85,8
222,155	72,73
222,705	73,1
223,256	82,58
223,806	77,71
224,356	64,43
224,906	82,42
225,456	63,1
226,006	68,85
226,556	76,22
227,106	68,9
227,655	69,63
228,204	80,79
228,754	74,14
229,303	78,82
229,852	78,89
230,401	75,93
230,949	72,32
231,498	72,87
232,047	78,89
232,595	72,99
233,143	75,26
233,691	67,58
234,239	66,67
234,787	79,65
235,335	81,98
235,883	67,89
236,43	79,35
236,978	79,79
237,525	72,36
238,072	73,89
238,619	76,22
239,166	75,98
239,713	67,04
240,26	78,36
240,806	82,21
241,353	69,19
241,899	71,98
242,445	72,19
242,991	61,62
243,537	69,93
244,083	80,22
244,629	68
245,174	68,97
245,72	70,39
246,265	69,63
246,81	76,7
247,355	74,73
247,9	70,59
248,445	80,25
248,99	66,67
249,534	77,53
250,079	69,28
250,623	67,93
251,168	73,56
251,712	75,88
252,256	77,02
252,8	68,93
253,343	78,57
253,887	65,03
254,43	64,77
254,974	65,92
255,517	76,84
256,06	78,41
256,603	75,84
257,146	69,06
257,689	67,72
258,232	73,02
258,774	76,79
259,317	74,18
259,859	63,87
260,401	71,91
260,943	84,08
261,485	75,14
262,027	69,31
262,569	78,81
263,11	73,45
263,652	75,27
264,193	63,64
264,734	66,08
265,275	67,71
265,816	70,27
266,357	67,2
266,898	63,64
267,438	78,48
267,979	69,89
268,519	67,26
269,059	68,07
269,6	74,86
270,14	68,88
270,68	88,36
271,219	74,14
271,759	82,69
272,298	76,76
272,838	72,51
273,377	82,12
273,916	89,26
274,455	78,97
274,994	75,56
275,533	71,86
276,072	82,63
276,61	81,07
277,149	81,76
277,687	69,88
278,225	91,76
278,763	72,83
279,301	78,72
279,839	75
280,377	70,19
280,914	66,49
281,452	76,54
281,989	77,65
282,526	79,11
283,064	77,5
283,601	76,97
284,137	79,75
284,674	74,16
285,211	74,73
285,747	83,42
286,284	74,12
286,82	63,02
287,356	70,1
287,892	79,01
288,428	74,71
288,964	79,03
289,5	75,14
290,035	75
290,571	73,54
291,106	70,79
291,641	75
292,176	76,34
292,711	75,58
293,246	67,93
293,781	73,48
294,315	64,29
294,85	76,13
295,384	77,46
295,918	67,55
296,453	76,22
296,987	68,31
297,52	76,09
298,054	80,46
298,588	78,66
299,121	68,16
299,655	68,82
300,188	75,33
300,721	82,61
301,254	78,31
301,787	70,97
302,32	73,06
302,853	76,54
303,385	73,91
303,918	79,43
304,45	69,39
304,982	71,19
305,514	69,68
306,046	75
306,578	71,66
307,11	66,3
307,641	71,98
308,173	70,79
308,704	76,14
309,236	60,91
309,767	73,16
310,298	73,58
310,829	72,5
311,359	67,15
311,89	73,68
312,421	70,27
312,951	76,57
313,481	75,88
314,012	58,85
314,542	72,34
315,072	76,8
315,601	85,71
316,131	65,43
316,661	80,11
317,19	61,27
317,72	72,89
318,249	72,78
318,778	82,99
319,307	76,56
319,836	74,01
320,365	66,67
320,893	78,76
321,422	68,45
321,95	59,38
322,479	87,88
323,007	80,34
323,535	68,21
324,063	71,19
324,591	76,72
325,118	68,28
325,646	69,15
326,173	77,6
326,701	66,15
327,228	64,4
327,755	76,65
328,282	79,33
328,809	77,65
329,336	67,16
329,862	74,29
330,389	63,4
330,915	67,88
331,441	74,27
331,968	83,15
332,494	69,39
333,02	77,09
333,545	65,61
334,071	63,08
334,597	67,98
335,122	67,55
335,648	70,19
336,173	75,68
336,698	66,49
337,223	66,84
337,748	59,2
338,272	63,83
338,797	64,48
339,322	67,03
339,846	65,05
340,37	66,67
340,894	60,2
341,419	72,99
341,942	64,55
342,466	75,65
342,99	66,49
343,514	62,75
344,037	69,15
344,56	63,16
345,084	58,71
345,607	60,19
346,13	59,15
346,653	63,08
347,175	64,11
347,698	62,81
348,221	63,85
348,743	63,45
349,265	59,11
349,787	55,61
350,309	51,01
350,831	57,74
351,353	56,87
351,875	56,68
352,397	56,47
352,918	65
353,439	57,38
353,961	55,91
354,482	52,77
355,003	51,03
355,524	53,09
356,044	62,24
356,565	47,15
357,086	50,56
357,606	44,26
358,126	52,87
358,646	49,81
359,167	55,22
359,687	47,96
360,206	52,59
360,726	51,36
361,246	49,06
361,765	50,36
362,285	47,96
362,804	48,92
363,323	46,45
363,842	48,24
364,361	45,26
364,88	44,01
365,398	56,84
365,917	43,83
366,435	54,33
366,954	45,93
367,472	48,1
367,99	48,05
368,508	53,67
369,026	49,04
369,544	45,28
370,061	44,81
370,579	45,99
371,096	39,67
371,613	45,01
372,131	44,06
372,648	41,88
373,165	43,84
373,681	44,58
374,198	43,84
374,715	39,6
375,231	40,76
375,747	39,15
376,264	40,99
376,78	43,15
377,296	36,54
377,812	41,27
378,327	38,1
378,843	38,62
379,359	35,38
379,874	39,7
380,389	34,09
380,905	34,41
381,42	36,22
381,935	35,18
382,449	33,06
382,964	29,73
383,479	32,51
383,993	32,51
384,508	33,83
385,022	33,46
385,536	30,09
386,05	32,58
386,564	33,04
387,078	33,51
387,592	28,42
388,105	27,44
388,619	25,44
389,132	28,44
389,645	28
390,158	27,34
390,671	26,83
391,184	24,4
391,697	28,65
392,21	22,39
392,722	24,7
393,235	24,83
393,747	24,31
394,259	25,21
394,771	25,65
395,283	23,88
395,795	23,2
396,307	21,98
396,818	20,57
397,33	22,65
397,841	23,48
398,353	21,21
398,864	20,27
399,375	22,05
399,886	18,93
400,397	21,13
400,907	19,8
401,418	18,73
401,928	19,85
402,439	18,88
402,949	15,99
403,459	17,33
403,969	18,16
404,479	16,4
404,989	15,38
405,498	14,85
406,008	15,67
406,517	15,05
407,027	14,32
407,536	12,96
408,045	14,76
408,554	13,19
409,063	13,43
409,572	11,97
410,08	11,38
410,589	11,37
411,097	10,79
411,606	11,51
412,114	10,71
412,622	10,64
413,13	10,29
413,638	9,19
414,145	8,82
414,653	9,11
415,16	9,09
415,668	9,12
416,175	8,69
416,682	8,04
417,189	7,96
417,696	8,02
418,203	8,11
418,71	7,77
419,216	8,04
419,723	7,69
420,229	6,17
420,735	7,56
421,242	6,76
421,748	6,96
422,254	6,62
422,759	6,58
423,265	6,73
423,771	6,77
424,276	6,52
424,781	7,11
425,287	6,54
425,792	6,53
426,297	5,92
426,802	5,74
427,306	5,93
427,811	6,6
428,316	6,1
428,82	6,29
429,324	6,22
429,829	6,23
430,333	6,21
430,837	5,71
431,34	5,71
431,844	5,49
432,348	6,02
432,851	5,58
433,355	5,78
433,858	5,6
434,361	5,68
434,864	5,74
435,367	5,7
435,87	5,67
436,373	5,7
436,876	5,72
437,378	5,23
437,88	5,22
438,383	4,9
438,885	5,19
439,387	5,13
439,889	5,06
440,391	4,98
440,892	5,3
441,394	5,45
441,896	5,13
442,397	5,44
442,898	4,78
443,399	4,93
443,9	4,66
444,401	4,79
444,902	5,16
445,403	5,31
445,903	5
446,404	5,02
446,904	5,02
447,405	5,05
447,905	5,04
448,405	4,96
448,905	4,93
449,404	5,02
449,904	5,33
450,404	5,29
450,903	5,43
451,403	4,89
451,902	5,14
452,401	5,24
452,9	5,36
453,399	5,13
453,898	5,2
454,396	5,31
454,895	4,97
455,393	5,48
455,892	5,49
456,39	5,15
456,888	4,9
457,386	5,59
457,884	5,34
458,382	5,19
458,879	5,19
459,377	5,5
459,874	5,28
460,372	5,09
460,869	5,29
461,366	5,18
461,863	5,35
462,36	5,3
462,857	5,26
463,353	4,96
463,85	5,04
464,346	5,15
464,843	4,86
465,339	4,93
465,835	5,35
466,331	5,42
466,827	5,28
467,323	5,12
467,818	5,16
468,314	5,39
468,809	4,92
469,305	5,23
469,8	5,33
470,295	5,34
470,79	5,17
471,285	5,15
471,78	5,18
472,274	5,08
472,769	5
473,263	5,33
473,758	4,89
474,252	5,41
474,746	5,17
475,24	5,12
475,734	5,15
476,228	5,24
476,721	5,5
477,215	5,41
477,708	5,34
478,202	5,17
478,695	5,23
479,188	5,39
479,681	5,23
480,174	5,03
480,667	5,21
481,159	5,29
481,652	5,1
482,144	5,12
482,637	5,22
483,129	4,97
483,621	5,07
484,113	5,28
484,605	5,49
485,097	5,43
485,588	5,3
486,08	5,24
486,571	5,44
487,063	5,09
487,554	5,4
488,045	5,39
488,536	5,08
489,027	5,33
489,518	5,42
490,008	5,26
490,499	5,58
490,989	5,52
491,48	5,57
491,97	5,55
492,46	5,77
492,95	5,58
493,44	5,64
493,93	5,94
494,419	5,69
494,909	5,91
495,398	6,04
495,888	5,79
496,377	6,19
496,866	6,19
497,355	6,47
497,844	6,3
498,333	6,46
498,821	6,33
499,31	6,46
499,798	6,85
500,287	6,66
500,775	6,78
501,263	6,98
501,751	6,69
502,239	7,32
502,727	7,55
503,215	7,28
503,702	7,68
504,19	7,43
504,677	7,81
505,164	7,97
505,651	7,82
506,139	8,17
506,625	8,45
507,112	8,51
507,599	8,42
508,086	8,88
508,572	8,86
509,058	9,21
509,545	9,32
510,031	9,68
510,517	9,74
511,003	9,96
511,489	9,98
511,974	10,52
512,46	10,88
512,946	10,8
513,431	11,27
513,916	11,32
514,401	11,29
514,887	12,01
515,371	12,23
515,856	12,12
516,341	12,34
516,826	12,85
517,31	13,2
517,795	13,6
518,279	13,8
518,763	13,59
519,247	13,95
519,731	14,43
520,215	14,96
520,699	14,84
521,182	15,36
521,666	15,55
522,149	15,57
522,633	16,23
523,116	16,61
523,599	16,84
524,082	17,16
524,565	17,34
525,048	17,74
525,53	17,9
526,013	18,12
526,495	18,18
526,978	17,79
527,46	18,76
527,942	18,99
528,424	18,99
528,906	19,38
529,388	18,81
529,87	19,75
530,351	19,33
530,833	20,03
531,314	20,14
531,795	20,37
532,277	20,11
532,758	20,63
533,238	20,41
533,719	20,79
534,2	21,07
534,681	21,01
535,161	21,04
535,642	21,23
536,122	21,52
536,602	21,37
537,082	21,38
537,562	21,47
538,042	21,81
538,522	21,51
539,001	21,83
539,481	21,15
539,96	21,98
540,44	22,01
540,919	21,81
541,398	22,01
541,877	21,83
542,356	21,46
542,835	21,95
543,313	22,13
543,792	22,37
544,27	22,29
544,749	22,07
545,227	21,93
545,705	22,42
546,183	22,12
546,661	22,26
547,139	22,21
547,616	22,22
548,094	22,43
548,571	22,39
549,049	22,54
549,526	22,61
550,003	22,46
550,48	22,37
550,957	22,35
551,434	22,41
551,911	23,16
552,387	22,64
552,864	22,78
553,34	22,73
553,817	22,33
554,293	22,41
554,769	22,94
555,245	22,78
555,721	22,38
556,197	22,27
556,672	22,5
557,148	22,42
557,623	22,24
558,099	22,4
558,574	22,3
559,049	22,15
559,524	22,2
559,999	22,43
560,474	22,36
560,948	22,07
561,423	21,57
561,897	22,01
562,372	21,9
562,846	21,93
563,32	21,5
563,794	21,91
564,268	21,34
564,742	21,35
565,216	21,54
565,69	21,46
566,163	20,99
566,636	21,33
567,11	20,81
567,583	20,71
568,056	20,67
568,529	20,21
569,002	20,27
569,475	20,04
569,947	19,97
570,42	19,44
570,892	19,25
571,365	19,43
571,837	19,16
572,309	18,61
572,781	18,98
573,253	18,7
573,725	18,66
574,197	18,24
574,668	18,39
575,14	18,23
575,611	18,33
576,082	18,25
576,554	17,91
577,025	17,58
577,496	17,19
577,967	17,38
578,437	17,37
578,908	17,29
579,379	16,94
579,849	16,61
580,319	16,7
580,79	16,58
581,26	16,35
581,73	16,55
582,2	16,28
582,669	16,3
583,139	16,12
583,609	16,11
584,078	15,83
584,548	16
585,017	15,58
585,486	15,67
585,955	15,56
586,424	15,78
586,893	15,67
587,362	15,44
587,83	15,25
588,299	15,3
588,767	15,26
589,236	14,9
589,704	14,84
590,172	15,02
590,64	14,87
591,108	14,57
591,576	14,8
592,043	14,45
592,511	14,65
592,978	14,16
593,446	14,43
593,913	14,41
594,38	14,42
594,847	14,42
595,314	14,21
595,781	14,31
596,248	14,17
596,715	14,03
597,181	14,02
597,647	14,14
598,114	14,08
598,58	14
599,046	14
599,512	13,91
599,978	13,64
600,444	13,99
600,91	13,94
601,375	13,72
601,841	13,91
602,306	13,87
602,771	13,62
603,236	13,81
603,702	13,64
604,167	13,67
604,631	13,57
605,096	13,71
605,561	13,49
606,025	13,36
606,49	13,32
606,954	13,23
607,418	13,32
607,882	13,01
608,347	13,06
608,81	13,04
609,274	13,05
609,738	12,93
610,202	12,88
610,665	12,96
611,128	12,64
611,592	12,54
612,055	12,58
612,518	12,62
612,981	12,26
613,444	12,29
613,907	12,23
614,369	12,08
614,832	12
615,294	12,02
615,757	11,97
616,219	11,71
616,681	11,71
617,143	11,66
617,605	11,73
618,067	11,37
618,529	11,6
618,99	11,23
619,452	11,41
619,913	11,22
620,375	11,31
620,836	11,33
621,297	11,25
621,758	11
622,219	11,1
622,68	11,15
623,14	11,06
623,601	11,08
624,061	10,85
624,522	10,9
624,982	10,79
625,442	10,78
625,902	10,78
626,362	10,56
626,822	10,7
627,282	10,78
627,742	10,72
628,201	10,73
628,661	10,71
629,12	10,71
629,579	10,55
630,038	10,6
630,497	10,58
630,956	10,78
631,415	10,49
631,874	10,6
632,332	10,51
632,791	10,36
633,249	10,46
633,708	10,43
634,166	10,48
634,624	10,27
635,082	10,22
635,54	10,09
635,998	9,95
636,455	9,97
636,913	9,89
637,37	9,78
637,828	9,8
638,285	9,56
638,742	9,63
639,199	9,55
639,656	9,27
640,113	9,09
640,57	8,99
641,027	8,84
641,483	8,93
641,94	8,7
642,396	8,66
642,852	8,59
643,309	8,39
643,765	8,29
644,221	8,18
644,676	8,21
645,132	7,91
645,588	7,91
646,043	7,81
646,499	7,76
646,954	7,74
647,409	7,5
647,864	7,51
648,319	7,33
648,774	7,18
649,229	7,21
649,684	7,18
650,139	7,08
650,593	7,09
651,047	7,08
651,502	6,95
651,956	6,89
652,41	6,82
652,864	6,73
653,318	6,89
653,772	6,79
654,225	6,72
654,679	6,7
655,133	6,77
655,586	6,63
656,039	6,66
656,492	6,59
656,946	6,42
657,399	6,49
657,851	6,58
658,304	6,47
658,757	6,34
659,209	6,37
659,662	6,27
660,114	6,28
660,567	6,09
661,019	6,1
661,471	6,02
661,923	6
662,375	5,95
662,826	5,84
663,278	5,74
663,73	5,68
664,181	5,68
664,632	5,77
665,084	5,68
665,535	5,72
665,986	5,59
666,437	5,59
666,888	5,46
667,338	5,47
667,789	5,58
668,24	5,51
668,69	5,66
669,14	5,42
669,591	5,63
670,041	5,58
670,491	5,55
670,941	5,68
671,391	5,69
671,84	5,61
672,29	5,71
672,74	5,75
673,189	5,81
673,638	5,87
674,088	5,93
674,537	6,17
674,986	6,04
675,435	6,2
675,883	6,35
676,332	6,34
676,781	6,45
677,229	6,69
677,678	6,75
678,126	6,6
678,574	6,73
679,022	6,91
679,47	7,07
679,918	7,2
680,366	7,29
680,814	7,37
681,261	7,57
681,709	7,65
682,156	7,6
682,604	7,85
683,051	8
683,498	8,07
683,945	8,29
684,392	8,28
684,839	8,52
685,286	8,79
685,732	8,67
686,179	8,96
686,625	8,95
687,071	9,16
687,518	9,29
687,964	9,46
688,41	9,78
688,856	9,94
689,301	10,26
689,747	10,3
690,193	10,73
690,638	11,1
691,084	11,2
691,529	11,65
691,974	12
692,419	12,41
692,864	12,77
693,309	13,15
693,754	13,63
694,199	14,05
694,643	14,36
695,088	14,94
695,532	15,34
695,977	15,83
696,421	16,31
696,865	16,78
697,309	17,27
697,753	17,85
698,197	18,34
698,64	18,73
699,084	19,18
699,527	19,6
699,971	19,8
700,414	20,5
700,857	21,24
701,3	21,48
701,743	21,76
702,186	22,59
702,629	22,81
703,072	23,21
703,515	23,8
703,957	24,23
704,399	24,49
704,842	24,8
705,284	25,31
705,726	25,79
706,168	26
706,61	26,68
707,052	27,03
707,494	27,07
707,935	27,63
708,377	28,22
708,818	28,36
709,26	28,79
709,701	29,06
710,142	29,46
710,583	29,84
711,024	29,94
711,465	30,25
711,905	31,1
712,346	31,04
712,787	31,38
713,227	32,03
713,667	32,14
714,108	32,56
714,548	32,84
714,988	33,1
715,428	33,48
715,868	33,67
716,307	33,98
716,747	34,2
717,186	34,58
717,626	34,9
718,065	35,59
718,504	35,33
718,944	35,97
719,383	36,26
719,822	36,13
720,261	36,36
720,699	36,54
721,138	37,21
721,576	37,09
722,015	37,46
722,453	37,45
722,892	37,61
723,33	37,95
723,768	38,2
724,206	38,54
724,644	38,82
725,081	38,95
725,519	39,09
725,957	39,31
726,394	39,61
726,832	39,73
727,269	39,87
727,706	39,93
728,143	40,08
728,58	40,19
729,017	40,19
729,454	40,42
729,89	40,7
730,327	41,13
730,764	40,61
731,2	41,05
731,636	41,32
732,072	41,04
732,509	41,46
732,945	41,53
733,38	41,4
733,816	41,59
734,252	41,63
734,688	41,69
735,123	42,06
735,559	41,93
735,994	42,02
736,429	41,97
736,864	42,01
737,299	42,08
737,734	42,61
738,169	42,52
738,604	42,42
739,038	42,55
739,473	42,39
739,907	42,61
740,342	42,6
740,776	42,78
741,21	42,24
741,644	42,52
742,078	42,77
742,512	42,18
742,946	42,5
743,379	42,54
743,813	42,56
744,246	42,61
744,68	42,86
745,113	42,48
745,546	42,66
745,979	42,25
746,412	43
746,845	42,77
747,278	42,97
747,711	43
748,143	42,53
748,576	42,38
749,008	42,43
749,441	42,43
749,873	42,4
750,305	42,58
750,737	42,42
751,169	42,02
751,601	42,5
752,032	42,39
752,464	42,03
752,896	41,91
753,327	42,14
753,758	42,15
754,19	42,63
754,621	42,22
755,052	41,76
755,483	42,22
755,914	41,86
756,344	42,04
756,775	42,08
757,206	41,85
757,636	41,73
758,066	41,92
758,497	41,72
758,927	42
759,357	41,71
759,787	41,69
760,217	41,53
760,647	41,62
761,076	41,21
761,506	41,77
761,935	41,52
762,365	41,61
762,794	41,85
763,223	41,54
763,653	41,35
764,082	41,49
764,51	41,16
764,939	41,33
765,368	41,46
765,797	41,07
766,225	41,2
766,654	41,04
767,082	41,19
767,51	41,1
767,938	41,03
768,367	41,32
768,795	40,91
769,222	41,28
769,65	41,27
770,078	40,92
770,505	40,81
770,933	40,76
771,36	40,96
771,788	40,89
772,215	40,86
772,642	40,61
773,069	40,49
773,496	40,5
773,923	40,61
774,349	40,81
774,776	40,41
775,203	40,63
775,629	40,73
776,055	40,34
776,482	40,41
776,908	40,58
777,334	40,62
777,76	40,46
778,186	40,72
778,611	40,8
779,037	40,23
779,463	40,45
779,888	40,56
780,314	40,07
780,739	40,14
781,164	40,52
781,589	40,19
782,014	39,98
782,439	40,25
782,864	40,59
783,289	40,03
783,713	40,25
784,138	40,03
784,562	40,17
784,987	40,24
785,411	40,6
785,835	40,32
786,259	39,62
786,683	40,04
787,107	40,11
787,531	40,24
787,954	40,09
788,378	40,06
788,802	40,15
789,225	39,85
789,648	39,95
790,071	40,07
790,495	39,94
790,918	40,37
791,34	39,85
791,763	39,92
792,186	40,07
792,609	39,7
793,031	39,56
793,454	39,95
793,876	40,05
794,298	40,13
794,721	39,83
795,143	39,93
795,565	40,07
795,986	39,74
796,408	39,93
796,83	39,85
797,252	39,91
797,673	40,11
798,094	39,64
798,516	40,29
798,937	39,97
799,358	39,67
799,779	39,72
800,2	39,47
800,621	39,82
801,042	39,8
801,462	39,5
801,883	39,67
802,303	39,85
802,724	39,56
803,144	39,68
803,564	39,69
803,984	39,71
804,404	39,73
804,824	39,75
805,244	39,51
805,664	39,55
806,084	39,55
806,503	39,66
806,923	39,87
807,342	39,77
807,761	39,19
808,18	39,83
808,599	39,78
809,018	39,63
809,437	39,49
809,856	39,83
810,275	39,38
810,693	39,73
811,112	39,24
811,53	39,62
811,949	39,46
812,367	40,03
812,785	39,68
813,203	39,41
813,621	39,4
814,039	39,41
814,457	39,4
814,874	39,71
815,292	39,5
815,709	39,53
816,127	39,12
816,544	39,71
816,961	39,41
817,378	39,77
817,795	39,38
818,212	39,22
818,629	39,47
819,046	39,79
819,462	39,67
819,879	39,58
820,295	39,42
820,712	39,43
821,128	39,21
821,544	39,3
821,96	39,09
822,376	39,27
822,792	39,41
823,208	39,24
823,624	39,45
824,039	39,04
824,455	39,31
824,87	39,45
825,286	39,86
825,701	39,38
826,116	39,17
826,531	39,5
826,946	39,27
827,361	39,15
827,776	38,99
828,19	39
828,605	39,21
829,02	39,21
829,434	39,2
829,848	39,31
830,263	39,28
830,677	39,63
831,091	39,34
831,505	39,79
831,919	38,98
832,332	38,93
832,746	39,42
833,16	39,21
833,573	38,9
833,987	39,4
834,4	38,78
834,813	39,24
835,226	39,09
835,639	39,12
836,052	38,94
836,465	39,31
836,878	39,07
837,29	38,98
837,703	38,88
838,116	39,2
838,528	39,32
838,94	39,07
839,352	39,33
839,765	38,93
840,177	38,98
840,589	39,1
841	38,81
841,412	38,65
841,824	39,04
842,235	38,9
842,647	38,8
843,058	39,26
843,47	39,19
