Data from I2__Relative__3__00106.txt Node

Date: Thu Feb 01 16:27:46 CET 2024
User: diatiterra
Spectrometer: HDX00911
Trigger mode: 0
Integration Time (sec): 6,000000E-3
Scans to average: 2
Nonlinearity correction enabled: false
Boxcar width: 0
Storing dark spectrum: false
XAxis mode: Wavelengths
Number of Pixels in Spectrum: 2068
>>>>>Begin Spectral Data<<<<<
194,468	220
195,025	123,61
195,581	136,36
196,138	125
196,694	120,88
197,251	118,25
197,807	86,63
198,363	85,21
198,919	70,11
199,474	78,34
200,03	80,68
200,586	74,05
201,141	72,68
201,696	86,71
202,251	74,03
202,806	81,03
203,361	78,14
203,916	98,38
204,471	75,54
205,025	81,62
205,58	75,14
206,134	77,13
206,688	73,3
207,242	83,14
207,796	75,76
208,35	91,86
208,904	76,27
209,457	80
210,011	93,25
210,564	81,18
211,117	111,76
211,67	88,76
212,223	89,18
212,776	80,21
213,329	81,28
213,881	81,87
214,434	82
214,986	92,77
215,538	88,59
216,09	83,85
216,642	100
217,194	94,71
217,746	90,29
218,297	86,11
218,849	86,05
219,4	80,56
219,951	88,57
220,502	89,94
221,053	82,74
221,604	93,49
222,155	83,42
222,705	88,3
223,256	87,64
223,806	89,14
224,356	70,62
224,906	92,12
225,456	83,42
226,006	82,51
226,556	82,7
227,106	92,68
227,655	82,72
228,204	88,7
228,754	93,1
229,303	85,29
229,852	84,44
230,401	90,74
230,949	85,31
231,498	86,7
232,047	80,56
232,595	82,18
233,143	83,68
233,691	79,12
234,239	79,78
234,787	70,35
235,335	82,56
235,883	87,89
236,43	101,29
236,978	82,98
237,525	74,37
238,072	73,89
238,619	87,2
239,166	78,92
239,713	78,77
240,26	94,15
240,806	93,87
241,353	77,91
241,899	76,37
242,445	78,7
242,991	74,59
243,537	86,93
244,083	84,62
244,629	76,5
245,174	82,76
245,72	76,54
246,265	83,25
246,81	82,39
247,355	85,16
247,9	90
248,445	91,08
248,99	77,78
249,534	84,83
250,079	94,58
250,623	79,35
251,168	93,68
251,712	86,47
252,256	84,47
252,8	84,75
253,343	85,16
253,887	75,41
254,43	81,82
254,974	78,77
255,517	80,79
256,06	85,8
256,603	76,97
257,146	68,51
257,689	77,25
258,232	75,13
258,774	98,81
259,317	80,22
259,859	81,15
260,401	83,15
260,943	95,54
261,485	76,22
262,027	82,54
262,569	92,05
263,11	78,53
263,652	90,11
264,193	93,75
264,734	67,84
265,275	77,6
265,816	78,38
266,357	76,72
266,898	65,15
267,438	87,97
267,979	86,36
268,519	77,38
269,059	92,17
269,6	80,33
270,14	73,47
270,68	80,14
271,219	82,18
271,759	94,87
272,298	84,32
272,838	79,53
273,377	83,24
273,916	97,99
274,455	82,56
274,994	84,44
275,533	88,02
276,072	81,44
276,61	81,07
277,149	90
277,687	79,52
278,225	88,82
278,763	90,75
279,301	75
279,839	84,04
280,377	90,06
280,914	80,93
281,452	87,15
281,989	85,88
282,526	95,57
283,064	82,5
283,601	87,08
284,137	90,8
284,674	85,39
285,211	94,09
285,747	72,86
286,284	77,65
286,82	70,31
287,356	77,32
287,892	86,19
288,428	83,91
288,964	84,95
289,5	78,61
290,035	81,82
290,571	75,66
291,106	83,71
291,641	84,88
292,176	93,01
292,711	88,37
293,246	82,61
293,781	87,29
294,315	76,53
294,85	83,23
295,384	94,22
295,918	81,38
296,453	89,73
296,987	79,23
297,52	87,5
298,054	90,23
298,588	85,37
299,121	88,27
299,655	92,35
300,188	92,67
300,721	95,03
301,254	84,66
301,787	81,18
302,32	82,9
302,853	93,3
303,385	77,72
303,918	92,57
304,45	87,24
304,982	85,31
305,514	93,62
306,046	82,07
306,578	88,77
307,11	85,08
307,641	90,66
308,173	96,07
308,704	93,75
309,236	76,14
309,767	78,42
310,298	87,42
310,829	79,5
311,359	81,64
311,89	95,32
312,421	85,41
312,951	87,43
313,481	91,18
314,012	80,21
314,542	85,64
315,072	83,98
315,601	96,75
316,131	84,04
316,661	97,73
317,19	91,91
317,72	84,34
318,249	85
318,778	100,68
319,307	81,77
319,836	91,53
320,365	76,19
320,893	90,16
321,422	98,21
321,95	85,94
322,479	92,12
323,007	90,45
323,535	90,75
324,063	90,4
324,591	89,42
325,118	88,17
325,646	90,43
326,173	92,35
326,701	73,33
327,228	85,86
327,755	82,74
328,282	86,59
328,809	100,59
329,336	81,09
329,862	98,86
330,389	75,77
330,915	84,46
331,441	99,42
331,968	89,89
332,494	87,76
333,02	81,56
333,545	75,66
334,071	82,05
334,597	80,9
335,122	76,6
335,648	79,33
336,173	85,41
336,698	85,11
337,223	82,35
337,748	75,62
338,272	77,13
338,797	79,78
339,322	78,38
339,846	80,65
340,37	68,31
340,894	62,69
341,419	85,06
341,942	77,78
342,466	72,54
342,99	84,29
343,514	72,55
344,037	72,34
344,56	69,86
345,084	73,13
345,607	66,99
346,13	78,4
346,653	77,57
347,175	77,51
347,698	69,85
348,221	74,65
348,743	65,13
349,265	68,97
349,787	58,05
350,309	59,51
350,831	69,46
351,353	71,56
351,875	71,66
352,397	62,07
352,918	70,42
353,439	65,4
353,961	63,39
354,482	73,19
355,003	67,49
355,524	62,55
356,044	65,15
356,565	57,32
357,086	62,92
357,606	57,45
358,126	63,6
358,646	60,59
359,167	62,61
359,687	63,2
360,206	64,07
360,726	63,42
361,246	64,53
361,765	58,33
362,285	65,43
362,804	60,07
363,323	54,26
363,842	66,2
364,361	60,22
364,88	55,34
365,398	53,68
365,917	51,85
366,435	56,67
366,954	55,37
367,472	54,75
367,99	54,87
368,508	59,33
369,026	54,17
369,544	51,89
370,061	52,23
370,579	52,78
371,096	49,59
371,613	56,13
372,131	51,59
372,648	51,57
373,165	52,88
373,681	53,92
374,198	58,17
374,715	53,28
375,231	51,14
375,747	54,76
376,264	51,7
376,78	48,48
377,296	43,27
377,812	49,11
378,327	53,38
378,843	52,17
379,359	51,65
379,874	52,11
380,389	43,57
380,905	43,87
381,42	48,89
381,935	44,78
382,449	43,6
382,964	42
383,479	43
383,993	47,2
384,508	41,92
385,022	45,45
385,536	40,35
386,05	46,52
386,564	39,96
387,078	42,83
387,592	39,9
388,105	37,36
388,619	36
389,132	35,78
389,645	37,28
390,158	39,62
390,671	38,11
391,184	36,47
391,697	38,34
392,21	36,13
392,722	34
393,235	34,87
393,747	32,55
394,259	36,06
394,771	34,92
395,283	35,22
395,795	32,86
396,307	31,66
396,818	32,26
397,33	32,69
397,841	34,06
398,353	31,39
398,864	33,01
399,375	29,29
399,886	29,82
400,397	29,71
400,907	27,09
401,418	26,52
401,928	27,73
402,439	25,78
402,949	24,82
403,459	26,41
403,969	24,8
404,479	21,89
404,989	21,61
405,498	22,07
406,008	21,39
406,517	20,63
407,027	19,5
407,536	20,54
408,045	19,24
408,554	19,42
409,063	18,6
409,572	17,11
410,08	17,16
410,589	15,34
411,097	14,55
411,606	14,94
412,114	15,02
412,622	14,16
413,13	13,33
413,638	12,38
414,145	12,19
414,653	11,73
415,16	12,24
415,668	11,97
416,175	11,43
416,682	12,17
417,189	11,76
417,696	11,35
418,203	10,95
418,71	10,86
419,216	10,52
419,723	10,02
420,229	10,23
420,735	10,24
421,242	9,9
421,748	9,8
422,254	9,23
422,759	9,4
423,265	9,21
423,771	9,69
424,276	9,2
424,781	9,45
425,287	8,19
425,792	9
426,297	8,91
426,802	8,79
427,306	8,85
427,811	8,54
428,316	8,81
428,82	8,45
429,324	8,69
429,829	8,17
430,333	8,24
430,837	8,16
431,34	8,33
431,844	8,22
432,348	8,07
432,851	7,82
433,355	7,65
433,858	8,34
434,361	8
434,864	8,52
435,367	8,17
435,87	7,79
436,373	7,65
436,876	8,52
437,378	7,35
437,88	7,83
438,383	7,51
438,885	7,82
439,387	7,78
439,889	7,81
440,391	7,46
440,892	8
441,394	7,36
441,896	7,59
442,397	7,37
442,898	7,52
443,399	7,82
443,9	7,55
444,401	7,66
444,902	7,83
445,403	7,88
445,903	7,51
446,404	7,98
446,904	8,04
447,405	7,75
447,905	7,78
448,405	7,77
448,905	7,76
449,404	8,28
449,904	8,31
450,404	8,35
450,903	7,76
451,403	8,24
451,902	8,08
452,401	8,41
452,9	8,32
453,399	8,44
453,898	8,44
454,396	8,81
454,895	8,27
455,393	7,97
455,892	8,91
456,39	8,69
456,888	8,08
457,386	9,03
457,884	8,63
458,382	8,44
458,879	8,93
459,377	8,57
459,874	8,82
460,372	8,45
460,869	8,52
461,366	8,77
461,863	8,83
462,36	8,43
462,857	8,34
463,353	8,48
463,85	8,3
464,346	8,74
464,843	8,97
465,339	8,6
465,835	8,59
466,331	8,83
466,827	8,47
467,323	8,56
467,818	8,46
468,314	8,43
468,809	8,4
469,305	8,55
469,8	8,19
470,295	8,69
470,79	8,39
471,285	8,65
471,78	8,4
472,274	8,82
472,769	8,13
473,263	8,77
473,758	8,46
474,252	8,79
474,746	8,8
475,24	8,42
475,734	8,34
476,228	8,43
476,721	8,41
477,215	8,65
477,708	8,43
478,202	8,51
478,695	9,04
479,188	8,7
479,681	8,99
480,174	8,41
480,667	8,98
481,159	8,99
481,652	8,6
482,144	8,61
482,637	9,09
483,129	8,47
483,621	9,06
484,113	8,56
484,605	9,01
485,097	8,65
485,588	9,16
486,08	8,97
486,571	9
487,063	9,09
487,554	9,13
488,045	9,17
488,536	8,79
489,027	9,18
489,518	9,44
490,008	9,1
490,499	9,19
490,989	9,12
491,48	9,5
491,97	9,77
492,46	9,59
492,95	9,79
493,44	9,92
493,93	9,95
494,419	10,06
494,909	9,87
495,398	10,35
495,888	10,25
496,377	10,23
496,866	10,76
497,355	10,69
497,844	10,55
498,333	10,68
498,821	10,81
499,31	10,95
499,798	11,33
500,287	11,4
500,775	11,88
501,263	11,83
501,751	11,73
502,239	12,12
502,727	12,46
503,215	12,29
503,702	12,64
504,19	12,66
504,677	12,77
505,164	13,26
505,651	13,12
506,139	13,79
506,625	14,09
507,112	13,81
507,599	14,42
508,086	14,81
508,572	14,42
509,058	14,95
509,545	15,3
510,031	15,67
510,517	15,94
511,003	15,92
511,489	16,11
511,974	16,13
512,46	17,33
512,946	16,86
513,431	17,33
513,916	17,87
514,401	17,34
514,887	18,49
515,371	19,05
515,856	18,85
516,341	18,74
516,826	19,43
517,31	19,55
517,795	20,18
518,279	20,06
518,763	20,65
519,247	20,9
519,731	21,57
520,215	22,26
520,699	21,94
521,182	22,81
521,666	22,83
522,149	22,64
522,633	23,34
523,116	23,34
523,599	23,95
524,082	23,76
524,565	24,83
525,048	24,53
525,53	24,92
526,013	25,44
526,495	25,5
526,978	25,49
527,46	25,66
527,942	26,11
528,424	26,59
528,906	26,7
529,388	26,46
529,87	27,07
530,351	27,92
530,833	26,98
531,314	27,94
531,795	28
532,277	27,85
532,758	28,08
533,238	27,57
533,719	28,27
534,2	28,38
534,681	28,21
535,161	28,7
535,642	28,44
536,122	28,94
536,602	28,74
537,082	28,58
537,562	29,53
538,042	28,99
538,522	29,51
539,001	29,43
539,481	28,64
539,96	29,49
540,44	29,39
540,919	29,13
541,398	29,72
541,877	29,47
542,356	29,56
542,835	29,23
543,313	29,51
543,792	29,66
544,27	30,1
544,749	29,3
545,227	30,25
545,705	29,87
546,183	29,58
546,661	30,16
547,139	29,96
547,616	29,53
548,094	30,25
548,571	29,85
549,049	30,09
549,526	30,21
550,003	29,92
550,48	30,46
550,957	29,83
551,434	29,64
551,911	30,53
552,387	30,45
552,864	30,18
553,34	30,13
553,817	30,4
554,293	30,07
554,769	30,3
555,245	30,52
555,721	30,42
556,197	30,21
556,672	30,94
557,148	30,66
557,623	30,49
558,099	30,41
558,574	29,96
559,049	29,9
559,524	30,46
559,999	30,33
560,474	30,18
560,948	30,06
561,423	29,56
561,897	29,86
562,372	29,66
562,846	29,97
563,32	29,55
563,794	30,04
564,268	29,03
564,742	29,15
565,216	29,35
565,69	29,48
566,163	28,92
566,636	29,06
567,11	28,69
567,583	28,63
568,056	28,69
568,529	28,11
569,002	28,48
569,475	28,12
569,947	27,93
570,42	28,16
570,892	27,76
571,365	27,17
571,837	27,31
572,309	26,94
572,781	27,21
573,253	26,87
573,725	26,92
574,197	26,54
574,668	26,36
575,14	26,36
575,611	26,09
576,082	26,1
576,554	25,72
577,025	25,28
577,496	25,98
577,967	25,64
578,437	24,96
578,908	24,92
579,379	25,25
579,849	24,79
580,319	24,66
580,79	24,56
581,26	24,38
581,73	24,32
582,2	24,11
582,669	24,4
583,139	24,03
583,609	23,89
584,078	23,41
584,548	23,72
585,017	23,51
585,486	23,29
585,955	23,45
586,424	23,29
586,893	23,4
587,362	23,18
587,83	23
588,299	23,07
588,767	22,98
589,236	22,61
589,704	22,89
590,172	22,78
590,64	22,43
591,108	22,57
591,576	22,33
592,043	22,26
592,511	22,33
592,978	21,99
593,446	22,03
593,913	22,31
594,38	21,73
594,847	22,13
595,314	22,02
595,781	21,88
596,248	21,82
596,715	21,95
597,181	22
597,647	21,66
598,114	21,77
598,58	21,81
599,046	21,58
599,512	21,84
599,978	21,23
600,444	21,48
600,91	21,6
601,375	21,29
601,841	21,44
602,306	21,51
602,771	21,54
603,236	21,41
603,702	21,14
604,167	20,94
604,631	21,07
605,096	20,99
605,561	21,19
606,025	20,89
606,49	20,74
606,954	20,81
607,418	20,64
607,882	20,64
608,347	20,76
608,81	20,69
609,274	20,38
609,738	20,32
610,202	20,24
610,665	19,94
611,128	19,95
611,592	19,79
612,055	19,97
612,518	20,02
612,981	19,76
613,444	19,67
613,907	19,64
614,369	19,55
614,832	19,19
615,294	19,3
615,757	18,96
616,219	18,95
616,681	19,09
617,143	19,04
617,605	18,85
618,067	18,73
618,529	18,9
618,99	18,36
619,452	18,65
619,913	18,29
620,375	18,41
620,836	18,63
621,297	18,19
621,758	17,87
622,219	17,97
622,68	18,24
623,14	17,94
623,601	18,14
624,061	18,04
624,522	17,86
624,982	17,89
625,442	17,9
625,902	17,68
626,362	17,9
626,822	17,91
627,282	17,73
627,742	17,55
628,201	17,66
628,661	17,51
629,12	17,49
629,579	17,31
630,038	17,57
630,497	17,51
630,956	17,49
631,415	17,54
631,874	17,37
632,332	17,38
632,791	17,29
633,249	17,23
633,708	17,15
634,166	17,24
634,624	16,94
635,082	17,02
635,54	16,98
635,998	16,77
636,455	16,61
636,913	16,55
637,37	16,6
637,828	16,51
638,285	16,25
638,742	16,02
639,199	15,86
639,656	15,9
640,113	15,73
640,57	15,29
641,027	15,57
641,483	15,19
641,94	15,3
642,396	15,03
642,852	14,73
643,309	14,79
643,765	14,45
644,221	14,3
644,676	14,28
645,132	14,03
645,588	13,84
646,043	13,71
646,499	13,86
646,954	13,42
647,409	13,41
647,864	13,19
648,319	13,23
648,774	12,98
649,229	12,82
649,684	12,86
650,139	12,66
650,593	12,62
651,047	12,47
651,502	12,47
651,956	12,42
652,41	12,42
652,864	12,25
653,318	12,35
653,772	12,42
654,225	12,29
654,679	12,3
655,133	11,92
655,586	11,9
656,039	11,97
656,492	11,89
656,946	11,63
657,399	11,75
657,851	11,61
658,304	11,39
658,757	11,53
659,209	11,38
659,662	11,2
660,114	11,19
660,567	10,68
661,019	10,86
661,471	10,47
661,923	10,71
662,375	10,45
662,826	10,41
663,278	10,42
663,73	9,99
664,181	10,03
664,632	9,9
665,084	9,73
665,535	9,73
665,986	9,48
666,437	9,53
666,888	9,44
667,338	9,34
667,789	9,28
668,24	9,19
668,69	9,27
669,14	9,18
669,591	9,21
670,041	9,01
670,491	9,02
670,941	9,07
671,391	9,04
671,84	9,04
672,29	8,93
672,74	9,08
673,189	9,26
673,638	9,13
674,088	9,09
674,537	9,24
674,986	9,16
675,435	9,24
675,883	9,28
676,332	9,52
676,781	9,37
677,229	9,4
677,678	9,52
678,126	9,66
678,574	9,62
679,022	9,87
679,47	9,95
679,918	9,99
680,366	10,2
680,814	10,14
681,261	10,38
681,709	10,7
682,156	10,74
682,604	10,89
683,051	10,99
683,498	11,18
683,945	11,44
684,392	11,46
684,839	11,79
685,286	12,01
685,732	12,35
686,179	12,56
686,625	12,73
687,071	13,18
687,518	13,35
687,964	13,8
688,41	14,11
688,856	14,39
689,301	14,93
689,747	15,04
690,193	15,8
690,638	16,25
691,084	16,32
691,529	17,29
691,974	17,46
692,419	18,02
692,864	18,77
693,309	19,08
693,754	19,56
694,199	20,23
694,643	20,46
695,088	21,2
695,532	21,4
695,977	22
696,421	22,66
696,865	23,07
697,309	23,75
697,753	24,19
698,197	24,76
698,64	25,27
699,084	25,66
699,527	25,67
699,971	26,61
700,414	27,16
700,857	27,43
701,3	27,82
701,743	28,34
702,186	28,52
702,629	29,37
703,072	29,57
703,515	30,1
703,957	30,34
704,399	30,78
704,842	31,04
705,284	31,45
705,726	31,81
706,168	32,08
706,61	32,67
707,052	32,84
707,494	33,47
707,935	33,62
708,377	34,03
708,818	34,17
709,26	34,28
709,701	34,81
710,142	35,01
710,583	35,37
711,024	35,46
711,465	35,9
711,905	36,29
712,346	36,31
712,787	36,76
713,227	36,81
713,667	37,3
714,108	37,26
714,548	37,89
714,988	38
715,428	38,39
715,868	38,24
716,307	38,69
716,747	38,59
717,186	39,15
717,626	39,54
718,065	39,62
718,504	39,72
718,944	39,83
719,383	40,04
719,822	39,91
720,261	40,19
720,699	40,36
721,138	40,51
721,576	40,73
722,015	40,76
722,453	41,25
722,892	41,45
723,33	41,22
723,768	41,39
724,206	41,62
724,644	41,89
725,081	41,69
725,519	42,22
725,957	42,14
726,394	42,2
726,832	42,65
727,269	42,34
727,706	42,49
728,143	43,06
728,58	42,77
729,017	42,87
729,454	42,81
729,89	43,02
730,327	43,27
730,764	43,29
731,2	43,15
731,636	43,34
732,072	43,29
732,509	43,54
732,945	43,45
733,38	43,2
733,816	43,69
734,252	43,83
734,688	43,7
735,123	43,79
735,559	43,64
735,994	43,81
736,429	43,59
736,864	43,82
737,299	43,94
737,734	44,29
738,169	43,91
738,604	44,11
739,038	43,69
739,473	43,88
739,907	44,3
740,342	44,08
740,776	44,13
741,21	44,13
741,644	43,85
742,078	43,97
742,512	44,04
742,946	43,9
743,379	43,99
743,813	43,84
744,246	43,77
744,68	44,2
745,113	43,63
745,546	43,84
745,979	43,93
746,412	43,98
746,845	43,94
747,278	43,66
747,711	43,87
748,143	43,77
748,576	43,81
749,008	43,64
749,441	43,86
749,873	43,46
750,305	43,59
750,737	43,63
751,169	43,38
751,601	43,72
752,032	43,45
752,464	43,36
752,896	43,22
753,327	43,42
753,758	43,11
754,19	43,06
754,621	43,51
755,052	43,09
755,483	43,23
755,914	43,02
756,344	43,29
756,775	43,17
757,206	43,06
757,636	42,68
758,066	42,85
758,497	42,94
758,927	42,87
759,357	42,84
759,787	42,81
760,217	42,85
760,647	42,91
761,076	42,56
761,506	42,46
761,935	42,9
762,365	42,97
762,794	42,71
763,223	42,8
763,653	42,54
764,082	42,41
764,51	42,51
764,939	42,57
765,368	42,33
765,797	42,25
766,225	42,44
766,654	42,5
767,082	42,38
767,51	42,27
767,938	42
768,367	42,09
768,795	42,28
769,222	41,88
769,65	42,17
770,078	42,01
770,505	41,88
770,933	41,84
771,36	42,02
771,788	42,13
772,215	42,01
772,642	42,06
773,069	41,65
773,496	41,6
773,923	41,7
774,349	41,94
774,776	41,75
775,203	41,8
775,629	42,19
776,055	42,02
776,482	41,99
776,908	41,76
777,334	41,71
777,76	41,82
778,186	41,85
778,611	41,32
779,037	41,49
779,463	41,45
779,888	41,33
780,314	41,47
780,739	41,23
781,164	41,98
781,589	41,54
782,014	41,6
782,439	41,67
782,864	41,73
783,289	41,25
783,713	41,92
784,138	41,18
784,562	41,84
784,987	41,81
785,411	41,86
785,835	41,55
786,259	41,22
786,683	41,36
787,107	41,15
787,531	41,49
787,954	41,5
788,378	41,16
788,802	41,28
789,225	41,22
789,648	41,19
790,071	41,17
790,495	41,27
790,918	41,06
791,34	41,46
791,763	41,26
792,186	41,49
792,609	41,26
793,031	41,45
793,454	41,79
793,876	41,15
794,298	41,47
794,721	41,34
795,143	41,35
795,565	41,11
795,986	41,4
796,408	41,08
796,83	41,11
797,252	41,55
797,673	41,65
798,094	40,89
798,516	41,33
798,937	41,24
799,358	41,16
799,779	41,27
800,2	41,27
800,621	41,15
801,042	41,24
801,462	40,72
801,883	41,03
802,303	41,37
802,724	40,97
803,144	40,89
803,564	41,08
803,984	40,9
804,404	41,04
804,824	41,06
805,244	40,82
805,664	40,7
806,084	41,02
806,503	41,13
806,923	40,86
807,342	41,14
807,761	41,07
808,18	41,01
808,599	41,16
809,018	41,31
809,437	40,72
809,856	41,19
810,275	41,13
810,693	41,22
811,112	40,75
811,53	40,95
811,949	40,94
812,367	40,88
812,785	40,77
813,203	40,7
813,621	40,91
814,039	40,68
814,457	40,47
814,874	40,73
815,292	41,15
815,709	40,66
816,127	40,82
816,544	41,02
816,961	40,63
817,378	40,87
817,795	41,03
818,212	40,71
818,629	40,74
819,046	40,77
819,462	40,96
819,879	40,81
820,295	40,98
820,712	40,32
821,128	40,81
821,544	40,72
821,96	40,51
822,376	41,13
822,792	40,86
823,208	40,82
823,624	40,84
824,039	40,69
824,455	40,78
824,87	40,86
825,286	41,13
825,701	40,92
826,116	40,52
826,531	40,57
826,946	40,61
827,361	40,75
827,776	40,3
828,19	40,47
828,605	40,58
829,02	40,74
829,434	40,79
829,848	40,58
830,263	40,59
830,677	40,64
831,091	40,84
831,505	40,87
831,919	40,84
832,332	40,71
832,746	40,48
833,16	40,42
833,573	40,67
833,987	40,78
834,4	40,54
834,813	40,73
835,226	40,65
835,639	40,74
836,052	40,51
836,465	40,79
836,878	40,57
837,29	40,69
837,703	40,53
838,116	40,64
838,528	40,46
838,94	40,56
