Data from I4__Relative__1__00109.txt Node

Date: Thu Feb 01 16:28:21 CET 2024
User: diatiterra
Spectrometer: HDX00911
Trigger mode: 0
Integration Time (sec): 6,000000E-3
Scans to average: 2
Nonlinearity correction enabled: false
Boxcar width: 0
Storing dark spectrum: false
XAxis mode: Wavelengths
Number of Pixels in Spectrum: 2068
>>>>>Begin Spectral Data<<<<<
194,468	223,08
195,025	125
195,581	156,06
196,138	139,71
196,694	126,37
197,251	113,49
197,807	93,02
198,363	79,88
198,919	77,17
199,474	79,62
200,03	88,07
200,586	93,67
201,141	80,41
201,696	90,75
202,251	77,9
202,806	85,63
203,361	89,62
203,916	84,32
204,471	75,54
205,025	84,32
205,58	84,97
206,134	82,45
206,688	69,63
207,242	80,81
207,796	78,28
208,35	94,77
208,904	87,01
209,457	91,18
210,011	88,34
210,564	87,1
211,117	104,58
211,67	87,64
212,223	84,54
212,776	75,94
213,329	88,24
213,881	90,67
214,434	81,5
214,986	95,78
215,538	84,24
216,09	84,38
216,642	98,8
217,194	91,18
217,746	88
218,297	82,78
218,849	98,84
219,4	81,11
219,951	96,57
220,502	89,35
221,053	84,52
221,604	97,63
222,155	91,44
222,705	77,78
223,256	80,9
223,806	77,71
224,356	76,8
224,906	88,48
225,456	76,47
226,006	78,69
226,556	82,7
227,106	93,9
227,655	80,63
228,204	78,53
228,754	85,06
229,303	87,65
229,852	79,44
230,401	90,74
230,949	85,31
231,498	82,98
232,047	80
232,595	83,33
233,143	83,16
233,691	88,46
234,239	82,51
234,787	72,09
235,335	87,79
235,883	69,47
236,43	85,81
236,978	82,45
237,525	70,35
238,072	76,67
238,619	93,29
239,166	85,29
239,713	82,68
240,26	90,06
240,806	85,89
241,353	84,3
241,899	87,36
242,445	82,84
242,991	88,11
243,537	94,12
244,083	89,01
244,629	80,5
245,174	80,46
245,72	72,07
246,265	79,58
246,81	86,36
247,355	76,92
247,9	78,24
248,445	96,82
248,99	80
249,534	74,72
250,079	92,77
250,623	77,17
251,168	86,78
251,712	91,76
252,256	83,23
252,8	79,1
253,343	89,01
253,887	82,51
254,43	80,11
254,974	81,56
255,517	85,31
256,06	88,64
256,603	80,34
257,146	76,8
257,689	79,37
258,232	73,54
258,774	94,05
259,317	84,07
259,859	71,73
260,401	76,97
260,943	94,9
261,485	83,24
262,027	79,89
262,569	88,08
263,11	78,53
263,652	84,62
264,193	84,66
264,734	71,35
265,275	75
265,816	81,62
266,357	86,77
266,898	66,16
267,438	83,54
267,979	81,82
268,519	80,95
269,059	88,55
269,6	85,25
270,14	76,53
270,68	88,36
271,219	86,21
271,759	99,36
272,298	90,27
272,838	83,04
273,377	82,68
273,916	108,05
274,455	87,69
274,994	84,44
275,533	98,8
276,072	87,43
276,61	94,67
277,149	91,76
277,687	90,36
278,225	87,06
278,763	80,35
279,301	77,66
279,839	88,83
280,377	95,65
280,914	79,9
281,452	87,15
281,989	81,76
282,526	94,3
283,064	90
283,601	83,15
284,137	99,39
284,674	94,38
285,211	92,47
285,747	84,42
286,284	90
286,82	89,06
287,356	73,71
287,892	91,71
288,428	86,21
288,964	83,87
289,5	89,6
290,035	85,8
290,571	80,95
291,106	86,52
291,641	86,05
292,176	76,88
292,711	93,02
293,246	88,04
293,781	90,06
294,315	78,57
294,85	92,9
295,384	95,38
295,918	84,57
296,453	81,62
296,987	77,6
297,52	84,78
298,054	95,4
298,588	100,61
299,121	94,41
299,655	89,41
300,188	98,67
300,721	108,07
301,254	90,48
301,787	96,77
302,32	84,46
302,853	98,32
303,385	84,24
303,918	89,71
304,45	91,33
304,982	94,35
305,514	86,7
306,046	86,41
306,578	93,58
307,11	85,08
307,641	92,31
308,173	98,31
308,704	92,05
309,236	89,34
309,767	84,74
310,298	100,63
310,829	88
311,359	81,64
311,89	85,96
312,421	87,03
312,951	81,71
313,481	85,88
314,012	75,52
314,542	80,32
315,072	90,06
315,601	102,6
316,131	86,7
316,661	98,3
317,19	80,35
317,72	90,36
318,249	87,78
318,778	103,4
319,307	86,98
319,836	98,31
320,365	77,25
320,893	84,46
321,422	98,81
321,95	82,29
322,479	84,85
323,007	84,83
323,535	85,55
324,063	85,31
324,591	75,66
325,118	87,63
325,646	78,19
326,173	97,81
326,701	67,69
327,228	84,29
327,755	93,91
328,282	80,45
328,809	105,29
329,336	81,09
329,862	87,43
330,389	70,1
330,915	86,01
331,441	91,81
331,968	86,52
332,494	79,59
333,02	88,27
333,545	82,01
334,071	66,15
334,597	75,28
335,122	78,72
335,648	74,52
336,173	84,86
336,698	84,57
337,223	66,84
337,748	63,18
338,272	65,96
338,797	81,42
339,322	76,22
339,846	81,18
340,37	85,25
340,894	73,63
341,419	79,89
341,942	80,95
342,466	76,68
342,99	80,1
343,514	70,59
344,037	72,34
344,56	73,21
345,084	70,15
345,607	72,33
346,13	77
346,653	68,69
347,175	61,72
347,698	76,38
348,221	70,89
348,743	65,97
349,265	75,37
349,787	58,54
350,309	59,11
350,831	68,2
351,353	62,09
351,875	65,18
352,397	65,09
352,918	64,17
353,439	60,76
353,961	59,45
354,482	72,34
355,003	58,02
355,524	61,73
356,044	68,88
356,565	53,25
357,086	53,93
357,606	60
358,126	56,32
358,646	54,28
359,167	63,04
359,687	57,99
360,206	61,48
360,726	55,64
361,246	53,21
361,765	55,07
362,285	58,36
362,804	57,55
363,323	52,84
363,842	55,99
364,361	46,35
364,88	50,16
365,398	60
365,917	52,78
366,435	57,67
366,954	48,21
367,472	46,84
367,99	50
368,508	54,67
369,026	49,04
369,544	54,72
370,061	46,88
370,579	49,38
371,096	44,9
371,613	45,87
372,131	44,93
372,648	42,45
373,165	46,58
373,681	41,87
374,198	46,42
374,715	42,17
375,231	47,34
375,747	48,41
376,264	44,39
376,78	38,07
377,296	35,82
377,812	39,24
378,327	42,86
378,843	42,2
379,359	45,05
379,874	44,91
380,389	40,86
380,905	35,48
381,42	38,22
381,935	38,38
382,449	36,16
382,964	36,17
383,479	34,98
383,993	36,65
384,508	35,9
385,022	33,27
385,536	35,75
386,05	34,27
386,564	34,28
387,078	37,28
387,592	32,02
388,105	31,4
388,619	30,56
389,132	28,91
389,645	28
390,158	31,73
390,671	29,73
391,184	26,79
391,697	26,54
392,21	25,14
392,722	29,08
393,235	27,48
393,747	26,27
394,259	29,15
394,771	26,6
395,283	26,91
395,795	26,42
396,307	25
396,818	24,04
397,33	25,35
397,841	25,91
398,353	25,33
398,864	26,7
399,375	23,27
399,886	22,31
400,397	20,08
400,907	21,67
401,418	21,1
401,928	22,22
402,439	19,71
402,949	21,14
403,459	19,09
403,969	20,64
404,479	19,44
404,989	20,78
405,498	16,02
406,008	18,42
406,517	16,81
407,027	15,56
407,536	14,89
408,045	16,34
408,554	15,11
409,063	14,56
409,572	13,64
410,08	14,18
410,589	12,71
411,097	11,66
411,606	11,83
412,114	11,07
412,622	11,14
413,13	11,29
413,638	9,55
414,145	8,64
414,653	10,22
415,16	9,42
415,668	9,96
416,175	8,46
416,682	8,9
417,189	8,97
417,696	8,27
418,203	8,47
418,71	7,95
419,216	8,65
419,723	8,02
420,229	7,33
420,735	7,94
421,242	7,11
421,748	7,17
422,254	7,35
422,759	7,11
423,265	7,2
423,771	6,83
424,276	6,55
424,781	7,06
425,287	6,73
425,792	6,9
426,297	6,59
426,802	6,52
427,306	6,73
427,811	6,6
428,316	6,27
428,82	6,54
429,324	6,51
429,829	6,25
430,333	6,12
430,837	5,66
431,34	6,48
431,844	6,43
432,348	5,68
432,851	5,77
433,355	5,81
433,858	5,77
434,361	6,06
434,864	5,55
435,367	5,82
435,87	5,87
436,373	6,11
436,876	5,88
437,378	5,48
437,88	5,69
438,383	5,63
438,885	5,5
439,387	6,01
439,889	5,46
440,391	5,74
440,892	5,5
441,394	5,71
441,896	5,2
442,397	5,24
442,898	5,51
443,399	5,66
443,9	5,17
444,401	5,51
444,902	6,11
445,403	5,68
445,903	5,56
446,404	5,43
446,904	5,38
447,405	5,37
447,905	5,36
448,405	5,25
448,905	4,93
449,404	5,44
449,904	5,23
450,404	5,64
450,903	5,45
451,403	5,34
451,902	5,58
452,401	5,2
452,9	5,41
453,399	5,25
453,898	5,47
454,396	5,44
454,895	5,02
455,393	5,46
455,892	5,4
456,39	5,5
456,888	5,04
457,386	5,72
457,884	5,39
458,382	5,17
458,879	5,23
459,377	5,28
459,874	5,14
460,372	5,21
460,869	5,41
461,366	5,14
461,863	5,47
462,36	4,96
462,857	5,48
463,353	4,87
463,85	5,19
464,346	5,58
464,843	5,29
465,339	4,95
465,835	5,22
466,331	5,7
466,827	5,3
467,323	5,3
467,818	4,92
468,314	5,18
468,809	4,89
469,305	5,04
469,8	4,93
470,295	5,28
470,79	5,38
471,285	5,35
471,78	5,09
472,274	5
472,769	4,87
473,263	5,2
473,758	5
474,252	5,13
474,746	5,12
475,24	5,07
475,734	5,08
476,228	4,91
476,721	5,01
477,215	5,08
477,708	4,92
478,202	5,17
478,695	5,22
479,188	5,05
479,681	5,4
480,174	4,9
480,667	4,92
481,159	5,26
481,652	5,04
482,144	4,84
482,637	5,28
483,129	5,07
483,621	5,15
484,113	5,18
484,605	5,21
485,097	5,13
485,588	5,02
486,08	5,22
486,571	5,28
487,063	5,17
487,554	5,11
488,045	5,08
488,536	5,27
489,027	4,95
489,518	5,3
490,008	5,21
490,499	5,27
490,989	5,09
491,48	5,28
491,97	5,44
492,46	5,29
492,95	5,43
493,44	5,48
493,93	5,25
494,419	5,39
494,909	5,49
495,398	5,57
495,888	5,16
496,377	5,78
496,866	5,67
497,355	5,83
497,844	5,64
498,333	5,83
498,821	5,78
499,31	5,65
499,798	6,02
500,287	6,15
500,775	6,12
501,263	6,21
501,751	5,89
502,239	6,27
502,727	6,27
503,215	6,56
503,702	6,72
504,19	6,57
504,677	6,6
505,164	6,66
505,651	6,65
506,139	6,86
506,625	7,02
507,112	7,14
507,599	7,21
508,086	7,49
508,572	7,56
509,058	7,4
509,545	7,51
510,031	7,73
510,517	7,86
511,003	8,12
511,489	8,32
511,974	8,34
512,46	8,67
512,946	9,09
513,431	8,96
513,916	9,21
514,401	9,11
514,887	9,45
515,371	9,45
515,856	9,88
516,341	10,08
516,826	10,13
517,31	10,54
517,795	10,75
518,279	11,12
518,763	11,15
519,247	11,41
519,731	11,59
520,215	12,03
520,699	12,25
521,182	12,68
521,666	12,63
522,149	12,81
522,633	13,08
523,116	13,11
523,599	14,02
524,082	13,37
524,565	14,18
525,048	14,21
525,53	14,51
526,013	14,9
526,495	15,06
526,978	14,91
527,46	15,23
527,942	15,75
528,424	15,9
528,906	15,84
529,388	16,1
529,87	16,27
530,351	16,58
530,833	16,33
531,314	16,59
531,795	17,34
532,277	17,55
532,758	17,53
533,238	17,25
533,719	17,37
534,2	17,52
534,681	17,66
535,161	18,08
535,642	18,03
536,122	18,15
536,602	17,93
537,082	17,95
537,562	17,97
538,042	17,97
538,522	18,41
539,001	18,08
539,481	18,16
539,96	18,14
540,44	18,4
540,919	18
541,398	18,6
541,877	18,54
542,356	18,67
542,835	18,38
543,313	18,53
543,792	18,81
544,27	19,12
544,749	18,65
545,227	18,94
545,705	18,89
546,183	18,88
546,661	18,95
547,139	19,28
547,616	19,17
548,094	19,08
548,571	19,14
549,049	19,14
549,526	19,15
550,003	18,8
550,48	19,35
550,957	19,15
551,434	19,59
551,911	19,14
552,387	19,29
552,864	19,32
553,34	19,59
553,817	19,48
554,293	19,64
554,769	19,31
555,245	19,38
555,721	19,35
556,197	19,03
556,672	19,28
557,148	19,42
557,623	18,98
558,099	19
558,574	19,31
559,049	19,24
559,524	19,04
559,999	18,89
560,474	19,08
560,948	18,7
561,423	18,85
561,897	18,96
562,372	18,65
562,846	18,5
563,32	18,55
563,794	18,4
564,268	18,66
564,742	18,16
565,216	17,73
565,69	18,1
566,163	17,68
566,636	17,7
567,11	17,77
567,583	17,34
568,056	17,66
568,529	16,94
569,002	16,76
569,475	16,89
569,947	16,69
570,42	16,62
570,892	16,19
571,365	16,14
571,837	15,87
572,309	15,76
572,781	16,14
573,253	15,49
573,725	15,7
574,197	15,42
574,668	15,16
575,14	14,99
575,611	15,12
576,082	14,78
576,554	14,76
577,025	14,59
577,496	14,68
577,967	14,36
578,437	14,15
578,908	14,28
579,379	13,87
579,849	13,62
580,319	13,93
580,79	13,85
581,26	13,42
581,73	13,52
582,2	13,45
582,669	13,38
583,139	13,32
583,609	13,23
584,078	12,77
584,548	13,24
585,017	13,03
585,486	12,81
585,955	12,74
586,424	12,58
586,893	12,92
587,362	12,52
587,83	12,64
588,299	12,38
588,767	12,35
589,236	12,29
589,704	12,21
590,172	12,19
590,64	12,28
591,108	11,85
591,576	11,91
592,043	11,97
592,511	11,83
592,978	11,58
593,446	11,95
593,913	11,8
594,38	11,6
594,847	11,7
595,314	11,73
595,781	11,74
596,248	11,71
596,715	11,7
597,181	11,9
597,647	11,44
598,114	11,44
598,58	11,57
599,046	11,57
599,512	11,62
599,978	11,63
600,444	11,42
600,91	11,32
601,375	11,23
601,841	11,27
602,306	11,43
602,771	11,01
603,236	11,38
603,702	11,02
604,167	11,21
604,631	11
605,096	11
605,561	11,06
606,025	10,79
606,49	10,99
606,954	10,85
607,418	10,69
607,882	10,71
608,347	10,72
608,81	10,62
609,274	10,61
609,738	10,41
610,202	10,47
610,665	10,35
611,128	10,16
611,592	10,06
612,055	10,09
612,518	10,25
612,981	10,05
613,444	9,78
613,907	10,07
614,369	9,7
614,832	9,83
615,294	9,63
615,757	9,51
616,219	9,62
616,681	9,58
617,143	9,46
617,605	9,5
618,067	9,23
618,529	9,27
618,99	9,29
619,452	9,28
619,913	9,11
620,375	8,9
620,836	9,14
621,297	9
621,758	8,96
622,219	8,81
622,68	9,07
623,14	8,77
623,601	8,92
624,061	9,01
624,522	8,69
624,982	8,71
625,442	8,76
625,902	8,87
626,362	8,6
626,822	8,67
627,282	8,78
627,742	8,62
628,201	8,68
628,661	8,71
629,12	8,56
629,579	8,78
630,038	8,5
630,497	8,61
630,956	8,51
631,415	8,52
631,874	8,41
632,332	8,49
632,791	8,39
633,249	8,41
633,708	8,4
634,166	8,32
634,624	8,32
635,082	8,21
635,54	8,16
635,998	8,07
636,455	8,1
636,913	7,87
637,37	7,97
637,828	7,94
638,285	7,85
638,742	7,76
639,199	7,65
639,656	7,61
640,113	7,49
640,57	7,48
641,027	7,22
641,483	7,31
641,94	7,27
642,396	7,15
642,852	7,01
643,309	6,89
643,765	6,81
644,221	6,89
644,676	6,72
645,132	6,56
645,588	6,65
646,043	6,39
646,499	6,47
646,954	6,24
647,409	6,21
647,864	6,23
648,319	6,18
648,774	6,17
649,229	6,07
649,684	6,01
650,139	6
650,593	5,95
651,047	5,86
651,502	5,89
651,956	5,88
652,41	5,66
652,864	5,89
653,318	5,81
653,772	5,8
654,225	5,79
654,679	5,8
655,133	5,66
655,586	5,65
656,039	5,56
656,492	5,66
656,946	5,58
657,399	5,59
657,851	5,53
658,304	5,56
658,757	5,48
659,209	5,39
659,662	5,37
660,114	5,35
660,567	5,3
661,019	5,18
661,471	5,18
661,923	5,09
662,375	5,16
662,826	5,15
663,278	5,1
663,73	4,94
664,181	5,04
664,632	4,97
665,084	5,01
665,535	4,98
665,986	4,87
666,437	4,8
666,888	4,91
667,338	4,8
667,789	4,94
668,24	4,9
668,69	4,85
669,14	4,84
669,591	4,77
670,041	4,99
670,491	4,93
670,941	4,84
671,391	5,05
671,84	4,97
672,29	5,11
672,74	5,03
673,189	5,19
673,638	5,18
674,088	5,23
674,537	5,28
674,986	5,41
675,435	5,36
675,883	5,33
676,332	5,54
676,781	5,51
677,229	5,67
677,678	5,75
678,126	5,67
678,574	5,82
679,022	6,05
679,47	6,02
679,918	6,12
680,366	6,24
680,814	6,28
681,261	6,35
681,709	6,43
682,156	6,56
682,604	6,63
683,051	6,73
683,498	6,74
683,945	6,93
684,392	6,82
684,839	7,04
685,286	6,98
685,732	7,33
686,179	7,28
686,625	7,32
687,071	7,41
687,518	7,54
687,964	7,64
688,41	7,8
688,856	7,93
689,301	8,09
689,747	8,23
690,193	8,48
690,638	8,5
691,084	8,64
691,529	9,14
691,974	9,34
692,419	9,58
692,864	9,95
693,309	10,14
693,754	10,71
694,199	10,85
694,643	11,42
695,088	11,72
695,532	12,08
695,977	12,31
696,421	13,08
696,865	13,24
697,309	13,57
697,753	14,18
698,197	14,57
698,64	15,23
699,084	15,37
699,527	15,88
699,971	16,17
700,414	17
700,857	17,32
701,3	17,73
701,743	18,13
702,186	18,63
702,629	19,23
703,072	19,75
703,515	20,32
703,957	20,51
704,399	21,08
704,842	21,47
705,284	21,99
705,726	22,31
706,168	22,66
706,61	23,2
707,052	23,71
707,494	24,03
707,935	24,61
708,377	24,89
708,818	25,15
709,26	25,77
709,701	26,13
710,142	26,56
710,583	26,98
711,024	27,66
711,465	27,96
711,905	28,37
712,346	28,48
712,787	28,89
713,227	29,55
713,667	30,04
714,108	30,27
714,548	30,69
714,988	30,98
715,428	31,7
715,868	32,09
716,307	32,1
716,747	32,55
717,186	33,06
717,626	33,36
718,065	33,8
718,504	34,07
718,944	34,93
719,383	35,19
719,822	35,15
720,261	35,41
720,699	35,76
721,138	35,89
721,576	36,33
722,015	36,37
722,453	37,15
722,892	37,51
723,33	37,47
723,768	37,71
724,206	38,01
724,644	38,39
725,081	38,79
725,519	39,17
725,957	39,61
726,394	39,47
726,832	39,84
727,269	40,22
727,706	40,04
728,143	40,46
728,58	40,39
729,017	40,69
729,454	41,38
729,89	40,84
730,327	41,41
730,764	41,73
731,2	41,55
731,636	41,9
732,072	42,14
732,509	42,13
732,945	42,42
733,38	42,34
733,816	42,56
734,252	42,59
734,688	43,16
735,123	43,26
735,559	43,28
735,994	43,18
736,429	43,21
736,864	43,39
737,299	43,02
737,734	43,86
738,169	44,03
738,604	43,7
739,038	43,91
739,473	43,97
739,907	43,79
740,342	44,08
740,776	43,96
741,21	44,34
741,644	44,2
742,078	44,29
742,512	43,92
742,946	44,32
743,379	44,47
743,813	43,79
744,246	44,24
744,68	44,48
745,113	44,11
745,546	44,59
745,979	44,65
746,412	44,65
746,845	44,45
747,278	44,73
747,711	44,53
748,143	44,02
748,576	44,53
749,008	44,51
749,441	44,35
749,873	44,01
750,305	44,49
750,737	44,34
751,169	44,25
751,601	44,65
752,032	44,42
752,464	44,33
752,896	44,13
753,327	44,08
753,758	44,17
754,19	44,34
754,621	44,54
755,052	44,24
755,483	44,4
755,914	44,02
756,344	44,27
756,775	44,34
757,206	43,85
757,636	43,76
758,066	43,9
758,497	43,98
758,927	44,05
759,357	43,87
759,787	43,68
760,217	43,67
760,647	43,79
761,076	43,8
761,506	43,63
761,935	43,89
762,365	43,92
762,794	43,82
763,223	43,79
763,653	43,87
764,082	43,43
764,51	43,51
764,939	43,4
765,368	43,79
765,797	43,24
766,225	43,67
766,654	43,44
767,082	43,52
767,51	43,27
767,938	42,97
768,367	43,28
768,795	42,99
769,222	43,22
769,65	43,21
770,078	43,41
770,505	43,12
770,933	42,91
771,36	43,09
771,788	43,09
772,215	42,96
772,642	43,01
773,069	42,73
773,496	42,76
773,923	42,97
774,349	42,98
774,776	43
775,203	43,06
775,629	43,1
776,055	43,08
776,482	42,79
776,908	42,79
777,334	42,76
777,76	42,77
778,186	43,06
778,611	42,63
779,037	42,87
779,463	42,47
779,888	42,71
780,314	42,93
780,739	42,81
781,164	42,8
781,589	42,81
782,014	42,44
782,439	42,45
782,864	42,79
783,289	42,55
783,713	42,57
784,138	42,6
784,562	42,73
784,987	42,67
785,411	42,66
785,835	42,5
786,259	42,18
786,683	42,61
787,107	43
787,531	42,45
787,954	42,36
788,378	42,4
788,802	42,71
789,225	42,36
789,648	42,49
790,071	42,39
790,495	42,32
790,918	42,48
791,34	42,73
791,763	42,43
792,186	42,5
792,609	42,28
793,031	42,16
793,454	42,6
793,876	42,09
794,298	42,29
794,721	42,42
795,143	41,97
795,565	42,16
795,986	42,16
796,408	42,16
796,83	41,95
797,252	42,38
797,673	42,25
798,094	42,4
798,516	42,31
798,937	41,79
799,358	42,24
799,779	42,04
800,2	42,2
800,621	41,93
801,042	41,96
801,462	41,98
801,883	41,72
802,303	42,32
802,724	42,08
803,144	41,68
803,564	41,9
803,984	42,33
804,404	42,09
804,824	42,46
805,244	41,81
805,664	42,06
806,084	42,14
806,503	42,09
806,923	42,19
807,342	42,34
807,761	42,11
808,18	42,46
808,599	41,93
809,018	42,04
809,437	42,03
809,856	42,3
810,275	41,97
810,693	41,97
811,112	41,78
811,53	41,79
811,949	42
812,367	42,09
812,785	41,8
813,203	42,16
813,621	41,81
814,039	41,88
814,457	41,55
814,874	41,71
815,292	41,76
815,709	42,06
816,127	42
816,544	41,87
816,961	41,78
817,378	42,07
817,795	42,12
818,212	41,66
818,629	41,74
819,046	41,99
819,462	41,91
819,879	42,12
820,295	41,86
820,712	41,74
821,128	41,88
821,544	41,81
821,96	41,85
822,376	41,83
822,792	41,73
823,208	41,8
823,624	41,82
824,039	41,56
824,455	41,66
824,87	41,82
825,286	41,86
825,701	42,1
826,116	41,47
826,531	41,71
826,946	41,99
827,361	41,39
827,776	41,78
828,19	41,65
828,605	41,66
829,02	41,81
829,434	41,72
829,848	41,49
830,263	41,72
830,677	41,57
831,091	42
831,505	41,98
831,919	41,85
832,332	41,46
832,746	41,53
833,16	41,17
833,573	41,65
833,987	41,66
834,4	41,39
834,813	41,52
835,226	41,34
835,639	41,38
836,052	41,52
836,465	41,42
836,878	41,74
837,29	41,84
837,703	41,47
838,116	41,48
838,528	41,59
838,94	41,24
839,352	41,85
839,765	41,28
840,177	41,64
840,589	41,46
841	41,3
841,412	41,31
841,824	41,74
842,235	41,51
842,647	41,56
843,058	41,32
843,47	41,32
843,881	41,42
844,292	41,65
844,703	41,54
845,114	41,2
