Data from A_2_Relative__2__00002.txt Node

Date: Tue Jan 30 09:44:58 CET 2024
User: diatiterra
Spectrometer: HDX00911
Trigger mode: 0
Integration Time (sec): 6,000000E-3
Scans to average: 2
Nonlinearity correction enabled: false
Boxcar width: 0
Storing dark spectrum: false
XAxis mode: Wavelengths
Number of Pixels in Spectrum: 2068
>>>>>Begin Spectral Data<<<<<
194,468	55,43
195,025	58,43
195,581	64,79
196,138	71,91
196,694	56,76
197,251	75,37
197,807	53,41
198,363	48,17
198,919	55,95
199,474	53,16
200,03	51,96
200,586	51,27
201,141	56,25
201,696	56,41
202,251	52,34
202,806	55,4
203,361	65,64
203,916	59,87
204,471	52,14
205,025	58,22
205,58	55,56
206,134	62,11
206,688	64,38
207,242	57,32
207,796	58,08
208,35	50,62
208,904	57,93
209,457	59,88
210,011	53,05
210,564	60,27
211,117	59,04
211,67	64,47
212,223	63,82
212,776	67,84
213,329	56,29
213,881	62,16
214,434	57,93
214,986	56,69
215,538	61,76
216,09	59,88
216,642	61,44
217,194	58,55
217,746	65,82
218,297	58,97
218,849	61,82
219,4	49,38
219,951	55,95
220,502	61,24
221,053	61,54
221,604	60
222,155	62,76
222,705	58,94
223,256	73,14
223,806	53,05
224,356	68,99
224,906	66,05
225,456	41,46
226,006	52,1
226,556	61,74
227,106	63,24
227,655	65,47
228,204	53,85
228,754	57,06
229,303	54,36
229,852	55,7
230,401	55,97
230,949	67,76
231,498	73,19
232,047	56,65
232,595	48,6
233,143	63,16
233,691	62,24
234,239	57,14
234,787	61,33
235,335	45,99
235,883	61,38
236,43	53,85
236,978	71,07
237,525	51,23
238,072	50,36
238,619	50,38
239,166	61,18
239,713	63,23
240,26	58,18
240,806	63,27
241,353	67,06
241,899	61,11
242,445	66
242,991	54,44
243,537	69,33
244,083	46,71
244,629	61,64
245,174	63,41
245,72	64,89
246,265	52,17
246,81	63,06
247,355	69,59
247,9	65,48
248,445	84,5
248,99	66,42
249,534	60,61
250,079	64,66
250,623	67,74
251,168	61,54
251,712	44,44
252,256	61,07
252,8	58,82
253,343	67,05
253,887	44,57
254,43	63,44
254,974	71,53
255,517	64,71
256,06	68,03
256,603	67,68
257,146	65,1
257,689	53,95
258,232	70,23
258,774	53,28
259,317	60,99
259,859	50,34
260,401	59,02
260,943	48,34
261,485	70,69
262,027	43,71
262,569	44,97
263,11	58,45
263,652	55,17
264,193	57,04
264,734	52,41
265,275	61,22
265,816	49,28
266,357	56,03
266,898	66,88
267,438	60
267,979	63,08
268,519	45,89
269,059	78,57
269,6	54,19
270,14	66,91
270,68	59,72
271,219	64,43
271,759	79,69
272,298	56,79
272,838	54,14
273,377	70,07
273,916	58,13
274,455	65,97
274,994	47,06
275,533	58,33
276,072	70,86
276,61	47,77
277,149	66,9
277,687	69,09
278,225	76,86
278,763	62,6
279,301	62,73
279,839	56,77
280,377	56,62
280,914	61,72
281,452	59,26
281,989	63,25
282,526	52,83
283,064	59,72
283,601	55,81
284,137	62,77
284,674	66,88
285,211	75,59
285,747	59,28
286,284	59,26
286,82	60,42
287,356	55,56
287,892	43,71
288,428	58,04
288,964	55,35
289,5	54,14
290,035	77,78
290,571	65,84
291,106	79,59
291,641	73,33
292,176	52,41
292,711	64,38
293,246	65,69
293,781	44,78
294,315	50,81
294,85	56,76
295,384	71,07
295,918	50,28
296,453	58,23
296,987	63,39
297,52	54,01
298,054	46,31
298,588	56,15
299,121	46,46
299,655	56,55
300,188	73,19
300,721	48,98
301,254	56,34
301,787	65,81
302,32	60,9
302,853	51,74
303,385	50,32
303,918	76,92
304,45	49,66
304,982	69,74
305,514	47,47
306,046	43,66
306,578	56,2
307,11	64,5
307,641	52,9
308,173	60,62
308,704	62,43
309,236	59,09
309,767	60
310,298	56,57
310,829	70,67
311,359	50,93
311,89	62,84
312,421	65,25
312,951	71,61
313,481	52,14
314,012	66,67
314,542	66,67
315,072	59,15
315,601	61,43
316,131	80,6
316,661	69,51
317,19	61,72
317,72	50,34
318,249	56,39
318,778	66,27
319,307	48,73
319,836	61,94
320,365	66,67
320,893	64,94
321,422	51,11
321,95	52,15
322,479	72,66
323,007	50,33
323,535	50,82
324,063	67,97
324,591	73,58
325,118	53,97
325,646	66,18
326,173	70,54
326,701	57,33
327,228	53,8
327,755	45,19
328,282	69,93
328,809	69,47
329,336	60
329,862	57,87
330,389	56,71
330,915	55,56
331,441	62,9
331,968	59,12
332,494	50,99
333,02	55,81
333,545	50,62
334,071	43,51
334,597	57,79
335,122	60,28
335,648	53,76
336,173	61,15
336,698	55,33
337,223	51,8
337,748	60
338,272	52,8
338,797	63,43
339,322	61,25
339,846	49,11
340,37	62,18
340,894	51,27
341,419	69,86
341,942	54,55
342,466	44,9
342,99	55,7
343,514	61,2
344,037	53,41
344,56	51,41
345,084	62,5
345,607	50,83
346,13	54,19
346,653	55,63
347,175	47,13
347,698	66,3
348,221	54,37
348,743	67,17
349,265	58,05
349,787	49,35
350,309	54,36
350,831	62,3
351,353	52,44
351,875	62,16
352,397	54,5
352,918	44,22
353,439	50,93
353,961	56,93
354,482	59,31
355,003	57,82
355,524	56,16
356,044	58,25
356,565	50,71
357,086	49,77
357,606	51,31
358,126	57,84
358,646	47,34
359,167	48,62
359,687	46,22
360,206	55,32
360,726	59,43
361,246	53,04
361,765	48,83
362,285	48,33
362,804	57,35
363,323	53,45
363,842	45,66
364,361	54,11
364,88	51,22
365,398	52,58
365,917	57,01
366,435	54,66
366,954	40,73
367,472	44,44
367,99	53,23
368,508	45,45
369,026	42,47
369,544	53,85
370,061	45,61
370,579	46,64
371,096	45,02
371,613	43,96
372,131	48,12
372,648	47,18
373,165	47,18
373,681	50,96
374,198	44,65
374,715	48,33
375,231	48,82
375,747	46,33
376,264	45,74
376,78	49,85
377,296	46,69
377,812	42,77
378,327	40,59
378,843	45,95
379,359	45,92
379,874	42,16
380,389	36,39
380,905	47,73
381,42	45,43
381,935	47,37
382,449	42,92
382,964	46,98
383,479	41,03
383,993	42,72
384,508	45,81
385,022	35,68
385,536	46,35
386,05	36,73
386,564	42,99
387,078	41,3
387,592	43,12
388,105	36,93
388,619	39,88
389,132	42,63
389,645	40,15
390,158	39,09
390,671	43,02
391,184	41,32
391,697	36,99
392,21	33,38
392,722	35,01
393,235	38,83
393,747	36,1
394,259	35,8
394,771	41,56
395,283	38,89
395,795	32,5
396,307	35,45
396,818	35,67
397,33	36,17
397,841	32,69
398,353	32,25
398,864	37,05
399,375	33,03
399,886	28,39
400,397	33,63
400,907	31,6
401,418	30,48
401,928	31,72
402,439	29,65
402,949	25,36
403,459	29,04
403,969	27,9
404,479	28,1
404,989	26,56
405,498	25,61
406,008	27,35
406,517	24,64
407,027	27,17
407,536	25,93
408,045	24,06
408,554	20,68
409,063	22,04
409,572	22,21
410,08	22,04
410,589	21,74
411,097	17,07
411,606	19,38
412,114	17,36
412,622	17,3
413,13	17,59
413,638	17,54
414,145	16,24
414,653	15,88
415,16	16,05
415,668	15,58
416,175	15,09
416,682	14,61
417,189	14,78
417,696	14,51
418,203	14,05
418,71	13,78
419,216	14,32
419,723	13,93
420,229	13,09
420,735	12,72
421,242	14,09
421,748	12,88
422,254	13,68
422,759	12,17
423,265	11,8
423,771	11,18
424,276	12,66
424,781	12,18
425,287	11,6
425,792	12,38
426,297	12,15
426,802	12,1
427,306	12,62
427,811	12,02
428,316	12,32
428,82	11,64
429,324	12,56
429,829	12,89
430,333	12,08
430,837	11,91
431,34	11,74
431,844	11,3
432,348	12,2
432,851	11,69
433,355	12,36
433,858	11,09
434,361	11,93
434,864	11,01
435,367	12,41
435,87	11,35
436,373	11,13
436,876	11,66
437,378	10,89
437,88	10,89
438,383	11,35
438,885	11,46
439,387	10,95
439,889	11,05
440,391	11,08
440,892	11,5
441,394	10,85
441,896	11,35
442,397	11,5
442,898	11,22
443,399	11,29
443,9	11,28
444,401	11,41
444,902	11,25
445,403	10,83
445,903	10,9
446,404	11,58
446,904	11,39
447,405	11,05
447,905	11,35
448,405	10,86
448,905	11,65
449,404	10,68
449,904	11,61
450,404	12,05
450,903	11,69
451,403	11,45
451,902	10,99
452,401	11,58
452,9	11,3
453,399	11,95
453,898	11,73
454,396	11,71
454,895	11,69
455,393	11,54
455,892	12,36
456,39	11,23
456,888	11,78
457,386	11,39
457,884	11,45
458,382	11,86
458,879	11,86
459,377	12,3
459,874	11,93
460,372	12,29
460,869	12,14
461,366	11,51
461,863	12,35
462,36	11,75
462,857	11,14
463,353	11,94
463,85	10,88
464,346	12,04
464,843	12,08
465,339	12,11
465,835	11,56
466,331	11,39
466,827	11,61
467,323	11,68
467,818	11,27
468,314	12,12
468,809	12,11
469,305	11,56
469,8	11,81
470,295	12,16
470,79	12,18
471,285	11,75
471,78	11,57
472,274	11,58
472,769	12,07
473,263	11,79
473,758	12,17
474,252	11,79
474,746	12,08
475,24	11,82
475,734	11,65
476,228	11,94
476,721	11,98
477,215	11,89
477,708	11,97
478,202	12,31
478,695	12,02
479,188	11,91
479,681	11,58
480,174	11,57
480,667	12,1
481,159	11,83
481,652	12,04
482,144	11,81
482,637	11,9
483,129	11,51
483,621	12,58
484,113	12,51
484,605	11,9
485,097	11,69
485,588	12,39
486,08	12,21
486,571	12,33
487,063	12,62
487,554	12,18
488,045	12,23
488,536	12,05
489,027	12,42
489,518	12,24
490,008	12,07
490,499	12,26
490,989	12,71
491,48	12,61
491,97	12,52
492,46	12,53
492,95	12,08
493,44	12,83
493,93	12,78
494,419	12,86
494,909	12,64
495,398	12,77
495,888	12,45
496,377	12,52
496,866	13,38
497,355	12,85
497,844	13,84
498,333	13,23
498,821	13,35
499,31	14,03
499,798	13,85
500,287	13,71
500,775	13,28
501,263	14,21
501,751	14,07
502,239	14,21
502,727	14,1
503,215	14,23
503,702	13,88
504,19	15,06
504,677	14,79
505,164	14,92
505,651	15,24
506,139	15,55
506,625	15,62
507,112	15,81
507,599	15,59
508,086	15,75
508,572	16,14
509,058	16,77
509,545	16,49
510,031	16,86
510,517	17,03
511,003	16,91
511,489	17,78
511,974	17,35
512,46	18,04
512,946	18,23
513,431	18,43
513,916	19,05
514,401	19,03
514,887	19,5
515,371	19,65
515,856	19,94
516,341	20,52
516,826	20,63
517,31	21,42
517,795	21,62
518,279	21,52
518,763	22,61
519,247	22,56
519,731	23,01
520,215	22,98
520,699	23,63
521,182	23,74
521,666	24,3
522,149	25,46
522,633	24,76
523,116	25,61
523,599	25,25
524,082	26,34
524,565	26,73
525,048	27,12
525,53	27,22
526,013	26,7
526,495	28,11
526,978	28,69
527,46	28,59
527,942	28,42
528,424	29,34
528,906	28,87
529,388	29,36
529,87	29,74
530,351	29,8
530,833	31,11
531,314	30,65
531,795	30,88
532,277	31,03
532,758	31,15
533,238	31,64
533,719	31,65
534,2	32,25
534,681	32,26
535,161	31,99
535,642	31,64
536,122	32,49
536,602	32,51
537,082	32,15
537,562	32,11
538,042	32,62
538,522	33,4
539,001	33,07
539,481	32,39
539,96	33,18
540,44	33,07
540,919	33,19
541,398	33,8
541,877	33,22
542,356	33,76
542,835	33,26
543,313	33,54
543,792	33,59
544,27	33,75
544,749	33,62
545,227	32,79
545,705	34,16
546,183	33,4
546,661	34,04
547,139	33,51
547,616	33,53
548,094	34,04
548,571	34,06
549,049	34,48
549,526	34
550,003	34,56
550,48	33,85
550,957	34,01
551,434	33,82
551,911	34,37
552,387	34,33
552,864	34,03
553,34	34,44
553,817	34,62
554,293	34,69
554,769	34,71
555,245	34,36
555,721	33,92
556,197	34,16
556,672	34,42
557,148	33,79
557,623	34,05
558,099	33,43
558,574	34,56
559,049	34,24
559,524	33,92
559,999	33,93
560,474	33,87
560,948	33,23
561,423	34,14
561,897	33,27
562,372	33,13
562,846	32,85
563,32	33,01
563,794	32,78
564,268	32,79
564,742	32,22
565,216	32,63
565,69	32,84
566,163	32,18
566,636	32,17
567,11	32,44
567,583	31,44
568,056	31,28
568,529	31,57
569,002	31
569,475	30,64
569,947	30,87
570,42	30,56
570,892	29,92
571,365	29,55
571,837	29,91
572,309	29,6
572,781	29,72
573,253	28,71
573,725	29,07
574,197	28,48
574,668	28,84
575,14	28,3
575,611	28,4
576,082	28,17
576,554	28,14
577,025	27,36
577,496	27,06
577,967	27,7
578,437	26,95
578,908	26,68
579,379	26,91
579,849	26,04
580,319	26,65
580,79	26,21
581,26	25,75
581,73	25,64
582,2	25,72
582,669	25,98
583,139	25,45
583,609	25,59
584,078	24,81
584,548	25,19
585,017	24,74
585,486	25,19
585,955	24,86
586,424	24,87
586,893	24,16
587,362	24,09
587,83	24,44
588,299	24,34
588,767	24,22
589,236	24
589,704	24,21
590,172	23,77
590,64	24,05
591,108	23,59
591,576	23,56
592,043	23,56
592,511	23,39
592,978	23,72
593,446	23,13
593,913	23,23
594,38	23,33
594,847	23,24
595,314	23
595,781	22,98
596,248	23,11
596,715	22,9
597,181	22,96
597,647	23,2
598,114	23,15
598,58	23,02
599,046	22,97
599,512	23,27
599,978	22,74
600,444	22,74
600,91	22,58
601,375	22,89
601,841	22,57
602,306	22,55
602,771	22,59
603,236	22,57
603,702	22,17
604,167	22,02
604,631	22,22
605,096	21,89
605,561	22,04
606,025	21,78
606,49	21,73
606,954	21,53
607,418	21,87
607,882	21,64
608,347	21,5
608,81	21,51
609,274	21,25
609,738	21,17
610,202	21,09
610,665	20,73
611,128	20,94
611,592	20,9
612,055	20,54
612,518	20,43
612,981	20,18
613,444	20,29
613,907	20,06
614,369	19,93
614,832	19,78
615,294	20,2
615,757	19,64
616,219	19,47
616,681	19,32
617,143	19,23
617,605	19,43
618,067	19,45
618,529	19,17
618,99	18,99
619,452	18,78
619,913	19,11
620,375	19,03
620,836	18,89
621,297	19,04
621,758	18,44
622,219	18,42
622,68	18,84
623,14	18,5
623,601	18,59
624,061	18,73
624,522	18,34
624,982	18,41
625,442	18,54
625,902	18,53
626,362	18,28
626,822	18,09
627,282	18,4
627,742	18,11
628,201	18,09
628,661	18,17
629,12	18,09
629,579	18,02
630,038	18,15
630,497	18,27
630,956	17,82
631,415	18,12
631,874	17,92
632,332	18,18
632,791	17,6
633,249	17,76
633,708	17,92
634,166	17,58
634,624	17,65
635,082	17,66
635,54	17,41
635,998	17,66
636,455	17,58
636,913	17,45
637,37	17,32
637,828	17,11
638,285	17,13
638,742	16,95
639,199	16,88
639,656	16,85
640,113	16,58
640,57	16,45
641,027	16,36
641,483	15,78
641,94	16,29
642,396	16,03
642,852	15,72
643,309	15,8
643,765	15,71
644,221	15,63
644,676	15,38
645,132	15,43
645,588	15,21
646,043	14,98
646,499	14,99
646,954	14,93
647,409	14,76
647,864	14,56
648,319	14,56
648,774	14,44
649,229	14,47
649,684	14,34
650,139	14,28
650,593	14,14
651,047	14,09
651,502	13,89
651,956	13,79
652,41	13,67
652,864	13,78
653,318	13,65
653,772	13,88
654,225	13,69
654,679	13,66
655,133	13,49
655,586	13,46
656,039	13,12
656,492	13,38
656,946	13,17
657,399	13,23
657,851	13,1
658,304	13,23
658,757	13,03
659,209	13,03
659,662	12,96
660,114	12,48
660,567	12,65
661,019	12,46
661,471	12,58
661,923	12,37
662,375	12,29
662,826	12,35
663,278	12,21
663,73	12,2
664,181	12,06
664,632	12,15
665,084	12,08
665,535	12,12
665,986	11,97
666,437	12,11
666,888	12
667,338	11,89
667,789	12,03
668,24	11,82
668,69	11,98
669,14	11,93
669,591	12,11
670,041	11,91
670,491	11,98
670,941	12,09
671,391	12,14
671,84	12,05
672,29	12,22
672,74	12,28
673,189	12,3
673,638	12,32
674,088	12,37
674,537	12,38
674,986	12,49
675,435	12,62
675,883	12,66
676,332	12,77
676,781	12,9
677,229	13,15
677,678	13,04
678,126	13,1
678,574	13,32
679,022	13,57
679,47	13,62
679,918	13,72
680,366	13,62
680,814	13,94
681,261	13,99
681,709	13,99
682,156	14,23
682,604	14,31
683,051	14,43
683,498	14,85
683,945	14,65
684,392	14,96
684,839	14,78
685,286	14,99
685,732	15,21
686,179	15,18
686,625	15,43
687,071	15,77
687,518	15,64
687,964	15,79
688,41	16,04
688,856	16,1
689,301	16,62
689,747	17,1
690,193	17,16
690,638	17,62
691,084	17,98
691,529	18,11
691,974	18,6
692,419	19,17
692,864	19,6
693,309	20,04
693,754	20,56
694,199	21
694,643	21,74
695,088	22,22
695,532	23,01
695,977	23,52
696,421	24,13
696,865	24,87
697,309	25,43
697,753	26,15
698,197	26,61
698,64	27,5
699,084	28,02
699,527	28,57
699,971	29,03
700,414	29,81
700,857	30,75
701,3	30,9
701,743	32,12
702,186	32,59
702,629	33,1
703,072	33,86
703,515	34,06
703,957	35,01
704,399	35,52
704,842	36,27
705,284	37,07
705,726	37,14
706,168	38,03
706,61	38,6
707,052	39,45
707,494	40,19
707,935	40,68
708,377	41,14
708,818	41,98
709,26	42,19
709,701	42,92
710,142	43,05
710,583	44,04
711,024	44,05
711,465	44,54
711,905	45,26
712,346	45,84
712,787	46,08
713,227	46,64
713,667	48,02
714,108	48,11
714,548	47,81
714,988	48,95
715,428	49,26
715,868	49,9
716,307	50,28
716,747	50,24
717,186	51,02
717,626	51,47
718,065	51,29
718,504	52,29
718,944	53,26
719,383	53,19
719,822	53,29
720,261	53,89
720,699	54,1
721,138	55,02
721,576	54,94
722,015	55,73
722,453	55,65
722,892	56,45
723,33	56,97
723,768	56,89
724,206	56,98
724,644	57,96
725,081	57,8
725,519	57,94
725,957	58,53
726,394	58,55
726,832	58,83
727,269	59,03
727,706	59,35
728,143	59,74
728,58	60,28
729,017	59,67
729,454	60,23
729,89	60,51
730,327	60,61
730,764	60,88
731,2	61,15
731,636	61,28
732,072	61,49
732,509	61,65
732,945	62,41
733,38	61,95
733,816	62,38
734,252	62,29
734,688	62,55
735,123	62,63
735,559	62,43
735,994	62,88
736,429	62,69
736,864	62,59
737,299	63,32
737,734	63,19
738,169	63,56
738,604	63,35
739,038	63,01
739,473	63,7
739,907	63,89
740,342	62,97
740,776	63,82
741,21	63,21
741,644	63,51
742,078	63,44
742,512	63,49
742,946	63,69
743,379	63,8
743,813	63,73
744,246	63,68
744,68	63,5
745,113	64,03
745,546	63,79
745,979	64,03
746,412	63,73
746,845	63,74
747,278	63,55
747,711	63,82
748,143	63,6
748,576	63,54
749,008	64,15
749,441	63,79
749,873	63,2
750,305	63,33
750,737	63,35
751,169	63,54
751,601	63,53
752,032	63,74
752,464	63,28
752,896	63,13
753,327	62,89
753,758	63,17
754,19	63,15
754,621	63,42
755,052	63,02
755,483	63,16
755,914	62,83
756,344	62,63
756,775	63,06
757,206	62,53
757,636	63,19
758,066	63,08
758,497	62,93
758,927	63,22
759,357	63,04
759,787	62,6
760,217	62,8
760,647	62,9
761,076	62,77
761,506	63,08
761,935	62,18
762,365	62,68
762,794	62,35
763,223	62,89
763,653	61,99
764,082	62,04
764,51	62,1
764,939	61,97
765,368	61,93
765,797	62,08
766,225	61,75
766,654	62,53
767,082	62,5
767,51	61,94
767,938	61,76
768,367	61,85
768,795	62,19
769,222	61,83
769,65	61,78
770,078	62,01
770,505	61,75
770,933	62,37
771,36	61,53
771,788	61,73
772,215	61,98
772,642	61,54
773,069	61,52
773,496	61,59
773,923	61,13
774,349	61,14
774,776	61,8
775,203	61,6
775,629	61,72
776,055	61,05
776,482	61,37
776,908	60,75
777,334	61,4
777,76	60,45
778,186	61,56
778,611	60,89
779,037	61
779,463	60,91
779,888	61,01
780,314	61,23
780,739	61,91
781,164	61,31
781,589	60,92
782,014	61,21
782,439	60,74
782,864	60,53
783,289	60,66
783,713	60,98
784,138	61,18
784,562	60,83
784,987	61,32
785,411	61,36
785,835	60,62
786,259	61,05
786,683	60,9
787,107	60,63
787,531	60,69
787,954	60,68
788,378	60,35
788,802	61,04
789,225	60,46
789,648	61,04
790,071	60,89
790,495	60,22
790,918	61,07
791,34	60,74
791,763	60,8
792,186	60,74
792,609	60,58
793,031	60,45
793,454	60,62
793,876	60,82
794,298	60,69
794,721	60,38
795,143	60,38
795,565	60,59
795,986	60,69
796,408	60,8
796,83	60,59
797,252	60,23
797,673	60,42
798,094	60,44
798,516	60,6
798,937	60,14
799,358	60,14
799,779	60,21
800,2	60,41
800,621	59,9
801,042	60,26
801,462	60,57
801,883	60,36
802,303	60,46
802,724	60,1
803,144	60,8
803,564	60,05
803,984	60,46
804,404	59,93
804,824	60,41
805,244	60,15
805,664	60,36
806,084	60,22
806,503	60,38
806,923	61,01
807,342	59,93
807,761	60,3
808,18	60,16
808,599	60,17
809,018	60,59
809,437	60,52
809,856	60,03
810,275	60,63
810,693	59,92
811,112	60,52
811,53	60,21
811,949	59,9
812,367	60,01
812,785	60,3
813,203	60,18
813,621	59,68
814,039	60,21
814,457	59,81
814,874	60,28
815,292	60,5
815,709	59,81
816,127	59,92
816,544	60,1
816,961	60,32
817,378	59,3
817,795	60,5
818,212	60,42
818,629	59,9
819,046	60
819,462	60,24
819,879	60,2
820,295	60,3
820,712	59,79
821,128	60,27
821,544	60,77
821,96	60,08
822,376	60,02
822,792	59,78
823,208	60,25
823,624	59,74
824,039	60,15
824,455	59,79
824,87	60,22
825,286	59,83
825,701	60,08
826,116	60,17
826,531	60,37
826,946	59,93
827,361	59,78
827,776	59,99
828,19	59,83
828,605	59,45
829,02	59,88
829,434	60,23
829,848	59,84
830,263	60,02
830,677	59,57
831,091	59,48
831,505	60,1
831,919	59,86
832,332	59,89
832,746	60,03
833,16	59,83
833,573	59,91
