Data from B_1_Relative__5__00024.txt Node

Date: Tue Jan 30 09:50:22 CET 2024
User: diatiterra
Spectrometer: HDX00911
Trigger mode: 0
Integration Time (sec): 6,000000E-3
Scans to average: 2
Nonlinearity correction enabled: false
Boxcar width: 0
Storing dark spectrum: false
XAxis mode: Wavelengths
Number of Pixels in Spectrum: 2068
>>>>>Begin Spectral Data<<<<<
194,468	100
195,025	93,26
195,581	81,69
196,138	89,89
196,694	68,92
197,251	82,09
197,807	67,61
198,363	67,68
198,919	67,26
199,474	75,32
200,03	74,3
200,586	70,25
201,141	67,5
201,696	62,82
202,251	75,78
202,806	87,77
203,361	77,91
203,916	84,08
204,471	77,78
205,025	82,88
205,58	68,06
206,134	73,29
206,688	73,29
207,242	55,41
207,796	71,86
208,35	76,25
208,904	73,17
209,457	74,42
210,011	72,56
210,564	64,38
211,117	78,92
211,67	78,29
212,223	81,58
212,776	72,51
213,329	69,46
213,881	83,78
214,434	70,73
214,986	75,16
215,538	74,71
216,09	65,27
216,642	83,01
217,194	75
217,746	76,58
218,297	82,05
218,849	73,33
219,4	68,52
219,951	79,17
220,502	71,91
221,053	68,05
221,604	80
222,155	84,83
222,705	67,55
223,256	78,86
223,806	71,34
224,356	93,8
224,906	70,99
225,456	59,76
226,006	59,88
226,556	79,87
227,106	83,82
227,655	68,35
228,204	80,13
228,754	71,18
229,303	86,58
229,852	74,05
230,401	69,81
230,949	88,82
231,498	89,13
232,047	63,58
232,595	82,12
233,143	65,5
233,691	65,82
234,239	71,43
234,787	86
235,335	83,21
235,883	86,9
236,43	76,28
236,978	74,21
237,525	68,52
238,072	67,15
238,619	59,54
239,166	75
239,713	81,94
240,26	75,15
240,806	82,31
241,353	69,41
241,899	75,31
242,445	68,67
242,991	78,11
243,537	76
244,083	69,08
244,629	68,49
245,174	74,39
245,72	67,02
246,265	67,08
246,81	84,71
247,355	88,3
247,9	79,76
248,445	91,47
248,99	79,56
249,534	68,48
250,079	89,47
250,623	78,71
251,168	81,07
251,712	54,81
252,256	67,94
252,8	80,39
253,343	76,88
253,887	73,91
254,43	64,52
254,974	81,02
255,517	63,97
256,06	74,59
256,603	81,1
257,146	83,22
257,689	80,92
258,232	85,5
258,774	82,79
259,317	82,27
259,859	60
260,401	93,44
260,943	77,48
261,485	92,24
262,027	75,5
262,569	65,77
263,11	73,24
263,652	73,1
264,193	76,76
264,734	84,83
265,275	82,99
265,816	64,49
266,357	68,79
266,898	74,52
267,438	85,16
267,979	79,23
268,519	67,12
269,059	92,86
269,6	72,9
270,14	87,77
270,68	91,67
271,219	86,58
271,759	82,81
272,298	74,07
272,838	70,06
273,377	83,67
273,916	67,5
274,455	84,72
274,994	67,65
275,533	66,07
276,072	76,16
276,61	74,52
277,149	76,76
277,687	67,27
278,225	79,34
278,763	76,34
279,301	78,26
279,839	80
280,377	86,76
280,914	74,22
281,452	75,31
281,989	78,92
282,526	66,67
283,064	88,19
283,601	64,53
284,137	70,8
284,674	74,68
285,211	95,28
285,747	68,86
286,284	70,99
286,82	75,69
287,356	68,89
287,892	81,46
288,428	69,93
288,964	69,81
289,5	72,18
290,035	89,68
290,571	75,78
291,106	109,18
291,641	76,67
292,176	65,52
292,711	65,07
293,246	75,18
293,781	75,37
294,315	82,26
294,85	64,86
295,384	75,21
295,918	62,01
296,453	72,78
296,987	92,86
297,52	56,93
298,054	59,06
298,588	88,46
299,121	79,53
299,655	56,55
300,188	69,57
300,721	65,99
301,254	61,97
301,787	80,34
302,32	76,69
302,853	62,79
303,385	72,26
303,918	82,05
304,45	72,79
304,982	64,47
305,514	69,62
306,046	73,24
306,578	82,48
307,11	78,11
307,641	60
308,173	64,38
308,704	66,3
309,236	60,39
309,767	66,9
310,298	71,43
310,829	76,67
311,359	70,19
311,89	88,51
312,421	70,21
312,951	69,68
313,481	69,29
314,012	73,33
314,542	73,98
315,072	64,79
315,601	75,71
316,131	76,87
316,661	65,85
317,19	67,19
317,72	60,54
318,249	72,18
318,778	67,46
319,307	72,15
319,836	74,84
320,365	74,83
320,893	77,01
321,422	77,78
321,95	68,71
322,479	82,73
323,007	67,55
323,535	66,67
324,063	93,46
324,591	89,94
325,118	70,63
325,646	83,82
326,173	83,72
326,701	64
327,228	69,01
327,755	60,74
328,282	85,31
328,809	74,81
329,336	70,62
329,862	80,9
330,389	65,24
330,915	69,28
331,441	67,2
331,968	76,64
332,494	67,55
333,02	62,21
333,545	59,88
334,071	72,08
334,597	68,83
335,122	76,6
335,648	73,41
336,173	65,61
336,698	70
337,223	58,27
337,748	73,55
338,272	63,35
338,797	60,57
339,322	75,62
339,846	60,95
340,37	70,51
340,894	58,23
341,419	72,6
341,942	55,08
342,466	48,3
342,99	69,62
343,514	55,74
344,037	57,95
344,56	49,15
345,084	59,38
345,607	60,22
346,13	54,19
346,653	64,24
347,175	51,15
347,698	57,07
348,221	51,25
348,743	61,11
349,265	55,17
349,787	55,84
350,309	51,28
350,831	63,93
351,353	52,44
351,875	58,92
352,397	46,45
352,918	46,23
353,439	56,52
353,961	49,5
354,482	58,33
355,003	62,09
355,524	44,83
356,044	53,61
356,565	48,34
357,086	51,6
357,606	42,93
358,126	53,92
358,646	43,48
359,167	45,87
359,687	47,11
360,206	49,79
360,726	48,11
361,246	45,34
361,765	46,01
362,285	44,5
362,804	54,41
363,323	50
363,842	49,77
364,361	52,81
364,88	44,72
365,398	43,66
365,917	51,13
366,435	50,2
366,954	43,95
367,472	44,44
367,99	37,64
368,508	42,42
369,026	38,36
369,544	33,92
370,061	30,88
370,579	40,3
371,096	41,24
371,613	42,12
372,131	37,88
372,648	46,18
373,165	37,68
373,681	41,76
374,198	36,48
374,715	39,78
375,231	36,36
375,747	40
376,264	37,85
376,78	41,18
377,296	40,4
377,812	30,06
378,327	33,82
378,843	33,63
379,359	31,83
379,874	32,9
380,389	29,8
380,905	38,92
381,42	35,71
381,935	35,26
382,449	31,6
382,964	30,65
383,479	27,76
383,993	33,17
384,508	26,35
385,022	27,05
385,536	28,94
386,05	26,77
386,564	26,47
387,078	29,98
387,592	27,73
388,105	24,81
388,619	27,2
389,132	26,69
389,645	20,8
390,158	25,24
390,671	28,31
391,184	23,97
391,697	23,63
392,21	24,96
392,722	21,78
393,235	24,17
393,747	22,93
394,259	21
394,771	23,54
395,283	20,14
395,795	19,78
396,307	20,28
396,818	21,67
397,33	22,03
397,841	18,93
398,353	19,53
398,864	21,66
399,375	17,87
399,886	16,9
400,397	21,87
400,907	16,41
401,418	17,72
401,928	17,97
402,439	17,05
402,949	14,35
403,459	15,67
403,969	15,04
404,479	14,93
404,989	16,29
405,498	14,57
406,008	15,39
406,517	14,74
407,027	12,95
407,536	13,73
408,045	13,35
408,554	13,55
409,063	12,02
409,572	11,72
410,08	11,92
410,589	10,22
411,097	9,73
411,606	11,72
412,114	7,96
412,622	6,79
413,13	9,54
413,638	9,41
414,145	9,91
414,653	7,55
415,16	8,79
415,668	8,3
416,175	7,05
416,682	7,13
417,189	8,1
417,696	7,39
418,203	6,78
418,71	6,39
419,216	7,49
419,723	7,2
420,229	6,27
420,735	6,53
421,242	6,57
421,748	5,93
422,254	6,98
422,759	6,34
423,265	5,39
423,771	5,1
424,276	6,2
424,781	5,17
425,287	5,73
425,792	5,52
426,297	5,37
426,802	5,58
427,306	5,54
427,811	5,36
428,316	6,1
428,82	5,55
429,324	5,51
429,829	5,86
430,333	5,76
430,837	5,07
431,34	5,46
431,844	4,65
432,348	5,49
432,851	6,24
433,355	5,64
433,858	5,73
434,361	4,88
434,864	4,97
435,367	5,21
435,87	4,85
436,373	4,71
436,876	5,47
437,378	4,21
437,88	4,5
438,383	4,78
438,885	4,59
439,387	4,6
439,889	5,06
440,391	4,51
440,892	5,27
441,394	5,35
441,896	5,24
442,397	5,23
442,898	4,74
443,399	5
443,9	4,43
444,401	4,73
444,902	4,62
445,403	4,49
445,903	5,19
446,404	4,82
446,904	5,04
447,405	4,57
447,905	4,73
448,405	4,27
448,905	4,92
449,404	4,55
449,904	4,43
450,404	4,24
450,903	4,98
451,403	4,09
451,902	4,7
452,401	4,53
452,9	4,62
453,399	4,85
453,898	4,82
454,396	4,35
454,895	4,8
455,393	4,6
455,892	4,55
456,39	4,35
456,888	4,86
457,386	4,69
457,884	4,79
458,382	4,62
458,879	4,85
459,377	4,77
459,874	4,66
460,372	4,78
460,869	4,63
461,366	4,26
461,863	4,78
462,36	4,48
462,857	4,17
463,353	4,58
463,85	4,21
464,346	4,5
464,843	4,4
465,339	4,94
465,835	4,68
466,331	4,22
466,827	4,62
467,323	4,38
467,818	4,78
468,314	4,41
468,809	4,75
469,305	4,57
469,8	4,45
470,295	4,3
470,79	4,52
471,285	4,42
471,78	4,25
472,274	4,19
472,769	4,35
473,263	4,46
473,758	4,71
474,252	4,4
474,746	4,31
475,24	4,41
475,734	4,58
476,228	4,37
476,721	4,49
477,215	4,37
477,708	4,29
478,202	4,71
478,695	4,19
479,188	4,65
479,681	4,34
480,174	3,91
480,667	4,13
481,159	4,52
481,652	4,3
482,144	4,46
482,637	4,17
483,129	4,19
483,621	4,38
484,113	4,41
484,605	4,06
485,097	4,42
485,588	4,31
486,08	4,4
486,571	4,1
487,063	4,59
487,554	4,27
488,045	4,51
488,536	4,03
489,027	4,33
489,518	4,47
490,008	4,11
490,499	4,53
490,989	4,68
491,48	4,11
491,97	4,4
492,46	3,95
492,95	4,22
493,44	4,17
493,93	4,59
494,419	4,44
494,909	4,17
495,398	4,35
495,888	4,59
496,377	4,66
496,866	4,81
497,355	4,54
497,844	4,24
498,333	4,66
498,821	4,69
499,31	4,58
499,798	5,01
500,287	4,66
500,775	4,52
501,263	5,08
501,751	4,81
502,239	4,85
502,727	4,89
503,215	5,21
503,702	5,14
504,19	5,04
504,677	5,33
505,164	5,53
505,651	5,17
506,139	5,72
506,625	5,66
507,112	5,37
507,599	5,76
508,086	5,7
508,572	5,66
509,058	5,92
509,545	6,21
510,031	6,11
510,517	6,35
511,003	6,5
511,489	6,72
511,974	6,7
512,46	6,7
512,946	7,35
513,431	6,99
513,916	7,69
514,401	7,58
514,887	8,16
515,371	7,55
515,856	8,07
516,341	8,05
516,826	8,56
517,31	8,54
517,795	9,01
518,279	9,16
518,763	9,36
519,247	9,45
519,731	9,72
520,215	9,65
520,699	10,2
521,182	10,1
521,666	10,67
522,149	10,79
522,633	11,54
523,116	11,21
523,599	11,97
524,082	12,13
524,565	12,11
525,048	12,59
525,53	12,67
526,013	12,46
526,495	13,28
526,978	13,1
527,46	13,58
527,942	13,49
528,424	14,25
528,906	13,97
529,388	14,25
529,87	14,49
530,351	14,55
530,833	15,06
531,314	15,42
531,795	15,61
532,277	15,02
532,758	15,73
533,238	15,94
533,719	16,24
534,2	16,1
534,681	16,47
535,161	15,74
535,642	15,76
536,122	16,06
536,602	16,58
537,082	16,27
537,562	16,8
538,042	16,51
538,522	17,06
539,001	16,74
539,481	16,33
539,96	16,72
540,44	16,83
540,919	17,39
541,398	16,81
541,877	16,8
542,356	17,03
542,835	17,05
543,313	16,8
543,792	17,32
544,27	17,14
544,749	17,27
545,227	17,17
545,705	17,06
546,183	17,18
546,661	17,3
547,139	17,18
547,616	17,33
548,094	17,67
548,571	17,67
549,049	17,58
549,526	17,31
550,003	17,33
550,48	17,6
550,957	17,64
551,434	17,83
551,911	17,67
552,387	17,36
552,864	17,68
553,34	17,59
553,817	18,15
554,293	17,66
554,769	17,78
555,245	17,69
555,721	17,39
556,197	17,37
556,672	17,51
557,148	17,62
557,623	17,5
558,099	17,23
558,574	17,37
559,049	17,42
559,524	16,97
559,999	17,07
560,474	17,22
560,948	16,91
561,423	16,87
561,897	16,67
562,372	16,63
562,846	16,83
563,32	16,81
563,794	16,26
564,268	16,33
564,742	16,16
565,216	15,8
565,69	15,81
566,163	15,82
566,636	15,69
567,11	15,82
567,583	15,17
568,056	15,16
568,529	15,24
569,002	14,76
569,475	14,44
569,947	14,53
570,42	14,1
570,892	14,21
571,365	14,02
571,837	14,09
572,309	13,64
572,781	13,57
573,253	13,26
573,725	13,13
574,197	12,95
574,668	13,18
575,14	12,95
575,611	12,69
576,082	12,7
576,554	12,6
577,025	12,61
577,496	12,1
577,967	12,17
578,437	12,06
578,908	11,71
579,379	11,31
579,849	11,62
580,319	11,54
580,79	11,37
581,26	11,45
581,73	11,23
582,2	10,88
582,669	11,09
583,139	10,86
583,609	10,84
584,078	10,84
584,548	10,89
585,017	10,72
585,486	10,6
585,955	10,56
586,424	10,52
586,893	10,23
587,362	10,12
587,83	10,14
588,299	10,19
588,767	9,95
589,236	10,15
589,704	10,16
590,172	9,75
590,64	10,12
591,108	9,6
591,576	9,71
592,043	9,9
592,511	9,63
592,978	9,6
593,446	9,56
593,913	9,59
594,38	9,71
594,847	9,43
595,314	9,55
595,781	9,5
596,248	9,32
596,715	9,37
597,181	9,37
597,647	9,25
598,114	9,14
598,58	9,18
599,046	9,31
599,512	9,45
599,978	9,11
600,444	9,48
600,91	9,15
601,375	9,28
601,841	9,14
602,306	9,06
602,771	9,09
603,236	9,09
603,702	8,91
604,167	8,74
604,631	8,93
605,096	8,88
605,561	8,69
606,025	8,81
606,49	8,64
606,954	8,65
607,418	8,76
607,882	8,41
608,347	8,52
608,81	8,41
609,274	8,36
609,738	8,31
610,202	8,14
610,665	8,06
611,128	8,01
611,592	8,04
612,055	7,98
612,518	8,01
612,981	7,84
613,444	7,92
613,907	7,94
614,369	7,66
614,832	7,56
615,294	7,64
615,757	7,26
616,219	7,5
616,681	7,36
617,143	7,33
617,605	7,29
618,067	7,29
618,529	7,15
618,99	7,16
619,452	7,16
619,913	7,09
620,375	7,09
620,836	6,94
621,297	7,05
621,758	6,79
622,219	6,83
622,68	7,03
623,14	6,85
623,601	6,73
624,061	6,75
624,522	6,84
624,982	6,63
625,442	6,82
625,902	6,83
626,362	6,67
626,822	6,7
627,282	6,85
627,742	6,74
628,201	6,66
628,661	6,86
629,12	6,8
629,579	6,53
630,038	6,5
630,497	6,64
630,956	6,57
631,415	6,5
631,874	6,45
632,332	6,51
632,791	6,63
633,249	6,4
633,708	6,49
634,166	6,33
634,624	6,4
635,082	6,35
635,54	6,2
635,998	6,19
636,455	6,19
636,913	6,32
637,37	6,15
637,828	6,15
638,285	5,82
638,742	6,06
639,199	5,91
639,656	5,85
640,113	5,91
640,57	5,66
641,027	5,61
641,483	5,62
641,94	5,43
642,396	5,45
642,852	5,32
643,309	5,42
643,765	5,28
644,221	5,36
644,676	5,19
645,132	5,08
645,588	5,03
646,043	5,06
646,499	5,03
646,954	4,83
647,409	4,93
647,864	4,81
648,319	4,85
648,774	4,75
649,229	4,83
649,684	4,79
650,139	4,55
650,593	4,67
651,047	4,68
651,502	4,53
651,956	4,51
652,41	4,67
652,864	4,55
653,318	4,54
653,772	4,59
654,225	4,46
654,679	4,54
655,133	4,45
655,586	4,51
656,039	4,46
656,492	4,53
656,946	4,45
657,399	4,46
657,851	4,53
658,304	4,39
658,757	4,41
659,209	4,29
659,662	4,37
660,114	4,23
660,567	4,25
661,019	4,21
661,471	4,13
661,923	4,28
662,375	4,23
662,826	4,34
663,278	4,21
663,73	4,34
664,181	4,22
664,632	4,34
665,084	4,32
665,535	4,26
665,986	4,25
666,437	4,33
666,888	4,38
667,338	4,28
667,789	4,47
668,24	4,32
668,69	4,47
669,14	4,58
669,591	4,5
670,041	4,58
670,491	4,56
670,941	4,57
671,391	4,72
671,84	4,68
672,29	4,75
672,74	4,91
673,189	4,9
673,638	4,94
674,088	5,04
674,537	5,1
674,986	5,11
675,435	5,31
675,883	5,33
676,332	5,39
676,781	5,32
677,229	5,57
677,678	5,82
678,126	5,61
678,574	5,89
679,022	5,9
679,47	6,04
679,918	5,99
680,366	6,23
680,814	6,24
681,261	6,35
681,709	6,5
682,156	6,51
682,604	6,52
683,051	6,82
683,498	6,86
683,945	6,82
684,392	6,88
684,839	6,84
685,286	6,89
685,732	6,89
686,179	6,99
686,625	7,05
687,071	7,08
687,518	7,06
687,964	7,1
688,41	7,28
688,856	7,3
689,301	7,35
689,747	7,57
690,193	7,66
690,638	7,79
691,084	7,84
691,529	8,33
691,974	8,32
692,419	8,44
692,864	8,65
693,309	9,01
693,754	9,41
694,199	9,76
694,643	10,17
695,088	10,36
695,532	10,97
695,977	11,05
696,421	11,59
696,865	12,16
697,309	12,58
697,753	13
698,197	13,38
698,64	13,97
699,084	14,53
699,527	15,24
699,971	15,58
700,414	15,86
700,857	16,52
701,3	17,24
701,743	17,75
702,186	18,17
702,629	18,96
703,072	19,35
703,515	19,77
703,957	20,36
704,399	20,94
704,842	21,49
705,284	22,02
705,726	22,58
706,168	23,35
706,61	23,72
707,052	24,35
707,494	25,15
707,935	25,92
708,377	26,18
708,818	26,66
709,26	27,55
709,701	28,03
710,142	28,25
710,583	28,77
711,024	29,55
711,465	29,84
711,905	31,01
712,346	31,06
712,787	31,66
713,227	32,42
713,667	33,17
714,108	33,48
714,548	34,01
714,988	34,97
715,428	34,98
715,868	35,72
716,307	36,7
716,747	36,95
717,186	37,23
717,626	37,67
718,065	38,17
718,504	39,14
718,944	39,87
719,383	39,98
719,822	40,48
720,261	41,52
720,699	42,06
721,138	42,22
721,576	42,39
722,015	43,12
722,453	43,38
722,892	44,08
723,33	44,2
723,768	45,49
724,206	45,78
724,644	45,99
725,081	46,59
725,519	46,89
725,957	47,17
726,394	47,8
726,832	47,92
727,269	48,05
727,706	49,05
728,143	49,17
728,58	49,7
729,017	49,84
729,454	50,3
729,89	50,7
730,327	50,73
730,764	51,83
731,2	51,99
731,636	52,17
732,072	52,3
732,509	52,37
732,945	52,72
733,38	52,98
733,816	53,67
734,252	53,53
734,688	54,22
735,123	54,03
735,559	54,37
735,994	54,68
736,429	54,99
736,864	54,75
737,299	55,5
737,734	55,49
738,169	55,46
738,604	55,88
739,038	55,89
739,473	56,19
739,907	56,64
740,342	56,54
740,776	56,25
741,21	56,38
741,644	56,23
742,078	56,88
742,512	57,23
742,946	57,15
743,379	57
743,813	57,45
744,246	56,92
744,68	57,52
745,113	57,5
745,546	57,57
745,979	57,36
746,412	57,74
746,845	57,82
747,278	57,78
747,711	57,78
748,143	57,72
748,576	57,41
749,008	57,88
749,441	57,87
749,873	57,71
750,305	57,81
750,737	57,38
751,169	57,72
751,601	58,03
752,032	57,53
752,464	58,08
752,896	58,05
753,327	57,96
753,758	57,87
754,19	57,72
754,621	57,79
755,052	57,94
755,483	57,86
755,914	57,71
756,344	57,71
756,775	57,82
757,206	57,38
757,636	57,64
758,066	57,51
758,497	57,9
758,927	57,26
759,357	58
759,787	57,44
760,217	57,3
760,647	57,82
761,076	57,61
761,506	57,65
761,935	56,99
762,365	57,54
762,794	57,47
763,223	57,32
763,653	57,09
764,082	57,67
764,51	57,42
764,939	57,43
765,368	57,12
765,797	56,87
766,225	57,15
766,654	57,22
767,082	57,49
767,51	57,26
767,938	57,21
768,367	56,96
768,795	57,07
769,222	57,02
769,65	56,54
770,078	56,68
770,505	57,22
770,933	57,01
771,36	57,19
771,788	56,36
772,215	56,63
772,642	57,04
773,069	56,92
773,496	56,67
773,923	56,4
774,349	56,49
774,776	57,05
775,203	57,06
775,629	56,55
776,055	56,58
776,482	56,59
776,908	56,64
777,334	56,31
777,76	56,12
778,186	56,67
778,611	56,08
779,037	55,9
779,463	55,88
779,888	56,08
780,314	56,44
780,739	56,79
781,164	56,59
781,589	56,07
782,014	56,45
782,439	56,62
782,864	56,15
783,289	56,46
783,713	56,07
784,138	56,22
784,562	56,02
784,987	56,45
785,411	56,22
785,835	56,16
786,259	56,14
786,683	56,63
787,107	56,39
787,531	55,76
787,954	55,97
788,378	55,75
788,802	55,8
789,225	56,04
789,648	55,98
790,071	56,03
790,495	55,56
790,918	56,41
791,34	55,97
791,763	56,81
792,186	55,97
792,609	55,76
793,031	55,77
793,454	56,45
793,876	56,62
794,298	56,1
794,721	55,45
795,143	55,73
795,565	56,19
795,986	56,03
796,408	56,2
796,83	55,99
797,252	55,83
797,673	56,22
798,094	55,79
798,516	56,01
798,937	56,16
799,358	56,07
799,779	55,78
800,2	56,04
800,621	55,82
801,042	56,04
801,462	55,83
801,883	56,38
802,303	55,94
802,724	55,53
803,144	55,91
803,564	55,55
803,984	55,79
804,404	55,54
804,824	56,02
805,244	55,95
805,664	55,43
806,084	55,81
806,503	55,53
806,923	55,49
807,342	55,71
807,761	55,75
808,18	55,96
808,599	55,92
809,018	55,92
809,437	56
809,856	56,29
810,275	55,66
810,693	56,1
811,112	55,65
811,53	55,37
811,949	55,68
812,367	55,8
812,785	55,66
813,203	55,18
813,621	55,71
814,039	55,65
814,457	55,68
814,874	55,72
815,292	55,95
815,709	55,7
816,127	55,68
816,544	55,66
816,961	55,51
817,378	54,88
817,795	55,87
818,212	55,72
818,629	55,7
819,046	55,78
819,462	55,66
819,879	55,96
820,295	55,46
820,712	55,61
821,128	55,88
821,544	55,54
821,96	55,46
822,376	55,38
822,792	55,73
823,208	55,41
823,624	55,59
824,039	55,59
824,455	55,73
824,87	55,57
825,286	55,32
825,701	55,48
826,116	55,73
826,531	55,52
826,946	55,25
827,361	55,75
827,776	55,72
828,19	55,12
828,605	55,39
829,02	55,56
829,434	55,22
829,848	55,47
830,263	55,86
830,677	55,76
831,091	55,35
831,505	55,36
831,919	55,61
832,332	55,2
832,746	55,66
833,16	55,56
833,573	55,28
833,987	55,45
834,4	55,04
834,813	55,51
835,226	55,32
835,639	55,4
836,052	55,4
836,465	55,67
836,878	55,38
837,29	55,72
837,703	55,1
838,116	55,44
838,528	55,3
838,94	55,11
839,352	55,08
839,765	55,75
840,177	55,57
840,589	55,42
841	55,21
841,412	55,08
841,824	55,08
842,235	54,99
842,647	55,38
843,058	55,58
843,47	55,54
843,881	54,99
844,292	54,84
844,703	55,24
845,114	54,99
845,525	55,57
845,935	55,32
846,346	55,33
846,757	55,7
