Data from B_1_Relative__2__00021.txt Node

Date: Tue Jan 30 09:49:42 CET 2024
User: diatiterra
Spectrometer: HDX00911
Trigger mode: 0
Integration Time (sec): 6,000000E-3
Scans to average: 2
Nonlinearity correction enabled: false
Boxcar width: 0
Storing dark spectrum: false
XAxis mode: Wavelengths
Number of Pixels in Spectrum: 2068
>>>>>Begin Spectral Data<<<<<
194,468	118,48
195,025	91,01
195,581	108,45
196,138	92,13
196,694	76,35
197,251	87,31
197,807	68,75
198,363	69,51
198,919	72,62
199,474	82,28
200,03	65,36
200,586	79,75
201,141	81,25
201,696	65,38
202,251	78,12
202,806	76,98
203,361	79,75
203,916	72,61
204,471	89,74
205,025	83,56
205,58	76,39
206,134	80,75
206,688	80,14
207,242	84,71
207,796	68,26
208,35	75,62
208,904	82,93
209,457	82,56
210,011	75,61
210,564	80,14
211,117	89,76
211,67	90,79
212,223	81,58
212,776	85,38
213,329	68,26
213,881	81,76
214,434	77,44
214,986	79,62
215,538	89,41
216,09	81,44
216,642	79,08
217,194	90,79
217,746	83,54
218,297	82,05
218,849	96,36
219,4	73,46
219,951	78,57
220,502	79,21
221,053	79,29
221,604	91,18
222,155	88,97
222,705	90,73
223,256	77,14
223,806	75,61
224,356	86,05
224,906	85,8
225,456	69,51
226,006	70,66
226,556	79,87
227,106	94,12
227,655	74,82
228,204	85,9
228,754	71,76
229,303	87,25
229,852	82,28
230,401	77,99
230,949	87,5
231,498	89,13
232,047	78,03
232,595	66,48
233,143	81,29
233,691	72,45
234,239	65,38
234,787	62
235,335	84,67
235,883	73,79
236,43	76,28
236,978	84,28
237,525	76,54
238,072	69,34
238,619	82,44
239,166	76,32
239,713	78,71
240,26	70,91
240,806	73,47
241,353	74,71
241,899	77,16
242,445	80
242,991	76,92
243,537	68
244,083	67,11
244,629	63,7
245,174	74,39
245,72	68,09
246,265	65,22
246,81	79,62
247,355	81,29
247,9	81,55
248,445	90,7
248,99	78,1
249,534	75,76
250,079	92,48
250,623	76,77
251,168	79,88
251,712	59,26
252,256	87,79
252,8	86,27
253,343	74,57
253,887	59,78
254,43	79,57
254,974	89,78
255,517	70,59
256,06	87,7
256,603	71,95
257,146	91,28
257,689	77,63
258,232	95,42
258,774	86,07
259,317	88,65
259,859	73,1
260,401	74,59
260,943	73,51
261,485	90,52
262,027	84,77
262,569	76,51
263,11	74,65
263,652	79,31
264,193	69,72
264,734	91,72
265,275	78,91
265,816	81,88
266,357	73,76
266,898	84,08
267,438	74,84
267,979	81,54
268,519	78,08
269,059	80,16
269,6	78,71
270,14	83,45
270,68	82,64
271,219	77,85
271,759	69,53
272,298	70,99
272,838	85,35
273,377	87,07
273,916	80,62
274,455	88,19
274,994	75,74
275,533	70,83
276,072	66,89
276,61	71,34
277,149	83,8
277,687	76,36
278,225	96,69
278,763	85,5
279,301	69,57
279,839	78,06
280,377	81,62
280,914	82,03
281,452	74,69
281,989	68,07
282,526	62,89
283,064	81,94
283,601	76,74
284,137	81,75
284,674	70,13
285,211	89,76
285,747	68,26
286,284	68,52
286,82	73,61
287,356	65,19
287,892	63,58
288,428	72,73
288,964	76,73
289,5	65,41
290,035	86,51
290,571	73,29
291,106	83,67
291,641	85
292,176	71,72
292,711	65,07
293,246	80,29
293,781	70,9
294,315	78,23
294,85	73,65
295,384	67,77
295,918	61,45
296,453	73,42
296,987	102,68
297,52	65,69
298,054	59,06
298,588	86,15
299,121	76,38
299,655	61,38
300,188	84,78
300,721	62,59
301,254	74,65
301,787	86,32
302,32	60,9
302,853	61,63
303,385	62,58
303,918	90,6
304,45	76,19
304,982	76,97
305,514	64,56
306,046	76,76
306,578	74,45
307,11	72,78
307,641	75,48
308,173	73,75
308,704	65,19
309,236	71,43
309,767	64,83
310,298	66,86
310,829	80,67
311,359	78,26
311,89	81,08
312,421	76,6
312,951	80
313,481	67,14
314,012	66,67
314,542	95,93
315,072	75,35
315,601	90
316,131	73,88
316,661	85,37
317,19	75
317,72	71,43
318,249	75,19
318,778	76,33
319,307	75,32
319,836	90,97
320,365	74,83
320,893	74,71
321,422	79,26
321,95	68,1
322,479	84,89
323,007	71,52
323,535	73,22
324,063	87,58
324,591	76,73
325,118	79,37
325,646	81,62
326,173	79,07
326,701	74,67
327,228	77,19
327,755	66,67
328,282	90,91
328,809	93,13
329,336	75,62
329,862	83,71
330,389	61,59
330,915	73,2
331,441	73,12
331,968	78,83
332,494	69,54
333,02	62,79
333,545	64,81
334,071	77,92
334,597	72,73
335,122	70,21
335,648	68,79
336,173	71,34
336,698	62,67
337,223	66,91
337,748	80
338,272	60,25
338,797	67,43
339,322	71,25
339,846	61,54
340,37	73,72
340,894	58,86
341,419	73,97
341,942	67,91
342,466	58,5
342,99	67,09
343,514	68,31
344,037	67,05
344,56	58,76
345,084	61,88
345,607	66,3
346,13	60,34
346,653	67,55
347,175	62,07
347,698	67,39
348,221	59,38
348,743	63,13
349,265	59,77
349,787	56,28
350,309	55,9
350,831	55,74
351,353	60,37
351,875	70,27
352,397	51,66
352,918	61,31
353,439	63,35
353,961	51,98
354,482	63,73
355,003	54,03
355,524	58,13
356,044	48,45
356,565	58,77
357,086	58,45
357,606	59,16
358,126	49,02
358,646	38,16
359,167	46,33
359,687	49,33
360,206	51,91
360,726	56,13
361,246	49,8
361,765	52,58
362,285	54,55
362,804	53,92
363,323	52,16
363,842	50,68
364,361	38,1
364,88	50,41
365,398	51,17
365,917	46,61
366,435	44,13
366,954	41,94
367,472	41,67
367,99	42,97
368,508	42,8
369,026	39,73
369,544	39,51
370,061	33,68
370,579	44,4
371,096	40,89
371,613	39,56
372,131	39,25
372,648	43,52
373,165	44,37
373,681	40,61
374,198	37,11
374,715	39,41
375,231	38,38
375,747	36
376,264	30,91
376,78	36,53
377,296	31,79
377,812	29,48
378,327	37,65
378,843	31,53
379,359	32,96
379,874	33,16
380,389	30,37
380,905	38,92
381,42	36,29
381,935	35,79
382,449	29,72
382,964	34,42
383,479	24,32
383,993	33,41
384,508	29,8
385,022	30
385,536	31,29
386,05	24,34
386,564	27,83
387,078	29,77
387,592	30,16
388,105	24,43
388,619	27,4
389,132	29,08
389,645	23,54
390,158	24,86
390,671	27,37
391,184	27,55
391,697	25,86
392,21	24,35
392,722	24,79
393,235	25,83
393,747	26,5
394,259	21,17
394,771	26,14
395,283	21,88
395,795	22,14
396,307	23,37
396,818	23,83
397,33	24,44
397,841	18,77
398,353	24,19
398,864	24,49
399,375	21,92
399,886	19,53
400,397	18,71
400,907	16,77
401,418	16,48
401,928	17,61
402,439	17,77
402,949	15,91
403,459	15,67
403,969	16,19
404,479	16,68
404,989	17,97
405,498	15,18
406,008	18,04
406,517	14,84
407,027	15,68
407,536	15,18
408,045	13,16
408,554	12,86
409,063	12,69
409,572	12,33
410,08	11,47
410,589	9,86
411,097	10,64
411,606	9,86
412,114	8,28
412,622	8,24
413,13	8,73
413,638	9,29
414,145	8,97
414,653	7,1
415,16	8,41
415,668	8,52
416,175	7,93
416,682	6,84
417,189	7,95
417,696	7,58
418,203	7,09
418,71	6,62
419,216	6,43
419,723	6,03
420,229	6,73
420,735	6,03
421,242	5,9
421,748	5,81
422,254	6,98
422,759	5,68
423,265	4,76
423,771	4,65
424,276	5,58
424,781	5,57
425,287	5,66
425,792	5,62
426,297	5,13
426,802	5,34
427,306	5,24
427,811	4,93
428,316	5,74
428,82	4,37
429,324	4,69
429,829	5,7
430,333	4,83
430,837	4,44
431,34	4,85
431,844	4,47
432,348	4,93
432,851	5,43
433,355	4,26
433,858	4,52
434,361	4,55
434,864	4,51
435,367	5,18
435,87	4,32
436,373	4,01
436,876	5,02
437,378	3,93
437,88	3,98
438,383	4,78
438,885	3,95
439,387	3,48
439,889	4,42
440,391	3,96
440,892	4,52
441,394	4,1
441,896	4,26
442,397	4,54
442,898	4,29
443,399	4,15
443,9	4,23
444,401	4,37
444,902	4,51
445,403	3,95
445,903	4,68
446,404	4,84
446,904	4,35
447,405	4,4
447,905	4,11
448,405	3,74
448,905	4,46
449,404	4,01
449,904	3,99
450,404	3,83
450,903	4,82
451,403	4,17
451,902	3,99
452,401	4,03
452,9	4,38
453,399	4,53
453,898	4,35
454,396	4,29
454,895	4,41
455,393	4,23
455,892	4,44
456,39	3,89
456,888	4,42
457,386	4,52
457,884	4,28
458,382	4,08
458,879	4,47
459,377	4,53
459,874	4,07
460,372	4,35
460,869	4,49
461,366	4,06
461,863	4,22
462,36	3,97
462,857	4
463,353	4,45
463,85	4,26
464,346	3,79
464,843	4,35
465,339	4,27
465,835	3,99
466,331	3,84
466,827	3,99
467,323	4,01
467,818	3,79
468,314	4,11
468,809	4,03
469,305	3,83
469,8	4,28
470,295	3,82
470,79	4,17
471,285	3,97
471,78	3,87
472,274	3,81
472,769	4,37
473,263	3,88
473,758	4,02
474,252	3,63
474,746	3,77
475,24	4,05
475,734	4,16
476,228	3,54
476,721	4,13
477,215	3,95
477,708	3,93
478,202	4,02
478,695	3,84
479,188	3,79
479,681	3,67
480,174	3,71
480,667	4,31
481,159	4,09
481,652	3,9
482,144	4,04
482,637	4,03
483,129	3,66
483,621	4,25
484,113	4,31
484,605	3,79
485,097	4,13
485,588	3,65
486,08	3,95
486,571	3,93
487,063	4,28
487,554	3,79
488,045	4,1
488,536	4,03
489,027	3,95
489,518	3,96
490,008	3,75
490,499	4,18
490,989	4,31
491,48	4,1
491,97	4,28
492,46	3,86
492,95	4,22
493,44	3,98
493,93	4,28
494,419	4,21
494,909	4,09
495,398	4,27
495,888	4,2
496,377	4,07
496,866	4,53
497,355	4,46
497,844	4,23
498,333	4,4
498,821	4,69
499,31	4,53
499,798	4,73
500,287	4,41
500,775	4,75
501,263	5,13
501,751	4,67
502,239	5,19
502,727	4,86
503,215	5,02
503,702	5,21
504,19	5,16
504,677	5,36
505,164	5,53
505,651	5,93
506,139	5,85
506,625	5,77
507,112	5,88
507,599	6,27
508,086	6,29
508,572	6,27
509,058	6,37
509,545	6,45
510,031	6,62
510,517	6,79
511,003	6,62
511,489	6,93
511,974	6,98
512,46	7,36
512,946	7,81
513,431	7,84
513,916	8,36
514,401	8,28
514,887	8,3
515,371	8,52
515,856	8,48
516,341	8,75
516,826	9,44
517,31	9,72
517,795	9,94
518,279	10,02
518,763	10,6
519,247	10,57
519,731	10,72
520,215	11,08
520,699	10,68
521,182	11,8
521,666	12,09
522,149	12,5
522,633	12,57
523,116	13,18
523,599	12,7
524,082	13,9
524,565	13,86
525,048	13,88
525,53	14,17
526,013	14,16
526,495	14,89
526,978	15,14
527,46	14,86
527,942	15,41
528,424	15,95
528,906	15,89
529,388	16,4
529,87	16,37
530,351	16,52
530,833	17,23
531,314	17,26
531,795	17,31
532,277	17,44
532,758	17,34
533,238	18,25
533,719	18,02
534,2	18,09
534,681	18,31
535,161	18,32
535,642	18,2
536,122	18,6
536,602	18,78
537,082	18,47
537,562	18,59
538,042	18,92
538,522	18,65
539,001	19,2
539,481	19,23
539,96	19,39
540,44	19,64
540,919	19,61
541,398	19,17
541,877	19,03
542,356	19,08
542,835	19,41
543,313	19,74
543,792	19,61
544,27	19,44
544,749	19,89
545,227	19,28
545,705	19,84
546,183	19,44
546,661	20,05
547,139	19,76
547,616	19,75
548,094	20,25
548,571	19,74
549,049	20,31
549,526	20,22
550,003	20,23
550,48	20,16
550,957	20,5
551,434	20,37
551,911	20,43
552,387	20,61
552,864	20,43
553,34	20,46
553,817	20,29
554,293	20,41
554,769	20,78
555,245	20,35
555,721	20,44
556,197	20,54
556,672	20,22
557,148	20,27
557,623	20,26
558,099	20
558,574	20,09
559,049	19,93
559,524	19,75
559,999	19,71
560,474	19,76
560,948	19,55
561,423	19,68
561,897	19,52
562,372	19,3
562,846	19,31
563,32	19,04
563,794	18,84
564,268	18,99
564,742	18,4
565,216	18,25
565,69	18,6
566,163	18,39
566,636	18,31
567,11	18,52
567,583	17,78
568,056	18,2
568,529	17,77
569,002	17,39
569,475	17,6
569,947	16,9
570,42	16,9
570,892	16,43
571,365	16,43
571,837	16,22
572,309	16,46
572,781	15,82
573,253	15,73
573,725	15,8
574,197	15,32
574,668	15,31
575,14	15,32
575,611	15,09
576,082	15,01
576,554	14,78
577,025	14,59
577,496	14,78
577,967	14,31
578,437	14,3
578,908	14,04
579,379	13,93
579,849	13,99
580,319	13,77
580,79	13,63
581,26	13,37
581,73	13,26
582,2	13,18
582,669	13
583,139	13
583,609	13,29
584,078	13,07
584,548	12,83
585,017	12,92
585,486	12,38
585,955	12,78
586,424	12,29
586,893	12,36
587,362	12,1
587,83	12,19
588,299	12,25
588,767	12,22
589,236	12,33
589,704	11,96
590,172	11,62
590,64	12,05
591,108	11,54
591,576	11,66
592,043	11,59
592,511	11,54
592,978	11,57
593,446	11,42
593,913	11,38
594,38	11,4
594,847	11,18
595,314	11,25
595,781	11,34
596,248	11,37
596,715	11,27
597,181	11,11
597,647	11,3
598,114	11,24
598,58	11,16
599,046	11,18
599,512	11,13
599,978	10,9
600,444	10,84
600,91	10,95
601,375	10,97
601,841	10,88
602,306	10,83
602,771	11,09
603,236	10,81
603,702	10,55
604,167	10,64
604,631	10,72
605,096	10,33
605,561	10,45
606,025	10,31
606,49	10,57
606,954	10,24
607,418	10,19
607,882	10,09
608,347	10
608,81	9,81
609,274	9,77
609,738	9,9
610,202	9,62
610,665	9,93
611,128	9,45
611,592	9,42
612,055	9,53
612,518	9,44
612,981	9,37
613,444	9,21
613,907	9,37
614,369	9,11
614,832	9,01
615,294	8,93
615,757	9,04
616,219	9
616,681	8,79
617,143	8,74
617,605	8,58
618,067	8,7
618,529	8,37
618,99	8,63
619,452	8,46
619,913	8,44
620,375	8,35
620,836	8,28
621,297	8,17
621,758	8,37
622,219	8,11
622,68	8,24
623,14	8,07
623,601	8,33
624,061	8,06
624,522	7,97
624,982	7,93
625,442	8,1
625,902	8,07
626,362	7,79
626,822	7,92
627,282	8,04
627,742	7,83
628,201	7,84
628,661	7,83
629,12	7,89
629,579	7,78
630,038	7,96
630,497	7,78
630,956	7,94
631,415	7,67
631,874	7,68
632,332	7,92
632,791	7,67
633,249	7,48
633,708	7,5
634,166	7,58
634,624	7,5
635,082	7,59
635,54	7,21
635,998	7,25
636,455	7,3
636,913	7,43
637,37	7,18
637,828	6,98
638,285	7,04
638,742	6,93
639,199	6,89
639,656	6,84
640,113	6,8
640,57	6,64
641,027	6,47
641,483	6,46
641,94	6,3
642,396	6,21
642,852	6,22
643,309	6,05
643,765	5,87
644,221	5,71
644,676	5,82
645,132	5,65
645,588	5,69
646,043	5,42
646,499	5,52
646,954	5,48
647,409	5,38
647,864	5,14
648,319	5,21
648,774	5,19
649,229	5,07
649,684	5,05
650,139	4,92
650,593	5,11
651,047	4,95
651,502	4,94
651,956	4,81
652,41	4,76
652,864	4,89
653,318	4,75
653,772	4,67
654,225	4,69
654,679	4,66
655,133	4,75
655,586	4,67
656,039	4,62
656,492	4,64
656,946	4,6
657,399	4,53
657,851	4,63
658,304	4,48
658,757	4,34
659,209	4,46
659,662	4,36
660,114	4,12
660,567	4,2
661,019	4,25
661,471	4,07
661,923	4,12
662,375	4,01
662,826	3,93
663,278	4
663,73	4,04
664,181	3,95
664,632	3,88
665,084	3,83
665,535	3,87
665,986	3,94
666,437	3,75
666,888	3,82
667,338	3,92
667,789	3,79
668,24	3,78
668,69	3,76
669,14	3,74
669,591	3,86
670,041	3,89
670,491	3,92
670,941	3,84
671,391	3,91
671,84	3,9
672,29	3,99
672,74	4
673,189	4,06
673,638	4,01
674,088	4,18
674,537	4,18
674,986	4,19
675,435	4,32
675,883	4,23
676,332	4,35
676,781	4,49
677,229	4,59
677,678	4,65
678,126	4,82
678,574	4,71
679,022	4,77
679,47	4,76
679,918	4,98
680,366	4,93
680,814	5,02
681,261	5,03
681,709	5,17
682,156	5,3
682,604	5,33
683,051	5,33
683,498	5,55
683,945	5,62
684,392	5,66
684,839	5,6
685,286	5,79
685,732	5,85
686,179	5,94
686,625	6,07
687,071	6,2
687,518	6,3
687,964	6,6
688,41	6,42
688,856	6,63
689,301	7,08
689,747	7,16
690,193	7,32
690,638	7,54
691,084	7,87
691,529	8,16
691,974	8,5
692,419	8,87
692,864	9,13
693,309	9,57
693,754	10,04
694,199	10,38
694,643	10,91
695,088	11,52
695,532	11,87
695,977	12,25
696,421	12,77
696,865	13,66
697,309	14,03
697,753	14,57
698,197	14,92
698,64	15,81
699,084	16,21
699,527	16,68
699,971	17,38
700,414	18,18
700,857	18,68
701,3	19,43
701,743	20,13
702,186	20,38
702,629	21
703,072	21,84
703,515	22,11
703,957	22,95
704,399	23,66
704,842	23,98
705,284	24,87
705,726	25,5
706,168	25,96
706,61	26,46
707,052	27,58
707,494	27,92
707,935	28,77
708,377	29,15
708,818	29,91
709,26	30,13
709,701	31,12
710,142	31,59
710,583	32,12
711,024	32,97
711,465	33,35
711,905	34,07
712,346	34,54
712,787	34,81
713,227	35,6
713,667	36,51
714,108	37,24
714,548	37,51
714,988	38,46
715,428	38,88
715,868	39,76
716,307	39,95
716,747	40,51
717,186	41,16
717,626	41,63
718,065	42,33
718,504	42,83
718,944	44,04
719,383	44,03
719,822	45,07
720,261	45,15
720,699	45,74
721,138	46,3
721,576	46,38
722,015	47,65
722,453	47,92
722,892	48,09
723,33	48,78
723,768	49,38
724,206	49,44
724,644	50,35
725,081	50,9
725,519	50,93
725,957	51,47
726,394	51,84
726,832	52,86
727,269	52,83
727,706	53,39
728,143	53,33
728,58	54,16
729,017	54,06
729,454	54,22
729,89	54,95
730,327	55,58
730,764	55,95
731,2	55,93
731,636	56,23
732,072	56,37
732,509	56,87
732,945	57,44
733,38	57,45
733,816	57,61
734,252	57,88
734,688	58,21
735,123	58,82
735,559	58,22
735,994	58,98
736,429	59,13
736,864	59,42
737,299	59,1
737,734	59,67
738,169	59,78
738,604	59,89
739,038	59,66
739,473	60,1
739,907	60,94
740,342	60,83
740,776	60,65
741,21	60,5
741,644	60,92
742,078	61,33
742,512	61,32
742,946	61,1
743,379	61,61
743,813	61,24
744,246	61,23
744,68	61,88
745,113	61,59
745,546	61,83
745,979	62,08
746,412	62,15
746,845	61,79
747,278	62,12
747,711	62,68
748,143	62,24
748,576	62,02
749,008	62,63
749,441	61,91
749,873	62,45
750,305	62,5
750,737	62,19
751,169	62,5
751,601	62,31
752,032	62,13
752,464	62,44
752,896	62,3
753,327	62,13
753,758	62,15
754,19	62,01
754,621	62,4
755,052	62,12
755,483	63,14
755,914	62,35
756,344	62,6
756,775	62,6
757,206	62,07
757,636	62,4
758,066	61,98
758,497	62,62
758,927	62,29
759,357	62,69
759,787	62,4
760,217	61,86
760,647	62,6
761,076	62,41
761,506	62,52
761,935	62,28
762,365	62,39
762,794	62,43
763,223	62,01
763,653	62,37
764,082	62,86
764,51	62,14
764,939	62,06
765,368	62,02
765,797	62,3
766,225	62,29
766,654	61,9
767,082	62,45
767,51	62,12
767,938	62,1
768,367	62,13
768,795	61,78
769,222	62,44
769,65	61,84
770,078	61,78
770,505	62,17
770,933	62,11
771,36	61,91
771,788	62,05
772,215	62,2
772,642	61,79
773,069	61,79
773,496	61,78
773,923	61,59
774,349	61,42
774,776	61,91
775,203	61,99
775,629	61,68
776,055	61,69
776,482	61,67
776,908	61,87
777,334	61,76
777,76	61,45
778,186	61,16
778,611	61,46
779,037	61,37
779,463	61,15
779,888	61,2
780,314	61,63
780,739	62,33
781,164	61,75
781,589	61,32
782,014	61,52
782,439	61,4
782,864	61,54
783,289	61,49
783,713	61,07
784,138	61,43
784,562	61,24
784,987	61,76
785,411	61,38
785,835	61,54
786,259	61,39
786,683	61,84
787,107	61,1
787,531	61,39
787,954	61,37
788,378	61,2
788,802	61,31
789,225	61,21
789,648	61
790,071	61,38
790,495	60,87
790,918	61,66
791,34	61,69
791,763	61,15
792,186	61,36
792,609	61,26
793,031	61,39
793,454	61,36
793,876	61,1
794,298	61,15
794,721	60,94
795,143	61,39
795,565	61,55
795,986	61,44
796,408	61,48
796,83	62,11
797,252	61,35
797,673	61,32
798,094	61,26
798,516	61,88
798,937	61,18
799,358	61,58
799,779	60,98
800,2	61,23
800,621	61,23
801,042	60,98
801,462	61,1
801,883	61,48
802,303	61,32
802,724	61,21
803,144	61,6
803,564	61,15
803,984	61,03
804,404	61,04
804,824	60,97
805,244	61,31
805,664	61,16
806,084	61,07
806,503	61,03
806,923	61,38
807,342	61,13
807,761	61,52
808,18	60,99
808,599	61,18
809,018	61,89
809,437	61,19
809,856	61,49
810,275	60,93
810,693	61,15
811,112	61,49
811,53	60,84
811,949	61,2
812,367	61,19
812,785	61,52
813,203	61,19
813,621	61,13
814,039	60,92
814,457	61,2
814,874	61,04
815,292	61,23
815,709	61,08
816,127	61,56
816,544	60,97
816,961	60,79
817,378	60,89
817,795	61,87
818,212	61,08
818,629	61,3
819,046	61,51
819,462	61,77
819,879	61,93
820,295	61,33
820,712	61,15
821,128	60,8
821,544	61,5
821,96	61,34
822,376	60,91
822,792	60,88
823,208	60,87
823,624	61,08
824,039	61,48
824,455	61,11
824,87	61,21
825,286	60,69
825,701	61,12
826,116	61,47
826,531	61,39
826,946	61,1
827,361	60,67
827,776	61,62
828,19	60,83
828,605	60,66
829,02	61,26
829,434	60,99
829,848	60,87
830,263	61,55
830,677	60,97
831,091	61,04
831,505	61,14
831,919	61,02
832,332	60,78
832,746	61,16
833,16	61,07
833,573	60,92
833,987	61,13
834,4	61,32
834,813	60,7
835,226	60,48
835,639	61,19
836,052	60,52
836,465	61,13
836,878	61,23
837,29	61,63
837,703	60,67
838,116	60,84
838,528	61,2
838,94	60,83
839,352	60,72
839,765	61,2
840,177	60,63
840,589	60,74
841	61,2
841,412	60,52
841,824	61,1
842,235	61,14
842,647	60,61
843,058	60,95
843,47	60,99
843,881	60,94
844,292	60,15
844,703	61,05
845,114	61,07
845,525	61,17
