Data from C_2_Relative__4__00036.txt Node

Date: Tue Jan 30 09:52:08 CET 2024
User: diatiterra
Spectrometer: HDX00911
Trigger mode: 0
Integration Time (sec): 6,000000E-3
Scans to average: 2
Nonlinearity correction enabled: false
Boxcar width: 0
Storing dark spectrum: false
XAxis mode: Wavelengths
Number of Pixels in Spectrum: 2068
>>>>>Begin Spectral Data<<<<<
194,468	123,91
195,025	110,11
195,581	122,54
196,138	114,61
196,694	100
197,251	132,09
197,807	98,3
198,363	110,37
198,919	113,1
199,474	123,42
200,03	101,12
200,586	122,15
201,141	117,5
201,696	121,79
202,251	123,44
202,806	130,22
203,361	117,79
203,916	122,29
204,471	150,43
205,025	138,36
205,58	131,25
206,134	140,37
206,688	129,45
207,242	113,38
207,796	111,98
208,35	114,38
208,904	122,56
209,457	118,02
210,011	107,93
210,564	124,66
211,117	104,22
211,67	132,24
212,223	119,74
212,776	113,45
213,329	113,77
213,881	131,76
214,434	110,98
214,986	102,55
215,538	119,41
216,09	110,18
216,642	118,3
217,194	127,63
217,746	125,32
218,297	115,38
218,849	120
219,4	111,11
219,951	120,83
220,502	103,37
221,053	121,3
221,604	111,18
222,155	122,76
222,705	129,8
223,256	105,71
223,806	100
224,356	123,26
224,906	114,81
225,456	105,49
226,006	116,77
226,556	128,86
227,106	148,53
227,655	120,14
228,204	123,72
228,754	117,06
229,303	128,19
229,852	106,96
230,401	120,13
230,949	144,74
231,498	124,64
232,047	112,14
232,595	110,06
233,143	111,11
233,691	100,51
234,239	109,89
234,787	120,67
235,335	124,82
235,883	117,93
236,43	106,41
236,978	105,66
237,525	112,35
238,072	111,68
238,619	114,5
239,166	117,11
239,713	113,55
240,26	118,79
240,806	127,21
241,353	108,24
241,899	119,75
242,445	116,67
242,991	104,73
243,537	122
244,083	113,82
244,629	114,38
245,174	112,2
245,72	111,17
246,265	104,97
246,81	103,18
247,355	122,81
247,9	109,52
248,445	138,76
248,99	121,9
249,534	110,91
250,079	130,08
250,623	112,9
251,168	111,83
251,712	103,7
252,256	127,48
252,8	124,18
253,343	112,72
253,887	110,87
254,43	107,53
254,974	131,39
255,517	123,53
256,06	130,33
256,603	121,34
257,146	117,45
257,689	119,08
258,232	129,01
258,774	138,52
259,317	131,91
259,859	116,55
260,401	136,89
260,943	117,22
261,485	154,31
262,027	117,88
262,569	110,74
263,11	129,58
263,652	109,66
264,193	117,61
264,734	125,52
265,275	127,89
265,816	123,91
266,357	124,11
266,898	114,65
267,438	109,68
267,979	129,23
268,519	112,33
269,059	139,68
269,6	112,9
270,14	128,78
270,68	120,83
271,219	114,77
271,759	127,34
272,298	110,49
272,838	124,84
273,377	126,53
273,916	119,38
274,455	120,83
274,994	119,12
275,533	114,88
276,072	107,28
276,61	115,29
277,149	135,92
277,687	108,48
278,225	128,93
278,763	149,62
279,301	109,32
279,839	132,26
280,377	128,68
280,914	122,66
281,452	110,49
281,989	119,88
282,526	113,21
283,064	140,97
283,601	113,95
284,137	121,17
284,674	126,62
285,211	140,16
285,747	123,35
286,284	119,75
286,82	122,22
287,356	114,07
287,892	115,89
288,428	123,78
288,964	115,72
289,5	140,6
290,035	159,52
290,571	123,6
291,106	178,57
291,641	145
292,176	137,24
292,711	128,08
293,246	144,53
293,781	118,66
294,315	146,77
294,85	123,65
295,384	138,84
295,918	98,88
296,453	111,39
296,987	152,68
297,52	124,09
298,054	113,42
298,588	130,77
299,121	133,07
299,655	106,21
300,188	131,88
300,721	127,21
301,254	135,92
301,787	156,41
302,32	136,09
302,853	104,65
303,385	111,61
303,918	137,61
304,45	111,56
304,982	126,32
305,514	119,62
306,046	122,54
306,578	126,28
307,11	121,3
307,641	107,1
308,173	106,88
308,704	113,26
309,236	111,04
309,767	124,83
310,298	101,14
310,829	121,33
311,359	110,56
311,89	141,89
312,421	134,04
312,951	119,35
313,481	125,71
314,012	106,06
314,542	144,72
315,072	129,58
315,601	135,71
316,131	122,39
316,661	116,46
317,19	130,47
317,72	122,45
318,249	120,3
318,778	117,16
319,307	131,01
319,836	123,87
320,365	126,53
320,893	115,52
321,422	134,07
321,95	115,95
322,479	141,73
323,007	115,23
323,535	114,75
324,063	123,53
324,591	127,67
325,118	134,13
325,646	145,59
326,173	145,74
326,701	106,67
327,228	109,36
327,755	126,67
328,282	125,87
328,809	136,64
329,336	116,25
329,862	121,91
330,389	119,51
330,915	131,37
331,441	116,13
331,968	145,26
332,494	117,88
333,02	115,7
333,545	121,6
334,071	118,18
334,597	127,92
335,122	139,01
335,648	127,17
336,173	137,58
336,698	130
337,223	135,25
337,748	132,9
338,272	121,74
338,797	124,57
339,322	136,88
339,846	114,2
340,37	128,21
340,894	129,11
341,419	150
341,942	117,65
342,466	121,09
342,99	144,94
343,514	126,78
344,037	127,84
344,56	124,86
345,084	146,88
345,607	134,25
346,13	124,02
346,653	148,34
347,175	141,95
347,698	142,93
348,221	146,25
348,743	136,36
349,265	150,57
349,787	124,24
350,309	149,23
350,831	147,54
351,353	161,59
351,875	160
352,397	143,13
352,918	139,7
353,439	182,61
353,961	149,01
354,482	156,37
355,003	153,55
355,524	154,68
356,044	172,68
356,565	151,66
357,086	151,6
357,606	172,77
358,126	161,27
358,646	154,11
359,167	156,88
359,687	155,11
360,206	172,34
360,726	170,28
361,246	144,94
361,765	181,22
362,285	184,69
362,804	181,86
363,323	169,83
363,842	179,91
364,361	174,46
364,88	171,95
365,398	198,12
365,917	190,05
366,435	157,89
366,954	177,02
367,472	174,21
367,99	161,6
368,508	173,11
369,026	150,34
369,544	167,83
370,061	163,16
370,579	188,06
371,096	170,79
371,613	182,78
372,131	172,7
372,648	167,77
373,165	195,77
373,681	200,38
374,198	163,52
374,715	200,37
375,231	188,22
375,747	184
376,264	181,07
376,78	184,83
377,296	193,05
377,812	182,66
378,327	190
378,843	172,97
379,359	184,79
379,874	165,81
380,389	184,81
380,905	201,99
381,42	186,29
381,935	193,95
382,449	163,92
382,964	185,18
383,479	180,34
383,993	176,85
384,508	189,16
385,022	177,5
385,536	186,12
386,05	173,67
386,564	184,16
387,078	184,91
387,592	166,6
388,105	159,09
388,619	178,32
389,132	174,1
389,645	167,88
390,158	180,83
390,671	181,19
391,184	177,28
391,697	169,01
392,21	153,45
392,722	169,35
393,235	169,33
393,747	167,32
394,259	164,37
394,771	163,15
395,283	180,9
395,795	161,07
396,307	161,46
396,818	169,17
397,33	170,42
397,841	166,18
398,353	159,84
398,864	166,41
399,375	162,01
399,886	156,79
400,397	150,82
400,907	148,97
401,418	152,79
401,928	145,6
402,439	145,62
402,949	146,89
403,459	148,48
403,969	141,68
404,479	136
404,989	142,52
405,498	131,48
406,008	126,57
406,517	127,74
407,027	129,21
407,536	118,97
408,045	123,21
408,554	118,42
409,063	116,53
409,572	103,98
410,08	104,87
410,589	99,28
411,097	99,37
411,606	99,45
412,114	95
412,622	90
413,13	94,76
413,638	94,01
414,145	91,79
414,653	87,75
415,16	84,54
415,668	83,45
416,175	80,07
416,682	78,9
417,189	80,61
417,696	76,18
418,203	75,53
418,71	75,67
419,216	72,29
419,723	75,01
420,229	71,55
420,735	70,21
421,242	70,53
421,748	69,58
422,254	69,42
422,759	71,88
423,265	67,79
423,771	68,42
424,276	67,01
424,781	68,12
425,287	66,96
425,792	65,55
426,297	64,34
426,802	66,16
427,306	66,33
427,811	67,07
428,316	64,95
428,82	62,65
429,324	64,33
429,829	65,22
430,333	65,18
430,837	63,32
431,34	64,45
431,844	64,8
432,348	63,16
432,851	63,84
433,355	63,95
433,858	62,32
434,361	63,76
434,864	61,22
435,367	63,63
435,87	61,24
436,373	63,64
436,876	62,3
437,378	62,86
437,88	62,06
438,383	61,46
438,885	62,32
439,387	63,11
439,889	62,57
440,391	63,06
440,892	61,73
441,394	61,75
441,896	61,4
442,397	61,92
442,898	64,14
443,399	62,44
443,9	62,04
444,401	62,01
444,902	61,29
445,403	62,67
445,903	62,29
446,404	63,35
446,904	62,46
447,405	63,6
447,905	62,45
448,405	62,48
448,905	63,14
449,404	62,83
449,904	62,74
450,404	62,92
450,903	63,11
451,403	61,12
451,902	62,79
452,401	62,36
452,9	63,14
453,399	63,49
453,898	64,33
454,396	63,18
454,895	63,96
455,393	64,15
455,892	64,2
456,39	64,39
456,888	62,89
457,386	64,73
457,884	63,64
458,382	62,6
458,879	63,28
459,377	63
459,874	64,37
460,372	65,45
460,869	64,43
461,366	63,8
461,863	65,44
462,36	63,77
462,857	63,96
463,353	65,95
463,85	64,51
464,346	66,35
464,843	65,13
465,339	65,78
465,835	66,74
466,331	64,55
466,827	63,24
467,323	65,47
467,818	66,81
468,314	65,94
468,809	67,09
469,305	67,58
469,8	66,12
470,295	66,71
470,79	67,7
471,285	68,93
471,78	67,37
472,274	67,5
472,769	69,26
473,263	69,35
473,758	69,38
474,252	68,89
474,746	70,62
475,24	69,34
475,734	70,57
476,228	70,54
476,721	72,23
477,215	71,67
477,708	70,15
478,202	72,84
478,695	71,16
479,188	73,5
479,681	70,76
480,174	73,79
480,667	72,55
481,159	73,95
481,652	74,04
482,144	73,58
482,637	76,47
483,129	73,7
483,621	76,63
484,113	75,74
484,605	75,53
485,097	74,56
485,588	75,33
486,08	76,26
486,571	75,62
487,063	77,12
487,554	77,04
488,045	76,72
488,536	77
489,027	77,62
489,518	77,51
490,008	77,88
490,499	77,03
490,989	79,15
491,48	77,6
491,97	77,98
492,46	76,85
492,95	78,78
493,44	79,47
493,93	79,43
494,419	79,58
494,909	78,62
495,398	77,75
495,888	77,38
496,377	79,1
496,866	80,43
497,355	79,45
497,844	78,77
498,333	78,99
498,821	79,27
499,31	79,84
499,798	79,1
500,287	79,06
500,775	77,92
501,263	79,85
501,751	79,56
502,239	79,84
502,727	79,77
503,215	79,34
503,702	79,35
504,19	79,92
504,677	79,69
505,164	80,7
505,651	80,6
506,139	81,24
506,625	79,74
507,112	79,1
507,599	80,87
508,086	80,39
508,572	80,64
509,058	79,64
509,545	80,48
510,031	81,39
510,517	80,39
511,003	79,82
511,489	80,99
511,974	81,61
512,46	80,55
512,946	79,62
513,431	80,65
513,916	82,25
514,401	81,54
514,887	81,32
515,371	81,66
515,856	80,97
516,341	81,1
516,826	81,05
517,31	81,9
517,795	81,46
518,279	81,79
518,763	81,88
519,247	81,57
519,731	81,97
520,215	81,69
520,699	83,31
521,182	81,57
521,666	82,78
522,149	82,23
522,633	83,22
523,116	81,86
523,599	82,22
524,082	83,04
524,565	82,09
525,048	83,12
525,53	83,2
526,013	83,55
526,495	83,71
526,978	83,13
527,46	82,61
527,942	82,45
528,424	83,03
528,906	83,4
529,388	82,8
529,87	83,46
530,351	83,68
530,833	84,54
531,314	84,2
531,795	84,7
532,277	82,5
532,758	84,6
533,238	84,66
533,719	83,74
534,2	84,65
534,681	84,94
535,161	84,36
535,642	83,06
536,122	83,63
536,602	85,36
537,082	84,28
537,562	84,2
538,042	83,51
538,522	84,01
539,001	84,68
539,481	84,05
539,96	84,46
540,44	84,61
540,919	84,77
541,398	85,37
541,877	84,32
542,356	83,93
542,835	84,09
543,313	83,93
543,792	83,44
544,27	84,33
544,749	85,33
545,227	84,61
545,705	84,57
546,183	84,05
546,661	84,91
547,139	85,19
547,616	84,11
548,094	86,19
548,571	84,97
549,049	85,76
549,526	85,34
550,003	85,28
550,48	83,62
550,957	84,12
551,434	84,56
551,911	85,14
552,387	84,16
552,864	84,39
553,34	84,73
553,817	85,43
554,293	84,67
554,769	85,42
555,245	86,25
555,721	85,23
556,197	85,93
556,672	84,44
557,148	85,7
557,623	86,02
558,099	85,77
558,574	86,6
559,049	87,13
559,524	86,2
559,999	86,78
560,474	87,34
560,948	85,86
561,423	87,68
561,897	87,19
562,372	86,81
562,846	87,13
563,32	88,36
563,794	87,3
564,268	88,2
564,742	88,44
565,216	87,45
565,69	88,34
566,163	88,39
566,636	88,9
567,11	89,89
567,583	88,26
568,056	89,99
568,529	89,83
569,002	90,05
569,475	89,84
569,947	89,95
570,42	91,14
570,892	89,75
571,365	90,59
571,837	92,28
572,309	91,8
572,781	92,19
573,253	91,98
573,725	92,58
574,197	93,19
574,668	93,87
575,14	94,68
575,611	93,79
576,082	95,2
576,554	95,56
577,025	95,71
577,496	95,21
577,967	96,54
578,437	97
578,908	96,26
579,379	96,89
579,849	98,1
580,319	97,39
580,79	97,13
581,26	98,64
581,73	99,09
582,2	98,89
582,669	99,65
583,139	99,23
583,609	99,83
584,078	100,81
584,548	101,04
585,017	100,75
585,486	100,91
585,955	101,27
586,424	102,63
586,893	100,94
587,362	101,56
587,83	101,04
588,299	103,5
588,767	102,99
589,236	102,92
589,704	102,87
590,172	103,38
590,64	103,71
591,108	103,58
591,576	103,63
592,043	104,03
592,511	104,35
592,978	103,73
593,446	103,83
593,913	104,64
594,38	105,24
594,847	103,72
595,314	105,02
595,781	104,72
596,248	104,55
596,715	104,61
597,181	105,05
597,647	105,64
598,114	105,73
598,58	105,46
599,046	105,72
599,512	106,45
599,978	106,08
600,444	105,63
600,91	105,45
601,375	105,98
601,841	105,79
602,306	105,82
602,771	106,94
603,236	106,12
603,702	105,88
604,167	105,89
604,631	107,24
605,096	106,29
605,561	105,76
606,025	106,55
606,49	105,26
606,954	105,6
607,418	105,93
607,882	106,56
608,347	106,15
608,81	106,45
609,274	106,58
609,738	107,07
610,202	106,39
610,665	106,29
611,128	107,44
611,592	107,57
612,055	106,51
612,518	107,54
612,981	107,34
613,444	106,89
613,907	106,43
614,369	106,62
614,832	107,34
615,294	108,1
615,757	106,88
616,219	107,52
616,681	107,17
617,143	106,99
617,605	107,85
618,067	107,18
618,529	106,97
618,99	107,5
619,452	107,79
619,913	107,52
620,375	106,63
620,836	107,27
621,297	107,84
621,758	106,32
622,219	107,25
622,68	108,14
623,14	106,77
623,601	107,77
624,061	107,12
624,522	107,15
624,982	106,59
625,442	107
625,902	107,34
626,362	106,51
626,822	106,7
627,282	107,62
627,742	106,3
628,201	106,74
628,661	105,98
629,12	106,12
629,579	106,02
630,038	106,73
630,497	105,3
630,956	106,09
631,415	106,28
631,874	105,68
632,332	106
632,791	106,6
633,249	105,15
633,708	106,95
634,166	105,61
634,624	105,55
635,082	105,66
635,54	104,57
635,998	105,38
636,455	104,46
636,913	105,71
637,37	104,91
637,828	104,62
638,285	104,2
638,742	104,45
639,199	104,7
639,656	103,71
640,113	105,29
640,57	104,11
641,027	103,99
641,483	103,26
641,94	103,68
642,396	103,27
642,852	104,29
643,309	103,28
643,765	104,23
644,221	103,36
644,676	103,31
645,132	103,4
645,588	102,94
646,043	102,95
646,499	103,4
646,954	102,59
647,409	102,7
647,864	102,46
648,319	102,92
648,774	102,66
649,229	102,81
649,684	101,93
650,139	102,46
650,593	102,36
651,047	101,82
651,502	100,97
651,956	101,87
652,41	102,36
652,864	101,97
653,318	102,45
653,772	101,85
654,225	101,73
654,679	101,36
655,133	100,88
655,586	100,87
656,039	100,5
656,492	102,06
656,946	100,75
657,399	101
657,851	101,41
658,304	101,37
658,757	100,52
659,209	101,04
659,662	101,93
660,114	100,41
660,567	100,62
661,019	100,06
661,471	100,9
661,923	100,92
662,375	100,61
662,826	100,43
663,278	100,52
663,73	100,78
664,181	100,73
664,632	100,64
665,084	100,53
665,535	101,28
665,986	99,87
666,437	101,07
666,888	100,74
667,338	100,56
667,789	101,22
668,24	100,87
668,69	100,12
669,14	100,12
669,591	100,06
670,041	100,42
670,491	100,77
670,941	100,27
671,391	100,18
671,84	99,92
672,29	100,13
672,74	100,01
673,189	99,33
673,638	100,03
674,088	100,15
674,537	100,3
674,986	100,17
675,435	100,88
675,883	100,73
676,332	100,03
676,781	100,12
677,229	101,37
677,678	100,83
678,126	100,6
678,574	100,13
679,022	100,84
679,47	100,4
679,918	100,16
680,366	99,95
680,814	100,98
681,261	100,91
681,709	101
682,156	100,73
682,604	100,38
683,051	101,01
683,498	100,39
683,945	100,89
684,392	101,46
684,839	100,98
685,286	100,67
685,732	101,45
686,179	100,4
686,625	100,96
687,071	100,7
687,518	100
687,964	100,52
688,41	99,74
688,856	100,85
689,301	100,73
689,747	100,39
690,193	100,91
690,638	100,8
691,084	100,89
691,529	100,96
691,974	100,55
692,419	100,11
692,864	100,89
693,309	100,85
693,754	100,49
694,199	100,23
694,643	100,98
695,088	101,02
695,532	100,8
695,977	100,5
696,421	100,16
696,865	101,23
697,309	99,9
697,753	100,65
698,197	100,38
698,64	100,21
699,084	100,52
699,527	100,21
699,971	99,66
700,414	100,02
700,857	99,97
701,3	99,56
701,743	99,85
702,186	99,89
702,629	100,08
703,072	99,79
703,515	98,37
703,957	100,07
704,399	99,6
704,842	99,86
705,284	99,72
705,726	98,82
706,168	99,56
706,61	98,84
707,052	98,88
707,494	99,65
707,935	99,29
708,377	99,44
708,818	98,82
709,26	99,01
709,701	99,26
710,142	98,93
710,583	99,36
711,024	98,93
711,465	98,87
711,905	98,72
712,346	98,52
712,787	98,97
713,227	98,63
713,667	99,12
714,108	98,75
714,548	98,28
714,988	98,99
715,428	98,62
715,868	98,58
716,307	98,4
716,747	97,95
717,186	98,68
717,626	97,89
718,065	97,41
718,504	98,53
718,944	98,77
719,383	98,26
719,822	98,28
720,261	98,15
720,699	98,25
721,138	98,16
721,576	97,19
722,015	97,31
722,453	98,04
722,892	97,54
723,33	97,72
723,768	98,01
724,206	97,68
724,644	98,2
725,081	97,93
725,519	97,67
725,957	98,07
726,394	97,84
726,832	97,53
727,269	97,51
727,706	97,42
728,143	96,53
728,58	97,71
729,017	97,34
729,454	96,99
729,89	97,63
730,327	97
730,764	97,15
731,2	97,4
731,636	96,92
732,072	96,66
732,509	96,65
732,945	97,61
733,38	96,71
733,816	96,76
734,252	96,32
734,688	96,19
735,123	96,72
735,559	95,85
735,994	96,03
736,429	96,33
736,864	96,24
737,299	96,62
737,734	96,87
738,169	96,19
738,604	96,52
739,038	96,09
739,473	95,78
739,907	96,33
740,342	96,1
740,776	95,9
741,21	95,47
741,644	95,42
742,078	95,8
742,512	95,47
742,946	95,55
743,379	95,53
743,813	95,73
744,246	95,64
744,68	95,98
745,113	95,54
745,546	95,16
745,979	95,44
746,412	95
746,845	95,27
747,278	95,4
747,711	94,94
748,143	95,12
748,576	94,72
749,008	94,82
749,441	94,49
749,873	94,5
750,305	94,32
750,737	94,43
751,169	94,37
751,601	94,59
752,032	93,88
752,464	94,07
752,896	94,22
753,327	94,63
753,758	93,89
754,19	93,99
754,621	94,67
755,052	93,76
755,483	94,28
755,914	93,97
756,344	94,29
756,775	93,86
757,206	93,79
757,636	93,95
758,066	93,51
758,497	93,3
758,927	93,42
759,357	93,93
759,787	93,16
760,217	93,39
760,647	93,7
761,076	93,82
761,506	94,01
761,935	93,21
762,365	93,56
762,794	93,24
763,223	93,63
763,653	92,71
764,082	93,24
764,51	92,81
764,939	92,95
765,368	92,74
765,797	93,23
766,225	93,46
766,654	93,15
767,082	93,02
767,51	92,94
767,938	92,58
768,367	92,77
768,795	92,6
769,222	93,1
769,65	92,13
770,078	92,45
770,505	93,09
770,933	93,56
771,36	92,38
771,788	92,44
772,215	92,94
772,642	92,42
773,069	92,08
773,496	92,66
773,923	91,86
774,349	92,36
774,776	93,05
775,203	92,65
775,629	92,03
776,055	92,37
776,482	92,34
776,908	92,12
777,334	92,84
777,76	93,02
778,186	92,34
778,611	92,13
779,037	91,7
779,463	92,37
779,888	91,77
780,314	92,46
780,739	92,73
781,164	92,3
781,589	92,22
782,014	92,32
782,439	92,04
782,864	91,71
783,289	91,99
783,713	92,15
784,138	91,81
784,562	92,2
784,987	92,32
785,411	92,64
785,835	92,51
786,259	91,54
786,683	92,44
787,107	92,2
787,531	92,38
787,954	91,78
788,378	91,85
788,802	91,53
789,225	91,52
789,648	91,44
790,071	92,11
790,495	91,69
790,918	92,2
791,34	92,57
791,763	92,29
792,186	91,8
792,609	91,46
793,031	92,27
793,454	92,52
793,876	92,45
794,298	92,33
794,721	91,23
795,143	92,31
795,565	92,08
795,986	92,51
796,408	92,41
796,83	92,27
797,252	92,47
797,673	92,17
798,094	91,74
798,516	92,6
798,937	91,88
799,358	92,35
799,779	92,02
800,2	92,3
800,621	91,18
801,042	91,9
801,462	91,47
801,883	91,95
802,303	91,92
802,724	91,22
803,144	92,39
803,564	91,13
803,984	91,48
804,404	91,68
804,824	92,09
805,244	91,83
805,664	91,17
806,084	92,16
806,503	91,8
806,923	92,28
807,342	91,45
807,761	92,21
808,18	92,12
808,599	92,16
809,018	92,52
809,437	91,85
809,856	91,97
810,275	91,45
810,693	91,77
811,112	91,97
811,53	91,07
811,949	91,36
812,367	91,9
812,785	91,99
813,203	91,95
813,621	92,01
814,039	92,1
814,457	92,02
814,874	92,04
815,292	91,72
815,709	92,11
816,127	91,78
