Data from D_3_Relative__8__00078.txt Node

Date: Tue Jan 30 10:02:03 CET 2024
User: diatiterra
Spectrometer: HDX00911
Trigger mode: 0
Integration Time (sec): 6,000000E-3
Scans to average: 2
Nonlinearity correction enabled: false
Boxcar width: 0
Storing dark spectrum: false
XAxis mode: Wavelengths
Number of Pixels in Spectrum: 2068
>>>>>Begin Spectral Data<<<<<
194,468	86,74
195,025	86,29
195,581	71,97
196,138	75,8
196,694	83,58
197,251	67,4
197,807	68,75
198,363	77,87
198,919	68,51
199,474	70,34
200,03	71,26
200,586	70,04
201,141	76,47
201,696	64,71
202,251	83,58
202,806	71,49
203,361	69,51
203,916	70,12
204,471	78,22
205,025	61,92
205,58	73,27
206,134	62,95
206,688	61,37
207,242	77,48
207,796	72,46
208,35	87,67
208,904	66,53
209,457	75,97
210,011	73,36
210,564	73,87
211,117	74,89
211,67	68,42
212,223	66,53
212,776	83,05
213,329	64,98
213,881	70,13
214,434	73,36
214,986	80,8
215,538	75,2
216,09	73,49
216,642	78,93
217,194	79,9
217,746	71,71
218,297	68,49
218,849	69,2
219,4	73,16
219,951	73,45
220,502	68,48
221,053	79,24
221,604	70,47
222,155	68,22
222,705	74,47
223,256	70,04
223,806	73,75
224,356	74,51
224,906	80,62
225,456	65,97
226,006	72,32
226,556	74,78
227,106	72,61
227,655	70,7
228,204	87,78
228,754	71,73
229,303	77,93
229,852	79,04
230,401	71,75
230,949	65,6
231,498	72,32
232,047	71,31
232,595	71,49
233,143	78,51
233,691	63,6
234,239	73,28
234,787	69,51
235,335	71,43
235,883	76,13
236,43	74,58
236,978	75,65
237,525	71,49
238,072	68,28
238,619	71,3
239,166	66,38
239,713	67,93
240,26	68,95
240,806	74,14
241,353	70,94
241,899	67,9
242,445	66,95
242,991	72,95
243,537	63,64
244,083	70,59
244,629	67,84
245,174	75,32
245,72	67,95
246,265	75,57
246,81	78,22
247,355	79,56
247,9	75,83
248,445	66,67
248,99	67,23
249,534	67,55
250,079	74,54
250,623	74,34
251,168	75,51
251,712	59,83
252,256	67,36
252,8	69,47
253,343	75,3
253,887	68,83
254,43	67,04
254,974	70,8
255,517	86,06
256,06	60,76
256,603	74,07
257,146	68,85
257,689	64,83
258,232	73,3
258,774	72,69
259,317	79,74
259,859	76,19
260,401	71,96
260,943	66,8
261,485	68,64
262,027	67,66
262,569	67,13
263,11	70,35
263,652	63,72
264,193	72,09
264,734	77,78
265,275	67,38
265,816	60,68
266,357	64,32
266,898	75,21
267,438	74,89
267,979	75
268,519	67,79
269,059	58,5
269,6	71,24
270,14	69,4
270,68	71,31
271,219	66,09
271,759	59,83
272,298	70,4
272,838	64,94
273,377	77,48
273,916	63,04
274,455	59,23
274,994	77,88
275,533	61,98
276,072	71,91
276,61	69,3
277,149	70,83
277,687	72,46
278,225	69,96
278,763	71,76
279,301	68,16
279,839	67,21
280,377	63,27
280,914	66,67
281,452	69,11
281,989	77,27
282,526	66,67
283,064	65,9
283,601	70
284,137	68
284,674	71,97
285,211	69,43
285,747	72,44
286,284	73,71
286,82	65,73
287,356	72
287,892	66,67
288,428	64,81
288,964	73,03
289,5	67,91
290,035	75,93
290,571	74,71
291,106	70,14
291,641	71,18
292,176	64
292,711	68,53
293,246	67,82
293,781	74,35
294,315	71,63
294,85	58,57
295,384	75,94
295,918	73,6
296,453	70,04
296,987	63,56
297,52	62,9
298,054	66,52
298,588	63,2
299,121	76,13
299,655	63,21
300,188	69,92
300,721	72,32
301,254	64,57
301,787	70,61
302,32	67,09
302,853	76,6
303,385	66,27
303,918	65,78
304,45	70,74
304,982	65,6
305,514	69,51
306,046	65,04
306,578	72,61
307,11	63,64
307,641	66,39
308,173	70,43
308,704	65,85
309,236	73,04
309,767	61,67
310,298	65,6
310,829	73,64
311,359	78,76
311,89	62,69
312,421	64,9
312,951	73,22
313,481	75,83
314,012	68,22
314,542	63,96
315,072	66,95
315,601	62,1
316,131	66,09
316,661	69,11
317,19	61,63
317,72	63,14
318,249	73,39
318,778	80,25
319,307	66,53
319,836	74,4
320,365	73,19
320,893	64,57
321,422	72,65
321,95	74,78
322,479	71,89
323,007	64,54
323,535	69,06
324,063	77,04
324,591	70,5
325,118	70,13
325,646	74,57
326,173	73,21
326,701	66,53
327,228	70,2
327,755	67,14
328,282	78,18
328,809	64,91
329,336	73,62
329,862	72,63
330,389	76,21
330,915	61,63
331,441	78,48
331,968	58,57
332,494	71,11
333,02	71,97
333,545	68,42
334,071	65,97
334,597	69,01
335,122	71,62
335,648	75,6
336,173	74,58
336,698	71,24
337,223	77
337,748	72,16
338,272	69,1
338,797	68,13
339,322	74,36
339,846	68,27
340,37	71,62
340,894	66,24
341,419	70,16
341,942	70,16
342,466	66,37
342,99	65,78
343,514	67,61
344,037	63,16
344,56	68,92
345,084	71,61
345,607	66,79
346,13	70,16
346,653	61,62
347,175	70,76
347,698	65,93
348,221	70,04
348,743	75,09
349,265	68,16
349,787	64,11
350,309	66,06
350,831	59,86
351,353	71,02
351,875	72,16
352,397	57,63
352,918	72,51
353,439	67,73
353,961	64,34
354,482	68,79
355,003	61,51
355,524	65,88
356,044	62,55
356,565	69,1
357,086	58,44
357,606	54
358,126	66,89
358,646	52,07
359,167	58,8
359,687	60,73
360,206	61,02
360,726	60,57
361,246	57,59
361,765	50,49
362,285	57,38
362,804	49,39
363,323	63,06
363,842	60,4
364,361	59,75
364,88	63,06
365,398	52,27
365,917	47,34
366,435	57,85
366,954	60,49
367,472	58,86
367,99	54,67
368,508	58,48
369,026	57,79
369,544	58,26
370,061	57,64
370,579	53,31
371,096	51,31
371,613	48,26
372,131	52,74
372,648	54,31
373,165	53,03
373,681	50,26
374,198	52,91
374,715	48,45
375,231	50,37
375,747	51,36
376,264	47,33
376,78	48,58
377,296	48,81
377,812	44,89
378,327	49,77
378,843	46,04
379,359	41,19
379,874	47,82
380,389	48,86
380,905	48,41
381,42	40,41
381,935	49,35
382,449	45,31
382,964	43,86
383,479	48,64
383,993	46,4
384,508	40
385,022	42,75
385,536	41,45
386,05	42,12
386,564	38,95
387,078	45,2
387,592	41,8
388,105	44,37
388,619	37,48
389,132	40,1
389,645	37,94
390,158	40,79
390,671	41,56
391,184	38,24
391,697	36,42
392,21	36,27
392,722	35,48
393,235	32,14
393,747	36,38
394,259	34,96
394,771	34,52
395,283	32,98
395,795	37,07
396,307	31,92
396,818	32,59
397,33	33,9
397,841	31,2
398,353	32,26
398,864	31,24
399,375	30,39
399,886	30,78
400,397	30,96
400,907	30,01
401,418	31,44
401,928	28,16
402,439	29
402,949	26,16
403,459	29,36
403,969	23,94
404,479	26,54
404,989	27,78
405,498	25,59
406,008	25,56
406,517	25
407,027	21,92
407,536	25,1
408,045	21,98
408,554	19,22
409,063	20,14
409,572	20,61
410,08	19,87
410,589	19,37
411,097	18,29
411,606	17,96
412,114	15,57
412,622	17,14
413,13	16,74
413,638	15,94
414,145	16,87
414,653	14,44
415,16	16,01
415,668	15,13
416,175	13,57
416,682	14,63
417,189	13,02
417,696	13,59
418,203	13,79
418,71	12,23
419,216	13,08
419,723	12,53
420,229	11,83
420,735	12,29
421,242	11,5
421,748	12,16
422,254	13,24
422,759	11,67
423,265	11
423,771	11,32
424,276	11,94
424,781	11,08
425,287	11,48
425,792	10,98
426,297	11,3
426,802	11,21
427,306	10,56
427,811	10,21
428,316	11,47
428,82	11,42
429,324	10,47
429,829	10,72
430,333	10,64
430,837	10,39
431,34	9,71
431,844	10,48
432,348	10,58
432,851	9,88
433,355	9,39
433,858	10,41
434,361	10,03
434,864	10,09
435,367	10,49
435,87	9,82
436,373	9,53
436,876	10,01
437,378	9,57
437,88	9,89
438,383	10,19
438,885	9,56
439,387	9,18
439,889	9,19
440,391	9,07
440,892	9,33
441,394	10,41
441,896	9,3
442,397	9,25
442,898	9,27
443,399	8,91
443,9	9,62
444,401	9,23
444,902	9,42
445,403	9,28
445,903	9,99
446,404	9,93
446,904	9,08
447,405	9,23
447,905	9,14
448,405	9,6
448,905	9,89
449,404	8,97
449,904	8,95
450,404	8,85
450,903	9,72
451,403	8,94
451,902	9,24
452,401	9,19
452,9	9,51
453,399	9,44
453,898	9,22
454,396	9,59
454,895	9,6
455,393	9,56
455,892	9,66
456,39	9,3
456,888	9,71
457,386	9,16
457,884	9,2
458,382	8,97
458,879	9,86
459,377	9,52
459,874	9,63
460,372	9,71
460,869	9,52
461,366	9,49
461,863	9,43
462,36	9,36
462,857	9,52
463,353	9,07
463,85	9,2
464,346	9,3
464,843	9,09
465,339	9,57
465,835	9,4
466,331	8,59
466,827	9,18
467,323	9,24
467,818	9,47
468,314	9,3
468,809	8,97
469,305	9,07
469,8	9,48
470,295	9,56
470,79	9,01
471,285	9
471,78	8,77
472,274	9,24
472,769	9,1
473,263	9,21
473,758	9,4
474,252	9,03
474,746	8,76
475,24	9,59
475,734	9,34
476,228	8,99
476,721	9,25
477,215	9,48
477,708	9,19
478,202	8,83
478,695	8,99
479,188	9,16
479,681	8,98
480,174	8,83
480,667	9,59
481,159	9,25
481,652	9,4
482,144	9,04
482,637	9,04
483,129	9,18
483,621	9,2
484,113	8,76
484,605	9,27
485,097	9,14
485,588	9,81
486,08	9,4
486,571	9,09
487,063	9,76
487,554	9,08
488,045	9,21
488,536	9,24
489,027	9,43
489,518	9,46
490,008	9,84
490,499	9,73
490,989	9,93
491,48	9,58
491,97	9,54
492,46	9,63
492,95	9,43
493,44	9,63
493,93	9,8
494,419	10,17
494,909	9,45
495,398	9,9
495,888	10,21
496,377	9,89
496,866	10,17
497,355	10,01
497,844	10,1
498,333	10,44
498,821	9,98
499,31	10,1
499,798	10,76
500,287	10,85
500,775	11,08
501,263	10,68
501,751	11,17
502,239	11,33
502,727	11,33
503,215	11,56
503,702	11,55
504,19	11,68
504,677	11,68
505,164	12,05
505,651	12,51
506,139	12,53
506,625	12,49
507,112	13,15
507,599	12,98
508,086	13,28
508,572	13,83
509,058	13,82
509,545	13,6
510,031	14,38
510,517	14,79
511,003	14,94
511,489	15,05
511,974	15,58
512,46	16,13
512,946	15,9
513,431	16,25
513,916	17,1
514,401	17,28
514,887	17,28
515,371	17,72
515,856	17,82
516,341	18,77
516,826	18,87
517,31	19,22
517,795	20,25
518,279	20,1
518,763	20,09
519,247	20,64
519,731	21,12
520,215	21,38
520,699	21,56
521,182	22,58
521,666	22,25
522,149	23,54
522,633	24,05
523,116	24,28
523,599	24,32
524,082	24,91
524,565	25,61
525,048	26
525,53	25,69
526,013	26,72
526,495	27
526,978	27,23
527,46	27,84
527,942	28,08
528,424	28,58
528,906	28,51
529,388	28,88
529,87	29,14
530,351	29,34
530,833	29,47
531,314	30,4
531,795	30,51
532,277	30,43
532,758	30,71
533,238	30,91
533,719	30,98
534,2	31,06
534,681	31,21
535,161	31,69
535,642	31,3
536,122	31,82
536,602	31,89
537,082	31,7
537,562	32,14
538,042	31,92
538,522	31,88
539,001	32,4
539,481	32,44
539,96	32,4
540,44	32,2
540,919	32,88
541,398	32,17
541,877	32,88
542,356	33,01
542,835	32,49
543,313	32,36
543,792	33,26
544,27	33,09
544,749	33,39
545,227	33,05
545,705	33,32
546,183	33,75
546,661	33,72
547,139	33,73
547,616	33,58
548,094	33,77
548,571	33,37
549,049	33,57
549,526	34,05
550,003	33,94
550,48	34,11
550,957	33,95
551,434	33,5
551,911	34,11
552,387	34,05
552,864	34,17
553,34	34,24
553,817	33,86
554,293	33,81
554,769	33,29
555,245	33,95
555,721	34,23
556,197	33,68
556,672	33,8
557,148	33,74
557,623	33,47
558,099	33,51
558,574	33,76
559,049	33,46
559,524	33,33
559,999	33,33
560,474	33,12
560,948	32,74
561,423	32,8
561,897	32,68
562,372	32,52
562,846	32,53
563,32	32,72
563,794	32,05
564,268	32,39
564,742	32,41
565,216	32,09
565,69	31,04
566,163	31,74
566,636	30,81
567,11	31,2
567,583	30,82
568,056	30,24
568,529	29,98
569,002	30,46
569,475	29,5
569,947	29,21
570,42	28,77
570,892	28,51
571,365	29,19
571,837	28,63
572,309	28,51
572,781	28,57
573,253	27,68
573,725	27,39
574,197	27,37
574,668	27,33
575,14	26,63
575,611	26,76
576,082	26,22
576,554	26,63
577,025	26,11
577,496	25,54
577,967	25,75
578,437	25,62
578,908	25,28
579,379	25,09
579,849	24,52
580,319	24,67
580,79	24,44
581,26	24,18
581,73	23,98
582,2	24,1
582,669	23,93
583,139	24
583,609	23,94
584,078	23,56
584,548	23,38
585,017	23,43
585,486	22,9
585,955	23,21
586,424	22,99
586,893	23,03
587,362	22,79
587,83	22,7
588,299	22,21
588,767	22,58
589,236	22,3
589,704	22,04
590,172	21,89
590,64	22,13
591,108	21,41
591,576	21,91
592,043	21,47
592,511	21,45
592,978	21,54
593,446	21,81
593,913	21,35
594,38	21,5
594,847	21,17
595,314	21,24
595,781	21,26
596,248	21,17
596,715	21,3
597,181	20,84
597,647	21,13
598,114	21,06
598,58	21,06
599,046	20,92
599,512	20,45
599,978	20,71
600,444	20,5
600,91	20,45
601,375	20,65
601,841	20,26
602,306	20,54
602,771	20,24
603,236	20,02
603,702	20,28
604,167	20,15
604,631	20,13
605,096	19,7
605,561	19,57
606,025	19,73
606,49	19,51
606,954	19,65
607,418	19,39
607,882	19,45
608,347	19,26
608,81	19,12
609,274	19,15
609,738	18,89
610,202	18,54
610,665	18,59
611,128	18,5
611,592	18,39
612,055	18,23
612,518	18,3
612,981	18,01
613,444	17,91
613,907	17,69
614,369	17,76
614,832	17,61
615,294	17,35
615,757	17,48
616,219	17,08
616,681	17,1
617,143	17,39
617,605	16,7
618,067	16,89
618,529	16,59
618,99	16,79
619,452	16,61
619,913	16,56
620,375	16,47
620,836	16,41
621,297	16,35
621,758	16,13
622,219	16,02
622,68	15,9
623,14	15,94
623,601	15,89
624,061	15,91
624,522	15,99
624,982	16,08
625,442	15,85
625,902	15,88
626,362	15,8
626,822	15,67
627,282	15,95
627,742	15,85
628,201	15,61
628,661	15,68
629,12	15,73
629,579	15,62
630,038	15,71
630,497	15,59
630,956	15,69
631,415	15,47
631,874	15,55
632,332	15,53
632,791	15,53
633,249	15,53
633,708	15,25
634,166	15,12
634,624	15,07
635,082	15,2
635,54	15,07
635,998	14,8
636,455	14,63
636,913	14,41
637,37	14,62
637,828	14,52
638,285	14,17
638,742	14,22
639,199	13,85
639,656	13,94
640,113	13,85
640,57	13,47
641,027	13,62
641,483	13,39
641,94	13,18
642,396	13,14
642,852	13,09
643,309	12,52
643,765	12,59
644,221	12,56
644,676	12,21
645,132	12,28
645,588	12,13
646,043	12
646,499	11,79
646,954	11,92
647,409	11,75
647,864	11,6
648,319	11,35
648,774	11,17
649,229	11,2
649,684	11,05
650,139	11
650,593	10,92
651,047	10,89
651,502	10,79
651,956	10,56
652,41	10,61
652,864	10,7
653,318	10,53
653,772	10,46
654,225	10,51
654,679	10,28
655,133	10,3
655,586	10,35
656,039	10,18
656,492	10,33
656,946	10,15
657,399	9,97
657,851	9,94
658,304	10
658,757	9,97
659,209	9,64
659,662	9,68
660,114	9,48
660,567	9,49
661,019	9,29
661,471	9,49
661,923	9,34
662,375	9,09
662,826	9,14
663,278	9,13
663,73	9,25
664,181	9,02
664,632	9,15
665,084	8,86
665,535	8,95
665,986	9,09
666,437	8,81
666,888	8,86
667,338	8,87
667,789	8,76
668,24	8,89
668,69	8,8
669,14	8,89
669,591	8,88
670,041	8,89
670,491	8,84
670,941	9,04
671,391	8,96
671,84	8,89
672,29	9,18
672,74	8,98
673,189	9,32
673,638	9,26
674,088	9,32
674,537	9,34
674,986	9,46
675,435	9,65
675,883	9,67
676,332	9,75
676,781	9,77
677,229	9,83
677,678	10,38
678,126	10
678,574	10,4
679,022	10,51
679,47	10,76
679,918	10,7
680,366	10,76
680,814	10,67
681,261	11,15
681,709	11,23
682,156	11,2
682,604	11,4
683,051	11,51
683,498	11,82
683,945	11,8
684,392	11,77
684,839	12,27
685,286	12,08
685,732	12,66
686,179	12,49
686,625	12,73
687,071	12,88
687,518	13
687,964	13,33
688,41	13,45
688,856	13,88
689,301	13,99
689,747	14,5
690,193	14,77
690,638	15,25
691,084	15,47
691,529	16,5
691,974	16,57
692,419	17,27
692,864	17,64
693,309	18,35
693,754	18,98
694,199	19,66
694,643	20,04
695,088	20,7
695,532	21,65
695,977	22,5
696,421	23,21
696,865	23,84
697,309	24,65
697,753	25,65
698,197	26,09
698,64	27,11
699,084	27,89
699,527	28,77
699,971	29,42
700,414	30,36
700,857	30,48
701,3	31,55
701,743	32,21
702,186	33,29
702,629	33,93
703,072	34,76
703,515	35,11
703,957	35,92
704,399	36,8
704,842	37,75
705,284	37,88
705,726	39,15
706,168	39,75
706,61	40,26
707,052	40,63
707,494	41,48
707,935	42,48
708,377	43,3
708,818	43,17
709,26	44,31
709,701	44,78
710,142	45,49
710,583	46,1
711,024	46,75
711,465	47
711,905	47,93
712,346	48,32
712,787	48,36
713,227	49,8
713,667	49,9
714,108	50,33
714,548	51,46
714,988	51,53
715,428	52,22
715,868	52,51
716,307	53,09
716,747	53,57
717,186	54,19
717,626	54,68
718,065	55,52
718,504	55,43
718,944	55,89
719,383	56,1
719,822	56,95
720,261	57,36
720,699	57,68
721,138	58,16
721,576	58,23
722,015	59,14
722,453	59,68
722,892	60,1
723,33	59,84
723,768	60,58
724,206	60,83
724,644	61,08
725,081	61,5
725,519	61,45
725,957	61,87
726,394	62,25
726,832	62,5
727,269	62,81
727,706	63,19
728,143	63,26
728,58	63,87
729,017	63,93
729,454	64,09
729,89	64,2
730,327	64,61
730,764	64,78
731,2	65,43
731,636	65,35
732,072	65,82
732,509	65,53
732,945	66,49
733,38	65,7
733,816	66,19
734,252	66,71
734,688	66,39
735,123	66,94
735,559	66,49
735,994	66,71
736,429	66,81
736,864	67,38
737,299	67,18
737,734	67,16
738,169	67,38
738,604	67,5
739,038	67,72
739,473	67,66
739,907	67,71
740,342	68,62
740,776	68,06
741,21	67,55
741,644	68,7
742,078	67,83
742,512	67,77
742,946	68,02
743,379	68,62
743,813	68,54
744,246	68,32
744,68	68,21
745,113	68,29
745,546	68,14
745,979	67,93
746,412	68,28
746,845	68,12
747,278	68,35
747,711	68,46
748,143	68,03
748,576	68,11
749,008	67,84
749,441	68,38
749,873	68,25
750,305	67,97
750,737	67,67
751,169	68,14
751,601	68,09
752,032	68,03
752,464	68,14
752,896	67,82
753,327	68,07
753,758	67,91
754,19	68,48
754,621	68,28
755,052	67,94
755,483	67,51
755,914	67,33
756,344	67,42
756,775	67,88
757,206	67,49
757,636	67,36
758,066	67,56
758,497	67,54
758,927	67,46
759,357	67,83
759,787	67,24
760,217	67,7
760,647	67,01
761,076	67,09
761,506	66,99
761,935	67,31
762,365	66,52
762,794	67,26
763,223	66,49
763,653	67,5
764,082	66,83
764,51	66,57
764,939	67,22
765,368	67,08
765,797	67,36
766,225	66,81
766,654	66,67
767,082	67,09
767,51	66,8
767,938	66,43
768,367	66,69
768,795	66,97
769,222	66,57
769,65	66,61
770,078	66,71
770,505	66,44
770,933	66,42
771,36	66,54
771,788	66,21
772,215	66,68
772,642	66,37
773,069	65,92
773,496	66,38
773,923	66,31
774,349	66,1
774,776	66,04
775,203	66,52
775,629	65,88
776,055	66,11
776,482	66,04
776,908	66,32
777,334	66,22
777,76	66,07
778,186	65,75
778,611	66,4
779,037	66
779,463	66,47
779,888	65,79
780,314	65,66
780,739	65,87
781,164	65,69
781,589	66,15
782,014	65,47
782,439	65,75
782,864	65,54
783,289	65,98
783,713	65,63
784,138	65,98
784,562	65,77
784,987	65,73
785,411	65,53
785,835	65,92
786,259	65,7
786,683	66,17
787,107	66,25
787,531	65,65
787,954	65,85
788,378	65,97
788,802	65,97
789,225	65,68
789,648	65,78
790,071	65,47
790,495	65,43
790,918	65,5
791,34	65,18
791,763	65,13
792,186	65,83
792,609	65,47
793,031	65,21
793,454	65,41
793,876	65,71
794,298	65,81
794,721	65,68
795,143	64,99
795,565	65,74
795,986	65,01
796,408	65,34
796,83	65,66
797,252	65,16
797,673	65,17
798,094	65,28
798,516	65,24
798,937	65,36
799,358	65,26
799,779	65,59
800,2	65,44
800,621	65,37
801,042	65,49
801,462	64,81
801,883	65,22
802,303	64,62
802,724	65,43
803,144	65,3
803,564	65,24
803,984	65,07
804,404	65,32
804,824	65,17
805,244	65,75
805,664	65,23
806,084	65,01
806,503	65,22
806,923	64,79
807,342	64,95
807,761	65,02
808,18	65,3
808,599	65,52
809,018	65,21
809,437	65,25
809,856	65,16
810,275	65,18
810,693	65,28
811,112	65,35
811,53	65,11
811,949	65,3
812,367	65,04
812,785	65,04
813,203	64,51
813,621	65,04
814,039	64,95
814,457	65,45
814,874	64,83
815,292	64,5
815,709	65,03
816,127	65,14
816,544	64,71
816,961	64,99
817,378	64,88
817,795	64,42
818,212	64,88
818,629	64,96
819,046	64,94
819,462	65,38
819,879	65,38
820,295	65,29
820,712	65,44
821,128	65,22
821,544	64,9
821,96	64,95
822,376	65,67
822,792	64,75
823,208	64,84
823,624	64,72
824,039	64,29
824,455	64,81
824,87	64,8
825,286	64,96
825,701	65,01
826,116	64,76
826,531	65,41
826,946	64,73
827,361	64,76
827,776	64,91
828,19	64,85
828,605	64,16
829,02	64,92
829,434	64,48
829,848	64,73
830,263	64,86
830,677	64,68
831,091	65,02
831,505	64,99
831,919	65,42
832,332	64,29
832,746	65,03
833,16	64,93
833,573	65
833,987	64,77
834,4	64,46
834,813	64,55
835,226	64,47
835,639	64,97
836,052	64,59
836,465	64,96
836,878	64,57
837,29	64,47
837,703	65,19
838,116	65,18
838,528	64,91
838,94	63,98
839,352	65,18
839,765	64,61
