Data from D_5_Relative__5__00085.txt Node

Date: Tue Jan 30 10:02:46 CET 2024
User: diatiterra
Spectrometer: HDX00911
Trigger mode: 0
Integration Time (sec): 6,000000E-3
Scans to average: 2
Nonlinearity correction enabled: false
Boxcar width: 0
Storing dark spectrum: false
XAxis mode: Wavelengths
Number of Pixels in Spectrum: 2068
>>>>>Begin Spectral Data<<<<<
194,468	79,56
195,025	86,29
195,581	82,58
196,138	82,17
196,694	72,14
197,251	66,08
197,807	70
198,363	62,3
198,919	69,36
199,474	72,88
200,03	66,54
200,586	66,08
201,141	73,11
201,696	64,29
202,251	70,15
202,806	65,96
203,361	70,73
203,916	68,88
204,471	67,82
205,025	63,6
205,58	65,9
206,134	70,52
206,688	67,81
207,242	65,32
207,796	61,02
208,35	78,54
208,904	70,97
209,457	71,71
210,011	67,69
210,564	71,62
211,117	80,85
211,67	72,06
212,223	60,96
212,776	73,73
213,329	66,67
213,881	78,79
214,434	63,11
214,986	75
215,538	76,77
216,09	65,86
216,642	69,83
217,194	71,77
217,746	70,12
218,297	77,73
218,849	73
219,4	71,43
219,951	78,76
220,502	75,49
221,053	72,88
221,604	75,59
222,155	72,46
222,705	72,34
223,256	69,66
223,806	70,83
224,356	77,94
224,906	75,77
225,456	63,45
226,006	76,79
226,556	72,57
227,106	71,37
227,655	70,23
228,204	78,73
228,754	72,57
229,303	87,84
229,852	80,79
230,401	68,61
230,949	62,77
231,498	73,21
232,047	71,31
232,595	72,29
233,143	73,25
233,691	62,9
234,239	66,03
234,787	65,92
235,335	74,89
235,883	70,27
236,43	69,07
236,978	73,04
237,525	66,38
238,072	66,08
238,619	65,92
239,166	64,66
239,713	75,11
240,26	61,69
240,806	63,36
241,353	74,36
241,899	62,14
242,445	69,46
242,991	67,21
243,537	65,37
244,083	68,78
244,629	61,67
245,174	65,53
245,72	65,25
246,265	69,68
246,81	76
247,355	68,98
247,9	72,92
248,445	58,73
248,99	66,38
249,534	65,28
250,079	69,44
250,623	66,37
251,168	70,61
251,712	55,9
252,256	64,05
252,8	82,3
253,343	68,83
253,887	73,16
254,43	67,78
254,974	70,4
255,517	71,63
256,06	62,03
256,603	76,54
257,146	63,85
257,689	72,46
258,232	69,68
258,774	59,91
259,317	71,98
259,859	73,33
260,401	69,16
260,943	65,15
261,485	66,82
262,027	63,4
262,569	70,83
263,11	67,26
263,652	61,06
264,193	66,98
264,734	75
265,275	76,82
265,816	60,26
266,357	70,12
266,898	66,67
267,438	66,81
267,979	62,5
268,519	71,63
269,059	64,82
269,6	65,49
270,14	65,09
270,68	71,31
271,219	68,26
271,759	66,81
272,298	69,6
272,838	60,56
273,377	72,07
273,916	65,37
274,455	62,69
274,994	70,05
275,533	60,84
276,072	62,98
276,61	64,04
277,149	60,83
277,687	70,34
278,225	67,49
278,763	56,11
279,301	64,9
279,839	68,85
280,377	55,1
280,914	67,13
281,452	65,04
281,989	68,18
282,526	57,5
283,064	67,05
283,601	65,83
284,137	61,78
284,674	66,11
285,211	58,95
285,747	62,6
286,284	63,79
286,82	66,53
287,356	62,67
287,892	54,73
288,428	64,38
288,964	66,39
289,5	69,77
290,035	68,46
290,571	64,59
291,106	60,63
291,641	58,52
292,176	60
292,711	63,36
293,246	58,62
293,781	56,09
294,315	66,98
294,85	60,16
295,384	66,04
295,918	66,4
296,453	69,64
296,987	63,98
297,52	64,25
298,054	64,71
298,588	63,2
299,121	69,37
299,655	63,68
300,188	61,86
300,721	62,95
301,254	65,47
301,787	65,35
302,32	69,23
302,853	71,91
303,385	66,67
303,918	58,67
304,45	66,38
304,982	65,6
305,514	60,98
306,046	69,91
306,578	65,98
307,11	63,64
307,641	70,59
308,173	63,91
308,704	70,33
309,236	70,87
309,767	57,08
310,298	64,4
310,829	65,89
311,359	69,91
311,89	57,69
312,421	59,18
312,951	61,09
313,481	65,88
314,012	60,85
314,542	65,77
315,072	63,52
315,601	61,29
316,131	64,38
316,661	63,32
317,19	50,61
317,72	58,05
318,249	59,63
318,778	68,72
319,307	66,94
319,836	66,4
320,365	60
320,893	68,11
321,422	63,68
321,95	66,96
322,479	63,05
323,007	55,78
323,535	66,79
324,063	62,65
324,591	68,2
325,118	62,34
325,646	63,79
326,173	66,07
326,701	60,16
327,228	71,02
327,755	61,43
328,282	68,18
328,809	58,77
329,336	70,21
329,862	58,03
330,389	70,04
330,915	62,4
331,441	67,51
331,968	50,2
332,494	66,22
333,02	63,18
333,545	68,83
334,071	56,3
334,597	69,01
335,122	66,67
335,648	63,6
336,173	65,25
336,698	54,51
337,223	63,38
337,748	65,88
338,272	65,67
338,797	61,35
339,322	67,95
339,846	54,22
340,37	62,45
340,894	62,03
341,419	66,53
341,942	57,75
342,466	55,75
342,99	63,5
343,514	69,23
344,037	59,4
344,56	64,14
345,084	64,41
345,607	66,04
346,13	63,31
346,653	56,83
347,175	63,14
347,698	67,03
348,221	66,8
348,743	69,06
349,265	63,27
349,787	57,49
350,309	61,31
350,831	54,58
351,353	71,43
351,875	60,81
352,397	52,2
352,918	59,36
353,439	59,76
353,961	61,54
354,482	56,04
355,003	54,89
355,524	54,05
356,044	62,55
356,565	58,33
357,086	51,62
357,606	51,67
358,126	52,84
358,646	46,55
359,167	52,82
359,687	49,83
360,206	57,51
360,726	51,42
361,246	52,01
361,765	54,05
362,285	51,34
362,804	51,83
363,323	56,76
363,842	59,74
364,361	55,73
364,88	51,35
365,398	53,17
365,917	53,25
366,435	51,52
366,954	56,23
367,472	54,05
367,99	42,49
368,508	52,73
369,026	56,09
369,544	52,17
370,061	50,4
370,579	54,97
371,096	52,36
371,613	43,7
372,131	47,52
372,648	51,27
373,165	54,35
373,681	42,67
374,198	51,65
374,715	46,91
375,231	46,67
375,747	48,64
376,264	42,23
376,78	53,08
377,296	42,86
377,812	45,39
378,327	48,59
378,843	44,36
379,359	40,53
379,874	41,37
380,389	42,69
380,905	48,2
381,42	40,82
381,935	41,59
382,449	41,02
382,964	41,21
383,479	42,17
383,993	46,8
384,508	41,54
385,022	37,85
385,536	37,36
386,05	35,62
386,564	33,86
387,078	43,8
387,592	39,51
388,105	34,93
388,619	37,32
389,132	36,27
389,645	36,41
390,158	34,49
390,671	35,98
391,184	36,42
391,697	37,13
392,21	32,75
392,722	32,96
393,235	31,73
393,747	33,43
394,259	32,15
394,771	34,24
395,283	30,71
395,795	30,13
396,307	34,04
396,818	30,51
397,33	31,3
397,841	27,15
398,353	28,9
398,864	30,38
399,375	29,76
399,886	27,25
400,397	28,48
400,907	26,65
401,418	25,44
401,928	27,95
402,439	25,78
402,949	22,86
403,459	26,54
403,969	25,1
404,479	23,03
404,989	21,76
405,498	22,96
406,008	22,02
406,517	23,81
407,027	19,74
407,536	21,79
408,045	19,6
408,554	16,87
409,063	17,39
409,572	17,2
410,08	18,46
410,589	15,63
411,097	16,2
411,606	15,19
412,114	13,75
412,622	14,22
413,13	14,27
413,638	13,82
414,145	13,6
414,653	12,24
415,16	13,32
415,668	13,47
416,175	11,17
416,682	11,69
417,189	12,19
417,696	11,75
418,203	12,45
418,71	10,47
419,216	11,95
419,723	11,44
420,229	9,85
420,735	10,18
421,242	10,72
421,748	10,59
422,254	11,3
422,759	10,48
423,265	9,66
423,771	9,26
424,276	9,68
424,781	9,85
425,287	10,07
425,792	9,26
426,297	9,57
426,802	9,19
427,306	9,57
427,811	8,56
428,316	9,48
428,82	9,66
429,324	9,19
429,829	8,71
430,333	8,94
430,837	8,96
431,34	9,01
431,844	8,22
432,348	8,82
432,851	8,53
433,355	8,38
433,858	8,9
434,361	8,9
434,864	8,32
435,367	8,8
435,87	7,87
436,373	7,98
436,876	8,5
437,378	8,53
437,88	7,94
438,383	8,58
438,885	8,03
439,387	8,15
439,889	7,89
440,391	7,88
440,892	8,09
441,394	8,13
441,896	7,61
442,397	8,07
442,898	7,75
443,399	8,06
443,9	7,87
444,401	8,31
444,902	8,05
445,403	7,98
445,903	8,31
446,404	8,25
446,904	8,69
447,405	8,22
447,905	7,92
448,405	8,46
448,905	7,89
449,404	7,86
449,904	7,94
450,404	8,04
450,903	8,48
451,403	7,88
451,902	8,36
452,401	8,29
452,9	8,09
453,399	7,91
453,898	8,15
454,396	7,9
454,895	8,46
455,393	7,99
455,892	8,33
456,39	7,58
456,888	8,51
457,386	7,75
457,884	8,18
458,382	8,38
458,879	8,07
459,377	8,03
459,874	7,9
460,372	8,18
460,869	8,05
461,366	8,4
461,863	7,75
462,36	7,95
462,857	8,01
463,353	8,55
463,85	8,01
464,346	8,19
464,843	8,32
465,339	8,16
465,835	8,56
466,331	7,86
466,827	7,83
467,323	7,9
467,818	8,05
468,314	7,91
468,809	7,93
469,305	7,73
469,8	8,01
470,295	8,15
470,79	7,96
471,285	8,06
471,78	7,83
472,274	7,85
472,769	7,88
473,263	8,15
473,758	8,1
474,252	7,66
474,746	7,74
475,24	7,92
475,734	8,25
476,228	7,84
476,721	8,38
477,215	8,1
477,708	7,63
478,202	7,65
478,695	7,84
479,188	8,05
479,681	7,84
480,174	7,8
480,667	7,52
481,159	8,2
481,652	7,9
482,144	7,94
482,637	7,65
483,129	7,65
483,621	8,25
484,113	7,83
484,605	7,79
485,097	7,99
485,588	8,04
486,08	8,15
486,571	8,03
487,063	8,19
487,554	7,83
488,045	7,96
488,536	7,56
489,027	8,51
489,518	8,26
490,008	7,96
490,499	8,4
490,989	8,38
491,48	8,32
491,97	8,42
492,46	8,11
492,95	8,36
493,44	8,28
493,93	8,19
494,419	8,89
494,909	8,34
495,398	8,76
495,888	9,03
496,377	8,75
496,866	8,86
497,355	9,07
497,844	9,11
498,333	9,12
498,821	9,05
499,31	9,03
499,798	9,53
500,287	9,75
500,775	9,57
501,263	9,67
501,751	10,05
502,239	9,92
502,727	10,32
503,215	10,52
503,702	10,57
504,19	11,01
504,677	11,04
505,164	11,2
505,651	11,32
506,139	11,37
506,625	11,39
507,112	12,05
507,599	12,33
508,086	12,48
508,572	12,32
509,058	12,75
509,545	13,12
510,031	13,24
510,517	13,27
511,003	13,72
511,489	14,14
511,974	14,51
512,46	14,95
512,946	15,01
513,431	14,75
513,916	15,44
514,401	15,82
514,887	15,76
515,371	16,17
515,856	17,1
516,341	17,26
516,826	17,29
517,31	17,64
517,795	18,41
518,279	18,42
518,763	18,85
519,247	18,85
519,731	19,35
520,215	19,72
520,699	20,11
521,182	20,9
521,666	21,01
522,149	21,54
522,633	21,72
523,116	22,43
523,599	22,62
524,082	22,77
524,565	23,23
525,048	23,48
525,53	23,6
526,013	24,14
526,495	24,76
526,978	25,45
527,46	24,55
527,942	25,44
528,424	26,21
528,906	25,8
529,388	25,93
529,87	26,48
530,351	25,81
530,833	27,07
531,314	26,73
531,795	27,68
532,277	27,66
532,758	27,75
533,238	27,63
533,719	28,12
534,2	28,45
534,681	28,46
535,161	28,59
535,642	28,21
536,122	29,19
536,602	28,85
537,082	28,79
537,562	28,68
538,042	29,06
538,522	28,52
539,001	28,61
539,481	29,35
539,96	29,12
540,44	29,05
540,919	29,5
541,398	29,34
541,877	29,34
542,356	29,55
542,835	29,65
543,313	29,14
543,792	29,54
544,27	30,24
544,749	30,12
545,227	29,95
545,705	29,71
546,183	30,11
546,661	30,67
547,139	30
547,616	29,91
548,094	29,96
548,571	29,74
549,049	30,53
549,526	30,64
550,003	30,35
550,48	30,42
550,957	30,18
551,434	30,23
551,911	30,78
552,387	30,59
552,864	30,74
553,34	30,58
553,817	30,67
554,293	30,56
554,769	29,99
555,245	30,63
555,721	30,63
556,197	30,23
556,672	30,07
557,148	30,51
557,623	29,94
558,099	30,39
558,574	30,47
559,049	29,86
559,524	30,4
559,999	29,23
560,474	29,69
560,948	29,69
561,423	29
561,897	29,18
562,372	29,31
562,846	29,57
563,32	29,74
563,794	29
564,268	28,62
564,742	28,93
565,216	28,43
565,69	28,43
566,163	28,91
566,636	28,14
567,11	28,39
567,583	28,03
568,056	27,26
568,529	27,61
569,002	27,41
569,475	27,68
569,947	26,95
570,42	26,53
570,892	26,5
571,365	26,47
571,837	26,57
572,309	26,4
572,781	25,84
573,253	25,35
573,725	25,13
574,197	24,92
574,668	24,66
575,14	24,7
575,611	24,16
576,082	24,19
576,554	24,06
577,025	23,7
577,496	23,68
577,967	23,85
578,437	23,17
578,908	23,27
579,379	23,14
579,849	22,96
580,319	22,85
580,79	22,56
581,26	22,55
581,73	22,24
582,2	22,34
582,669	22,04
583,139	22,08
583,609	21,89
584,078	21,83
584,548	21,54
585,017	21,97
585,486	21,2
585,955	21,47
586,424	21,01
586,893	20,69
587,362	20,61
587,83	20,76
588,299	20,52
588,767	20,42
589,236	20,83
589,704	20,36
590,172	20,41
590,64	20,37
591,108	20,03
591,576	20,38
592,043	20,13
592,511	20,28
592,978	19,9
593,446	19,95
593,913	19,72
594,38	19,83
594,847	19,98
595,314	19,61
595,781	19,65
596,248	19,29
596,715	19,72
597,181	19,36
597,647	19,53
598,114	19,16
598,58	19,23
599,046	19,11
599,512	18,99
599,978	19
600,444	19,33
600,91	19,23
601,375	19,07
601,841	18,98
602,306	18,67
602,771	18,71
603,236	18,73
603,702	18,61
604,167	18,43
604,631	19,09
605,096	18,63
605,561	18,87
606,025	18,28
606,49	18,41
606,954	18,2
607,418	18,04
607,882	17,82
608,347	17,85
608,81	18,07
609,274	17,63
609,738	17,71
610,202	17,4
610,665	17,26
611,128	17,07
611,592	17,31
612,055	16,63
612,518	17,24
612,981	16,77
613,444	16,54
613,907	16,54
614,369	16,44
614,832	16,33
615,294	16,3
615,757	16,07
616,219	16,14
616,681	16,24
617,143	15,89
617,605	15,83
618,067	15,49
618,529	15,75
618,99	15,4
619,452	15,52
619,913	15,44
620,375	15,38
620,836	15,04
621,297	15,18
621,758	14,99
622,219	14,82
622,68	15,2
623,14	14,96
623,601	14,92
624,061	14,67
624,522	14,78
624,982	14,73
625,442	14,67
625,902	14,65
626,362	14,41
626,822	14,36
627,282	14,74
627,742	14,64
628,201	14,38
628,661	14,65
629,12	14,33
629,579	14,36
630,038	14,55
630,497	14,27
630,956	14,29
631,415	14,33
631,874	14,43
632,332	14,12
632,791	13,87
633,249	14,08
633,708	14
634,166	13,94
634,624	13,95
635,082	13,92
635,54	13,82
635,998	13,84
636,455	13,63
636,913	13,52
637,37	13,44
637,828	13,25
638,285	13,37
638,742	13,21
639,199	13,16
639,656	12,79
640,113	12,69
640,57	12,78
641,027	12,46
641,483	12,35
641,94	12,07
642,396	12,29
642,852	11,8
643,309	11,69
643,765	11,51
644,221	11,46
644,676	11,29
645,132	11,3
645,588	11,22
646,043	11,07
646,499	10,94
646,954	10,81
647,409	10,65
647,864	10,36
648,319	10,38
648,774	10,17
649,229	10,17
649,684	10,32
650,139	9,79
650,593	10,02
651,047	9,81
651,502	9,95
651,956	9,64
652,41	9,71
652,864	9,7
653,318	9,53
653,772	9,54
654,225	9,52
654,679	9,51
655,133	9,48
655,586	9,27
656,039	9,36
656,492	9,37
656,946	9,17
657,399	8,8
657,851	8,91
658,304	8,9
658,757	8,86
659,209	8,84
659,662	8,65
660,114	8,43
660,567	8,35
661,019	8,39
661,471	8,41
661,923	8,27
662,375	8,01
662,826	8,1
663,278	7,79
663,73	7,92
664,181	7,84
664,632	7,79
665,084	7,69
665,535	7,58
665,986	7,76
666,437	7,56
666,888	7,72
667,338	7,58
667,789	7,49
668,24	7,45
668,69	7,53
669,14	7,51
669,591	7,5
670,041	7,5
670,491	7,57
670,941	7,52
671,391	7,56
671,84	7,6
672,29	7,76
672,74	7,68
673,189	7,77
673,638	7,81
674,088	7,93
674,537	8,08
674,986	7,92
675,435	8,07
675,883	8,1
676,332	8,32
676,781	8,3
677,229	8,33
677,678	8,48
678,126	8,53
678,574	8,75
679,022	8,92
679,47	9,03
679,918	9,16
680,366	9,15
680,814	9,12
681,261	9,48
681,709	9,39
682,156	9,4
682,604	9,66
683,051	9,88
683,498	9,97
683,945	10,13
684,392	10,36
684,839	10,37
685,286	10,56
685,732	10,79
686,179	10,78
686,625	10,9
687,071	11,21
687,518	11,64
687,964	11,88
688,41	11,94
688,856	12,15
689,301	12,68
689,747	13,03
690,193	13,08
690,638	13,66
691,084	14,07
691,529	14,5
691,974	15,02
692,419	15,44
692,864	16,12
693,309	16,82
693,754	17,21
694,199	17,67
694,643	18,46
695,088	18,85
695,532	20,02
695,977	20,34
696,421	21,1
696,865	21,56
697,309	22,61
697,753	22,76
698,197	23,5
698,64	24,44
699,084	25,05
699,527	25,69
699,971	26,22
700,414	27,27
700,857	27,35
701,3	28,4
701,743	28,9
702,186	29,59
702,629	30,35
703,072	31,16
703,515	31,41
703,957	32,08
704,399	32,41
704,842	33,03
705,284	33,82
705,726	34,31
706,168	34,97
706,61	35,38
707,052	36,05
707,494	36,39
707,935	37,09
708,377	37,67
708,818	38
709,26	38,75
709,701	39,21
710,142	39,56
710,583	39,86
711,024	40,56
711,465	40,86
711,905	41,57
712,346	41,77
712,787	42,06
713,227	42,39
713,667	43,21
714,108	43,52
714,548	44,31
714,988	44,25
715,428	44,4
715,868	45,15
716,307	45,39
716,747	46,02
717,186	46,58
717,626	46,63
718,065	47,29
718,504	47,39
718,944	47,29
719,383	47,77
719,822	48,07
720,261	48,57
720,699	49,26
721,138	48,54
721,576	49,81
722,015	49,81
722,453	50,36
722,892	50,87
723,33	50,71
723,768	50,69
724,206	51,03
724,644	51,5
725,081	51,34
725,519	52
725,957	52,21
726,394	52,19
726,832	52,12
727,269	52,66
727,706	53,18
728,143	52,97
728,58	53,47
729,017	53,59
729,454	53,74
729,89	53,57
730,327	54,32
730,764	54,37
731,2	54,61
731,636	54,57
732,072	54,5
732,509	54,3
732,945	55
733,38	55,12
733,816	54,91
734,252	55,33
734,688	55,45
735,123	55,68
735,559	55,09
735,994	55,43
736,429	55,54
736,864	55,83
737,299	55,59
737,734	55,89
738,169	56,37
738,604	55,65
739,038	55,91
739,473	56,24
739,907	56,01
740,342	56,36
740,776	56,33
741,21	56,12
741,644	56,66
742,078	56,16
742,512	56,4
742,946	56,59
743,379	56,69
743,813	56,62
744,246	56,75
744,68	56,56
745,113	56,66
745,546	56,47
745,979	56,16
746,412	56,66
746,845	55,94
747,278	56,22
747,711	56,5
748,143	57,16
748,576	56,51
749,008	55,88
749,441	56,72
749,873	56,24
750,305	56,45
750,737	56,46
751,169	56,56
751,601	56,18
752,032	56,15
752,464	56,11
752,896	56,46
753,327	56,47
753,758	56,34
754,19	56,23
754,621	56,72
755,052	55,99
755,483	56,07
755,914	56,1
756,344	56,22
756,775	55,86
757,206	56,07
757,636	55,69
758,066	55,67
758,497	56,08
758,927	55,7
759,357	56,18
759,787	55,61
760,217	55,72
760,647	55,61
761,076	55,7
761,506	55,21
761,935	55,71
762,365	56,17
762,794	55,69
763,223	55,3
763,653	55,65
764,082	55,67
764,51	55,54
764,939	55,41
765,368	55,84
765,797	55,63
766,225	54,99
766,654	55,02
767,082	55,27
767,51	55,15
767,938	54,79
768,367	55,08
768,795	55,57
769,222	55,12
769,65	55,27
770,078	55,18
770,505	54,74
770,933	54,86
771,36	54,74
771,788	55,04
772,215	55,46
772,642	54,99
773,069	54,52
773,496	54,75
773,923	54,97
774,349	54,89
774,776	55,17
775,203	54,99
775,629	54,87
776,055	54,97
776,482	54,57
776,908	55,19
777,334	54,56
777,76	55,04
778,186	54,44
778,611	55,09
779,037	54,88
779,463	54,91
779,888	54,63
780,314	54,52
780,739	54,51
781,164	54,71
781,589	54,6
782,014	54,2
782,439	54,45
782,864	54,34
783,289	54,32
783,713	54,35
784,138	54,72
784,562	54,47
784,987	54,62
785,411	54,36
785,835	54,92
786,259	54,62
786,683	54,76
787,107	54,39
787,531	54,72
787,954	54,32
788,378	54,62
788,802	54,48
789,225	54,08
789,648	54,47
790,071	54,29
790,495	54,63
790,918	54,74
791,34	54,24
791,763	54,09
792,186	54,24
792,609	54,23
793,031	53,96
793,454	54,53
793,876	54,37
794,298	54,52
794,721	54,7
795,143	54,06
795,565	54,25
795,986	53,86
796,408	54,2
796,83	54,59
797,252	54,2
797,673	54,36
798,094	54,32
798,516	54,24
798,937	53,95
799,358	54,53
799,779	54,53
800,2	54,27
800,621	54,11
801,042	54,06
801,462	54,19
801,883	53,99
802,303	53,64
802,724	54,01
803,144	54,39
803,564	54,33
803,984	54,05
804,404	54,04
804,824	54,25
805,244	54,47
805,664	53,99
806,084	54,15
806,503	54,09
806,923	53,91
807,342	54,26
807,761	53,7
808,18	54,39
808,599	54,19
809,018	54,31
809,437	54,2
809,856	54,09
810,275	54,34
810,693	53,98
811,112	54,14
811,53	54,2
811,949	54,29
812,367	53,97
812,785	53,94
813,203	53,85
813,621	54,47
814,039	54,1
814,457	53,7
814,874	53,79
815,292	53,87
815,709	53,83
816,127	54,28
816,544	53,88
816,961	53,96
817,378	54
817,795	53,73
818,212	54,07
818,629	53,88
819,046	54,5
819,462	54,49
819,879	54,2
820,295	54,1
820,712	54,08
821,128	54,12
821,544	54,14
821,96	53,69
822,376	54,29
822,792	54,16
823,208	53,77
823,624	53,94
824,039	53,88
824,455	54,51
824,87	53,82
825,286	54,04
825,701	53,4
826,116	53,84
826,531	53,99
826,946	53,7
827,361	54,07
827,776	53,52
828,19	54,13
828,605	53,5
829,02	53,98
829,434	53,56
829,848	54,19
830,263	53,94
830,677	53,96
831,091	53,53
831,505	53,55
831,919	53,88
832,332	53,8
832,746	54,03
833,16	53,97
833,573	53,51
833,987	53,38
834,4	53,57
834,813	53,63
835,226	53,65
835,639	53,43
836,052	53,91
836,465	53,86
836,878	53,41
837,29	53,59
837,703	54
838,116	53,9
838,528	53,93
838,94	53,5
839,352	54,17
839,765	53,98
840,177	53,67
840,589	53,61
