Data from E_2_Relative__5__00095.txt Node

Date: Tue Jan 30 10:04:18 CET 2024
User: diatiterra
Spectrometer: HDX00911
Trigger mode: 0
Integration Time (sec): 6,000000E-3
Scans to average: 2
Nonlinearity correction enabled: false
Boxcar width: 0
Storing dark spectrum: false
XAxis mode: Wavelengths
Number of Pixels in Spectrum: 2068
>>>>>Begin Spectral Data<<<<<
194,468	83,43
195,025	87,9
195,581	66,67
196,138	70,06
196,694	69,65
197,251	64,32
197,807	65
198,363	63,11
198,919	62,98
199,474	64,83
200,03	55,12
200,586	63
201,141	62,61
201,696	61,76
202,251	62,19
202,806	59,15
203,361	66,67
203,916	62,24
204,471	58,42
205,025	55,65
205,58	57,6
206,134	59,36
206,688	61,8
207,242	58,56
207,796	63,14
208,35	70,78
208,904	62,1
209,457	62,79
210,011	60,26
210,564	56,31
211,117	64,68
211,67	61,13
212,223	57,37
212,776	68,64
213,329	59,92
213,881	57,14
214,434	65,57
214,986	66,96
215,538	72,05
216,09	63,45
216,642	66,12
217,194	76,08
217,746	61,75
218,297	69,75
218,849	65,02
219,4	58,87
219,951	68,14
220,502	67,32
221,053	67,37
221,604	66,14
222,155	63,14
222,705	57,02
223,256	67,79
223,806	63,33
224,356	67,16
224,906	68,28
225,456	65,13
226,006	62,05
226,556	66,81
227,106	68,46
227,655	59,07
228,204	66,97
228,754	65,4
229,303	72,97
229,852	74,67
230,401	64,57
230,949	64,54
231,498	69,64
232,047	69,67
232,595	66,27
233,143	73,25
233,691	66,08
234,239	64,12
234,787	63,23
235,335	59,74
235,883	67,57
236,43	60,59
236,978	70
237,525	70,64
238,072	59,03
238,619	59,19
239,166	68,1
239,713	61,18
240,26	63,31
240,806	57,33
241,353	71,37
241,899	72,02
242,445	60,67
242,991	65,57
243,537	65,37
244,083	72,85
244,629	67,84
245,174	64,68
245,72	61
246,265	68,78
246,81	68,89
247,355	63,87
247,9	68,75
248,445	57,94
248,99	65,11
249,534	64,53
250,079	76,39
250,623	68,14
251,168	73,06
251,712	56,77
252,256	63,64
252,8	73,89
253,343	62,35
253,887	63,64
254,43	68,15
254,974	67,6
255,517	63,46
256,06	62,45
256,603	67,9
257,146	58,46
257,689	71,61
258,232	74,66
258,774	60,79
259,317	71,12
259,859	70,95
260,401	65,89
260,943	61
261,485	67,73
262,027	68,09
262,569	69,91
263,11	69,47
263,652	63,27
264,193	66,98
264,734	66,2
265,275	75,54
265,816	56,84
266,357	62,66
266,898	67,09
267,438	72,77
267,979	64,66
268,519	62,5
269,059	56,52
269,6	61,95
270,14	65,09
270,68	63,11
271,219	74,78
271,759	70,31
272,298	67,2
272,838	63,75
273,377	66,67
273,916	61,48
274,455	63,46
274,994	67,28
275,533	61,98
276,072	69,36
276,61	67,54
277,149	67,92
277,687	75
278,225	56,79
278,763	55,34
279,301	64,9
279,839	70,9
280,377	54,29
280,914	61,57
281,452	71,95
281,989	66,53
282,526	58,75
283,064	61,3
283,601	69,17
284,137	57,33
284,674	65,27
285,211	65,5
285,747	64,96
286,284	71,98
286,82	65,73
287,356	58,67
287,892	59,67
288,428	58,8
288,964	65,56
289,5	65,58
290,035	63,07
290,571	63,81
291,106	64,25
291,641	62,88
292,176	56
292,711	61,64
293,246	60,15
293,781	71,3
294,315	60,47
294,85	53,39
295,384	75
295,918	59,6
296,453	59,92
296,987	59,75
297,52	62,9
298,054	65,61
298,588	58,4
299,121	63,96
299,655	63,68
300,188	60,17
300,721	66,52
301,254	58,3
301,787	67,11
302,32	58,55
302,853	65,53
303,385	61,57
303,918	66,22
304,45	70,31
304,982	64
305,514	58,94
306,046	65,93
306,578	60,58
307,11	64,77
307,641	63,45
308,173	55,22
308,704	67,07
309,236	64,35
309,767	57,08
310,298	66
310,829	65,5
311,359	69,91
311,89	60,38
312,421	60,82
312,951	59,41
313,481	60,66
314,012	65,12
314,542	68,02
315,072	58,8
315,601	66,13
316,131	67,38
316,661	67,57
317,19	57,14
317,72	55,93
318,249	65,6
318,778	69,14
319,307	58,06
319,836	58,8
320,365	67,23
320,893	66,54
321,422	59,64
321,95	67,39
322,479	69,08
323,007	59,76
323,535	68,3
324,063	62,65
324,591	64,75
325,118	57,58
325,646	61,21
326,173	59,38
326,701	59,76
327,228	62,86
327,755	61,43
328,282	63,64
328,809	66,67
329,336	63,83
329,862	62,04
330,389	59,03
330,915	60,85
331,441	65,82
331,968	57,37
332,494	65,33
333,02	58,58
333,545	62,75
334,071	61,76
334,597	67,77
335,122	65,32
335,648	61,2
336,173	65,25
336,698	63,09
337,223	64,79
337,748	62,75
338,272	63,09
338,797	61,35
339,322	67,95
339,846	59,44
340,37	71,62
340,894	66,24
341,419	65,73
341,942	65,89
342,466	49,12
342,99	60,08
343,514	71,26
344,037	50
344,56	58,17
345,084	60,59
345,607	57,74
346,13	56,05
346,653	54,61
347,175	54,24
347,698	60,81
348,221	61,13
348,743	64,15
349,265	60,41
349,787	59,93
350,309	50,36
350,831	54,58
351,353	68,98
351,875	56,78
352,397	54,92
352,918	64,14
353,439	55,78
353,961	52,1
354,482	52,68
355,003	58,36
355,524	52,03
356,044	56
356,565	59,72
357,086	58,77
357,606	48,33
358,126	58,19
358,646	50,34
359,167	53,16
359,687	52,81
360,206	52,08
360,726	48,58
361,246	52,32
361,765	55,66
362,285	52,01
362,804	48,17
363,323	52,55
363,842	52,81
364,361	47,99
364,88	54,35
365,398	51,06
365,917	52,07
366,435	48,48
366,954	56,23
367,472	52,55
367,99	49,86
368,508	51,82
369,026	51,27
369,544	49,57
370,061	45,31
370,579	48,62
371,096	48,69
371,613	41,55
372,131	49,61
372,648	48,22
373,165	53,3
373,681	47,38
374,198	45,57
374,715	46,13
375,231	46,67
375,747	42,47
376,264	42,72
376,78	44,55
377,296	44,29
377,812	44,89
378,327	46,24
378,843	42,21
379,359	41,41
379,874	44,91
380,389	38,58
380,905	45,01
381,42	40,2
381,935	41,16
382,449	42,77
382,964	42,72
383,479	40,08
383,993	43
384,508	37,88
385,022	40,68
385,536	40,33
386,05	34,88
386,564	37,89
387,078	39,62
387,592	39,34
388,105	36,09
388,619	36,03
389,132	32,95
389,645	33,49
390,158	34,96
390,671	31,86
391,184	37,63
391,697	33,29
392,21	33,83
392,722	35,06
393,235	33,52
393,747	34,27
394,259	32,15
394,771	32,95
395,283	30,44
395,795	30,13
396,307	33,77
396,818	28,55
397,33	29,61
397,841	27,81
398,353	30,71
398,864	30,87
399,375	28,27
399,886	26,4
400,397	28,26
400,907	26,23
401,418	27,71
401,928	26
402,439	24,53
402,949	24,72
403,459	24,52
403,969	22,78
404,479	25,78
404,989	21,67
405,498	21,9
406,008	22,71
406,517	22,12
407,027	20,15
407,536	20,1
408,045	19,07
408,554	18,27
409,063	17,88
409,572	17,47
410,08	16,08
410,589	15,89
411,097	15,24
411,606	15,43
412,114	13,92
412,622	13,04
413,13	13,63
413,638	13,67
414,145	13,4
414,653	12,69
415,16	13,32
415,668	11,77
416,175	12,05
416,682	12,01
417,189	11,61
417,696	11,41
418,203	11,33
418,71	11,64
419,216	11,21
419,723	10,86
420,229	10,11
420,735	10,7
421,242	9,41
421,748	9,95
422,254	11,37
422,759	9,39
423,265	9,36
423,771	9,46
424,276	8,98
424,781	8,77
425,287	8,91
425,792	9,81
426,297	9,05
426,802	8,98
427,306	8,94
427,811	9,02
428,316	9,48
428,82	8,17
429,324	8,5
429,829	8,85
430,333	8,26
430,837	8,85
431,34	8,07
431,844	8,22
432,348	9,16
432,851	8,61
433,355	7,72
433,858	8,42
434,361	7,86
434,864	8,05
435,367	8,93
435,87	7,97
436,373	7,74
436,876	8,09
437,378	7,55
437,88	7,26
438,383	8,12
438,885	7,59
439,387	7,41
439,889	7,69
440,391	7,57
440,892	7,33
441,394	8,28
441,896	8,04
442,397	7,78
442,898	7,56
443,399	7,88
443,9	7,6
444,401	7,65
444,902	7,2
445,403	7,38
445,903	7,35
446,404	7,61
446,904	7,99
447,405	7,24
447,905	7,17
448,405	7,41
448,905	7,13
449,404	7,34
449,904	7,81
450,404	7,82
450,903	7,63
451,403	6,96
451,902	7,27
452,401	7,66
452,9	7,39
453,399	7,73
453,898	7,55
454,396	7,54
454,895	6,98
455,393	7,82
455,892	7,7
456,39	7,32
456,888	7,58
457,386	7,69
457,884	7,62
458,382	7,78
458,879	7,81
459,377	7,6
459,874	7,94
460,372	7,7
460,869	7,61
461,366	7,08
461,863	7,75
462,36	7,51
462,857	7,54
463,353	7,82
463,85	7,37
464,346	7,2
464,843	7,36
465,339	7,61
465,835	7,42
466,331	7,41
466,827	7,19
467,323	7,03
467,818	7,28
468,314	7,38
468,809	7,82
469,305	7,1
469,8	7,75
470,295	7,62
470,79	7,4
471,285	7,18
471,78	7
472,274	7,5
472,769	7,38
473,263	6,92
473,758	7,7
474,252	7,14
474,746	7,31
475,24	7,49
475,734	7,64
476,228	7,29
476,721	7,39
477,215	7,32
477,708	7,4
478,202	7,25
478,695	7,09
479,188	7,38
479,681	7,47
480,174	7,3
480,667	7,58
481,159	7,17
481,652	7,31
482,144	7,72
482,637	7,12
483,129	7,4
483,621	7,38
484,113	7,12
484,605	7,5
485,097	7,49
485,588	7,63
486,08	7,4
486,571	7,71
487,063	7,71
487,554	7,39
488,045	7,78
488,536	6,97
489,027	7,8
489,518	7,22
490,008	7,68
490,499	7,95
490,989	7,51
491,48	7,77
491,97	8,01
492,46	7,48
492,95	7,57
493,44	7,89
493,93	7,83
494,419	7,84
494,909	7,75
495,398	7,94
495,888	7,81
496,377	7,88
496,866	8,22
497,355	8
497,844	8,02
498,333	8,21
498,821	8,13
499,31	8,43
499,798	8,58
500,287	8,65
500,775	8,55
501,263	8,4
501,751	8,77
502,239	8,92
502,727	8,97
503,215	9,31
503,702	9,3
504,19	9,15
504,677	9,55
505,164	9,5
505,651	9,79
506,139	10,07
506,625	9,77
507,112	9,89
507,599	10,34
508,086	10,39
508,572	10,66
509,058	10,77
509,545	11,27
510,031	11,12
510,517	11,83
511,003	11,57
511,489	11,96
511,974	12,1
512,46	12,17
512,946	12,75
513,431	12,95
513,916	13,08
514,401	12,94
514,887	13,41
515,371	13,38
515,856	13,61
516,341	14,39
516,826	14,28
517,31	14,87
517,795	15,17
518,279	15
518,763	15,69
519,247	16,05
519,731	15,97
520,215	16,03
520,699	16,43
521,182	17,29
521,666	17,06
522,149	17,9
522,633	18,05
523,116	17,96
523,599	18,49
524,082	18,79
524,565	18,93
525,048	19,17
525,53	19,67
526,013	19,69
526,495	20,3
526,978	20,26
527,46	20,88
527,942	20,56
528,424	21,43
528,906	21,36
529,388	21,51
529,87	21,72
530,351	21,51
530,833	21,76
531,314	22,51
531,795	22,42
532,277	21,89
532,758	22,59
533,238	23,19
533,719	22,91
534,2	23,39
534,681	22,6
535,161	23,43
535,642	23,44
536,122	23,99
536,602	23,56
537,082	23,18
537,562	23,59
538,042	23,69
538,522	23,5
539,001	24,28
539,481	23,77
539,96	24,33
540,44	23,65
540,919	24,07
541,398	24,07
541,877	23,88
542,356	24,45
542,835	24,19
543,313	24,43
543,792	24,15
544,27	24,42
544,749	24,7
545,227	24,46
545,705	24,88
546,183	24,3
546,661	24,66
547,139	24,76
547,616	24,67
548,094	25,14
548,571	24,61
549,049	24,81
549,526	25,13
550,003	25,26
550,48	25,24
550,957	24,9
551,434	25,4
551,911	25,54
552,387	24,91
552,864	24,88
553,34	25,48
553,817	24,85
554,293	25,03
554,769	24,91
555,245	25,39
555,721	25,22
556,197	24,82
556,672	24,69
557,148	25,07
557,623	25,31
558,099	25,18
558,574	24,76
559,049	24,42
559,524	24,85
559,999	24,14
560,474	24,31
560,948	24,39
561,423	24,63
561,897	24,47
562,372	24,17
562,846	24,11
563,32	24,08
563,794	24,17
564,268	23,64
564,742	23,86
565,216	23,31
565,69	23,61
566,163	23,66
566,636	22,72
567,11	23,19
567,583	22,97
568,056	22,5
568,529	22,41
569,002	22,64
569,475	22,17
569,947	22,02
570,42	21,83
570,892	21,64
571,365	21,5
571,837	21,3
572,309	21,1
572,781	20,83
573,253	20,85
573,725	20,67
574,197	20,35
574,668	20,49
575,14	20,23
575,611	20,17
576,082	19,82
576,554	19,99
577,025	19,35
577,496	19,66
577,967	19,4
578,437	19,23
578,908	18,79
579,379	18,48
579,849	18,54
580,319	18,53
580,79	18,34
581,26	18,2
581,73	18,15
582,2	18,08
582,669	18,19
583,139	18,2
583,609	17,61
584,078	17,61
584,548	17,33
585,017	17,37
585,486	17,45
585,955	17,26
586,424	17,31
586,893	17,16
587,362	17,14
587,83	16,81
588,299	17,31
588,767	17,03
589,236	16,86
589,704	16,73
590,172	16,63
590,64	16,77
591,108	16,6
591,576	16,53
592,043	16,14
592,511	16,4
592,978	16,32
593,446	16,18
593,913	16,09
594,38	16,35
594,847	16,23
595,314	15,92
595,781	15,94
596,248	15,71
596,715	16,2
597,181	15,91
597,647	16,18
598,114	15,68
598,58	15,69
599,046	15,67
599,512	15,63
599,978	15,62
600,444	15,85
600,91	15,64
601,375	15,7
601,841	15,57
602,306	15,69
602,771	15,5
603,236	15,72
603,702	15,3
604,167	15,12
604,631	15,04
605,096	15,36
605,561	14,86
606,025	14,99
606,49	15,01
606,954	14,63
607,418	14,95
607,882	14,77
608,347	14,46
608,81	14,77
609,274	14,41
609,738	14,35
610,202	14,24
610,665	14,02
611,128	14,07
611,592	14,15
612,055	13,86
612,518	14,01
612,981	13,71
613,444	13,66
613,907	13,69
614,369	13,61
614,832	13,44
615,294	13,33
615,757	13,09
616,219	13,24
616,681	13
617,143	12,85
617,605	12,95
618,067	12,58
618,529	12,74
618,99	12,43
619,452	12,72
619,913	12,72
620,375	12,36
620,836	12,36
621,297	12,34
621,758	12,32
622,219	12,01
622,68	12,27
623,14	12,07
623,601	12,45
624,061	12,1
624,522	11,92
624,982	12,26
625,442	11,99
625,902	12,11
626,362	12,14
626,822	11,89
627,282	12,08
627,742	11,82
628,201	12,01
628,661	12,08
629,12	11,92
629,579	11,92
630,038	11,82
630,497	12,11
630,956	12,11
631,415	11,83
631,874	11,92
632,332	11,49
632,791	11,58
633,249	11,62
633,708	11,72
634,166	11,55
634,624	11,67
635,082	11,37
635,54	11,42
635,998	11,21
636,455	11,5
636,913	11,21
637,37	11,12
637,828	11,08
638,285	11,08
638,742	11,16
639,199	10,7
639,656	10,82
640,113	10,65
640,57	10,49
641,027	10,72
641,483	10,26
641,94	10,26
642,396	10,34
642,852	10,28
643,309	9,82
643,765	9,94
644,221	9,81
644,676	9,67
645,132	9,51
645,588	9,61
646,043	9,33
646,499	9,37
646,954	9,1
647,409	9,02
647,864	9
648,319	8,88
648,774	8,76
649,229	8,94
649,684	8,83
650,139	8,53
650,593	8,5
651,047	8,4
651,502	8,47
651,956	8,47
652,41	8,29
652,864	8,28
653,318	8,26
653,772	8,23
654,225	8,26
654,679	8,07
655,133	8,23
655,586	7,99
656,039	8,1
656,492	7,84
656,946	7,83
657,399	7,74
657,851	7,67
658,304	7,76
658,757	7,67
659,209	7,63
659,662	7,62
660,114	7,35
660,567	7,49
661,019	7,24
661,471	7,29
661,923	7,26
662,375	7,1
662,826	7,06
663,278	7,04
663,73	7,02
664,181	6,83
664,632	7,06
665,084	6,77
665,535	6,82
665,986	6,77
666,437	6,72
666,888	6,72
667,338	6,68
667,789	6,86
668,24	6,82
668,69	6,79
669,14	6,82
669,591	6,84
670,041	6,89
670,491	6,71
670,941	6,84
671,391	6,82
671,84	6,88
672,29	6,79
672,74	6,91
673,189	6,84
673,638	7,11
674,088	7,17
674,537	7,14
674,986	7,04
675,435	7,33
675,883	7,44
676,332	7,32
676,781	7,51
677,229	7,67
677,678	7,58
678,126	7,71
678,574	7,81
679,022	7,82
679,47	7,96
679,918	8,06
680,366	8,16
680,814	8,17
681,261	8,29
681,709	8,32
682,156	8,4
682,604	8,59
683,051	8,62
683,498	8,76
683,945	9,1
684,392	8,91
684,839	9,05
685,286	9,12
685,732	9,28
686,179	9,25
686,625	9,47
687,071	9,66
687,518	9,74
687,964	9,85
688,41	10,17
688,856	10,29
689,301	10,8
689,747	11,08
690,193	11,14
690,638	11,64
691,084	11,68
691,529	12,07
691,974	12,38
692,419	12,88
692,864	13,05
693,309	13,83
693,754	14,28
694,199	14,69
694,643	14,91
695,088	15,46
695,532	15,99
695,977	16,32
696,421	17,06
696,865	17,26
697,309	17,94
697,753	18,77
698,197	19,1
698,64	19,89
699,084	20
699,527	20,9
699,971	21,24
700,414	22,06
700,857	21,82
701,3	22,63
701,743	23,53
702,186	23,98
702,629	24,21
703,072	24,97
703,515	25,34
703,957	25,82
704,399	26,25
704,842	26,87
705,284	27,11
705,726	27,62
706,168	28,35
706,61	28,67
707,052	28,91
707,494	29,44
707,935	29,74
708,377	30,87
708,818	30,71
709,26	31,33
709,701	31,52
710,142	31,8
710,583	32,6
711,024	32,68
711,465	33,36
711,905	33,47
712,346	33,95
712,787	34,29
713,227	34,67
713,667	35,05
714,108	35,43
714,548	36,17
714,988	36,01
715,428	36,19
715,868	36,68
716,307	36,96
716,747	37,38
717,186	37,93
717,626	38,39
718,065	38,43
718,504	38,74
718,944	38,76
719,383	39,06
719,822	39,59
720,261	39,94
720,699	40,52
721,138	40,23
721,576	40,48
722,015	41,11
722,453	41,19
722,892	41,55
723,33	41,8
723,768	41,74
724,206	42,16
724,644	42,32
725,081	42,22
725,519	42,39
725,957	42,79
726,394	42,88
726,832	43,17
727,269	43,68
727,706	43,73
728,143	44,1
728,58	43,47
729,017	44,34
729,454	43,99
729,89	44,21
730,327	44,24
730,764	44,84
731,2	44,84
731,636	44,74
732,072	44,87
732,509	45,03
732,945	45,38
733,38	45,61
733,816	45,39
734,252	45,6
734,688	45,58
735,123	45,86
735,559	45,46
735,994	46,14
736,429	45,82
736,864	46,32
737,299	46,14
737,734	45,51
738,169	46,11
738,604	46,03
739,038	46,02
739,473	46,67
739,907	46,7
740,342	46,68
740,776	46,29
741,21	46,31
741,644	46,72
742,078	46,3
742,512	46,32
742,946	46,39
743,379	46,43
743,813	46,96
744,246	46,5
744,68	46,36
745,113	46,49
745,546	46,44
745,979	46,39
746,412	46,54
746,845	46,7
747,278	46,44
747,711	46,77
748,143	46,64
748,576	46,7
749,008	46,4
749,441	46,38
749,873	46,49
750,305	46,13
750,737	46,04
751,169	46,49
751,601	46,11
752,032	46,21
752,464	46,22
752,896	46,3
753,327	46,71
753,758	46,37
754,19	46,28
754,621	46,4
755,052	46,07
755,483	46
755,914	46,31
756,344	45,98
756,775	46,04
757,206	46,15
757,636	45,8
758,066	45,73
758,497	45,97
758,927	45,99
759,357	46,08
759,787	45,92
760,217	46,01
760,647	45,58
761,076	45,55
761,506	45,58
761,935	45,8
762,365	45,71
762,794	45,38
763,223	45,44
763,653	45,58
764,082	45,28
764,51	45,47
764,939	45,77
765,368	45,49
765,797	45,75
766,225	45,1
766,654	45,26
767,082	45,36
767,51	45,55
767,938	45,19
768,367	45,64
768,795	45,25
769,222	45,23
769,65	45,22
770,078	45,03
770,505	45,33
770,933	45,1
771,36	45,3
771,788	45,21
772,215	45,31
772,642	44,96
773,069	44,91
773,496	45,3
773,923	45,19
774,349	44,97
774,776	45,08
775,203	45,03
775,629	44,94
776,055	44,98
776,482	45,01
776,908	44,91
777,334	44,78
777,76	45,32
778,186	44,93
778,611	44,84
779,037	44,83
779,463	44,91
779,888	44,62
780,314	44,94
780,739	44,7
781,164	44,47
781,589	44,43
782,014	44,43
782,439	44,57
782,864	44,43
783,289	44,65
783,713	44,55
784,138	44,65
784,562	45,11
784,987	44,58
785,411	44,31
785,835	44,87
786,259	44,98
786,683	44,86
787,107	44,83
787,531	44,76
787,954	44,44
788,378	44,79
788,802	44,4
789,225	44,64
789,648	44,4
790,071	44,67
790,495	44,33
790,918	44,65
791,34	44,04
791,763	44,17
792,186	44,4
792,609	44,35
793,031	44,38
793,454	44,37
793,876	44,62
794,298	44,45
794,721	44,29
795,143	44,03
795,565	44,28
795,986	44,15
796,408	44,39
796,83	44,41
797,252	44,16
797,673	44,06
798,094	44,19
798,516	44,3
798,937	44,11
799,358	44,45
799,779	44,37
800,2	44,23
800,621	44,08
801,042	44,45
801,462	44,08
801,883	43,92
802,303	43,89
802,724	44,31
803,144	44,15
803,564	44,19
803,984	44,2
804,404	43,64
804,824	44,12
805,244	44,48
805,664	44,06
806,084	43,81
806,503	43,99
806,923	43,82
807,342	44,44
807,761	44,03
808,18	44,53
808,599	44,3
809,018	44,07
809,437	43,89
809,856	44,02
810,275	44,4
810,693	44,1
811,112	44,12
811,53	44,22
811,949	44,04
812,367	44,23
812,785	44,19
813,203	43,89
813,621	43,95
814,039	44,08
814,457	44,24
814,874	43,82
815,292	44,27
815,709	43,84
816,127	43,95
816,544	43,7
816,961	44,11
817,378	43,81
817,795	44,06
818,212	43,94
818,629	43,96
819,046	44,15
819,462	44,29
819,879	44,08
820,295	44,17
820,712	43,9
821,128	44,17
821,544	43,96
821,96	44,12
822,376	44,35
822,792	44,05
823,208	43,74
823,624	43,99
824,039	43,8
824,455	44,03
824,87	44,03
825,286	43,89
825,701	43,38
826,116	44,1
826,531	44,03
826,946	43,84
827,361	44,03
827,776	43,92
828,19	43,99
828,605	43,73
829,02	44
829,434	43,8
829,848	44,1
830,263	44,14
830,677	43,68
831,091	43,51
831,505	43,67
831,919	44,28
832,332	43,64
832,746	43,79
833,16	43,94
833,573	43,62
833,987	43,45
834,4	43,82
834,813	43,9
835,226	43,67
835,639	43,87
836,052	43,87
836,465	43,82
836,878	43,78
837,29	43,44
837,703	43,94
838,116	44,22
838,528	44,13
838,94	43,8
839,352	43,63
839,765	43,81
840,177	43,64
840,589	43,75
841	43,78
841,412	44,34
841,824	43,8
842,235	43,72
842,647	43,92
