Data from E_4_Relative__5__00101.txt Node

Date: Tue Jan 30 10:05:24 CET 2024
User: diatiterra
Spectrometer: HDX00911
Trigger mode: 0
Integration Time (sec): 6,000000E-3
Scans to average: 2
Nonlinearity correction enabled: false
Boxcar width: 0
Storing dark spectrum: false
XAxis mode: Wavelengths
Number of Pixels in Spectrum: 2068
>>>>>Begin Spectral Data<<<<<
194,468	93,37
195,025	101,61
195,581	87,88
196,138	82,17
196,694	82,59
197,251	74,89
197,807	77,08
198,363	79,92
198,919	77,02
199,474	83,47
200,03	69,29
200,586	77,09
201,141	76,05
201,696	68,91
202,251	76,62
202,806	80
203,361	76,83
203,916	80,08
204,471	90,59
205,025	79,92
205,58	80,65
206,134	77,29
206,688	78,11
207,242	74,77
207,796	74,58
208,35	89,04
208,904	74,6
209,457	80,23
210,011	79,91
210,564	81,53
211,117	86,38
211,67	76,11
212,223	66,93
212,776	84,75
213,329	83,12
213,881	77,92
214,434	74,59
214,986	79,02
215,538	83,46
216,09	83,53
216,642	87,19
217,194	88,52
217,746	73,71
218,297	79,41
218,849	79,09
219,4	71,43
219,951	86,73
220,502	79,38
221,053	79,24
221,604	85,04
222,155	77,54
222,705	79,15
223,256	74,91
223,806	79,58
224,356	87,25
224,906	88,11
225,456	77,73
226,006	85,71
226,556	82,74
227,106	78,01
227,655	75,81
228,204	85,07
228,754	81,86
229,303	90,09
229,852	87,34
230,401	79,82
230,949	69,86
231,498	77,23
232,047	81,56
232,595	81,12
233,143	84,21
233,691	77,03
234,239	79,77
234,787	81,17
235,335	77,92
235,883	82,43
236,43	75,42
236,978	85,22
237,525	77,87
238,072	66,52
238,619	67,71
239,166	73,28
239,713	71,31
240,26	81,05
240,806	79,31
241,353	78,63
241,899	73,66
242,445	77,82
242,991	84,02
243,537	71,43
244,083	84,16
244,629	76,65
245,174	71,91
245,72	74,9
246,265	80,54
246,81	85,33
247,355	73,72
247,9	79,17
248,445	76,59
248,99	74,89
249,534	69,43
250,079	79,63
250,623	83,63
251,168	74,29
251,712	76,42
252,256	77,69
252,8	85,4
253,343	73,68
253,887	76,62
254,43	77,41
254,974	74,8
255,517	81,25
256,06	69,62
256,603	81,89
257,146	73,46
257,689	67,37
258,232	77,38
258,774	81,5
259,317	85,78
259,859	84,76
260,401	89,72
260,943	82,16
261,485	80,91
262,027	75,32
262,569	74,54
263,11	82,74
263,652	73,01
264,193	79,07
264,734	79,17
265,275	78,54
265,816	67,09
266,357	68,46
266,898	81,62
267,438	85,11
267,979	86,21
268,519	87,02
269,059	70,75
269,6	75,66
270,14	76,72
270,68	68,85
271,219	82,17
271,759	65,94
272,298	76,4
272,838	69,72
273,377	85,59
273,916	77,43
274,455	70,38
274,994	76,96
275,533	73,76
276,072	85,53
276,61	79,82
277,149	69,58
277,687	82,63
278,225	69,96
278,763	69,47
279,301	73,88
279,839	71,31
280,377	72,24
280,914	85,19
281,452	78,86
281,989	81,82
282,526	65,42
283,064	72,03
283,601	80,83
284,137	78,22
284,674	79,92
285,211	74,67
285,747	71,26
286,284	78,45
286,82	76,61
287,356	73,33
287,892	70,78
288,428	77,25
288,964	74,27
289,5	79,07
290,035	73,03
290,571	72,76
291,106	74,21
291,641	67,25
292,176	72,8
292,711	65,09
293,246	75,1
293,781	69,57
294,315	77,21
294,85	70,92
295,384	77,36
295,918	85,2
296,453	74,49
296,987	76,69
297,52	70,59
298,054	76,02
298,588	70,4
299,121	72,52
299,655	67,92
300,188	67,37
300,721	77,23
301,254	64,13
301,787	76,32
302,32	77,35
302,853	75,74
303,385	67,84
303,918	77,78
304,45	75,11
304,982	76
305,514	63,41
306,046	84,07
306,578	81,33
307,11	76,14
307,641	69,33
308,173	72,17
308,704	77,24
309,236	75,22
309,767	67,92
310,298	71,6
310,829	70,93
311,359	73,89
311,89	70,77
312,421	65,71
312,951	72,8
313,481	76,78
314,012	67,05
314,542	68,92
315,072	73,82
315,601	75,4
316,131	72,1
316,661	71,04
317,19	66,94
317,72	68,22
318,249	72,02
318,778	83,54
319,307	73,39
319,836	70
320,365	77,45
320,893	76,38
321,422	73,09
321,95	72,61
322,479	74,7
323,007	67,73
323,535	75,47
324,063	70,82
324,591	82,38
325,118	67,97
325,646	78,02
326,173	76,34
326,701	68,92
327,228	79,59
327,755	65,71
328,282	85,91
328,809	76,32
329,336	79,15
329,862	77,74
330,389	70,48
330,915	65,89
331,441	83,12
331,968	66,14
332,494	76,44
333,02	69,87
333,545	72,47
334,071	73,53
334,597	71,49
335,122	77,48
335,648	69,6
336,173	74,58
336,698	65,67
337,223	73,71
337,748	67,84
338,272	70,39
338,797	80,48
339,322	80,34
339,846	68,67
340,37	73,8
340,894	71,73
341,419	68,15
341,942	74,42
342,466	74,34
342,99	63,88
343,514	73,68
344,037	68,05
344,56	66,14
345,084	77,54
345,607	75,47
346,13	71,77
346,653	60,52
347,175	74,15
347,698	69,6
348,221	70,04
348,743	75,09
349,265	71,02
349,787	64,81
350,309	64,96
350,831	68,31
351,353	61,63
351,875	72,16
352,397	66,78
352,918	67,73
353,439	71,31
353,961	69,23
354,482	65,44
355,003	64,98
355,524	63,18
356,044	73,82
356,565	61,46
357,086	67,21
357,606	63
358,126	65,55
358,646	58,62
359,167	70,1
359,687	55,78
360,206	65,18
360,726	67,82
361,246	66,87
361,765	64,4
362,285	63,42
362,804	57,32
363,323	61,56
363,842	64,36
364,361	58,51
364,88	64,26
365,398	59,82
365,917	58,28
366,435	54,55
366,954	61,4
367,472	62,46
367,99	59,21
368,508	64,85
369,026	62,32
369,544	57,97
370,061	56,3
370,579	66,57
371,096	58,64
371,613	57,37
372,131	52,74
372,648	63,96
373,165	53,56
373,681	52,88
374,198	57,22
374,715	54,64
375,231	56,05
375,747	59,75
376,264	51,94
376,78	56,87
377,296	52,86
377,812	55,86
378,327	57,28
378,843	55,4
379,359	52,86
379,874	53,85
380,389	47,95
380,905	53,5
381,42	47,96
381,935	51,72
382,449	50,78
382,964	48,2
383,479	48,23
383,993	53,6
384,508	46,92
385,022	49,53
385,536	48,51
386,05	46,75
386,564	45,26
387,078	51,13
387,592	45,9
388,105	46,19
388,619	44,1
389,132	46,76
389,645	41,63
390,158	45,51
390,671	44,05
391,184	48,56
391,697	41,25
392,21	41,95
392,722	41,09
393,235	40,52
393,747	39,19
394,259	43,56
394,771	43,37
395,283	38,05
395,795	38,4
396,307	39,21
396,818	38,33
397,33	36,36
397,841	35,77
398,353	36,65
398,864	35,67
399,375	35,62
399,886	36,13
400,397	32,04
400,907	31,9
401,418	32,06
401,928	32,17
402,439	32,74
402,949	31,41
403,459	30,37
403,969	30,02
404,479	33,46
404,989	27,87
405,498	25,24
406,008	30,66
406,517	27,29
407,027	25,3
407,536	26,39
408,045	23,74
408,554	22,01
409,063	22,4
409,572	22,39
410,08	22,25
410,589	19,94
411,097	20,2
411,606	20,55
412,114	17,86
412,622	18,04
413,13	18,08
413,638	17,28
414,145	17,82
414,653	16,09
415,16	15,77
415,668	16,18
416,175	15,65
416,682	14,94
417,189	14,8
417,696	15,01
418,203	14,41
418,71	13,29
419,216	14,64
419,723	14,24
420,229	14,51
420,735	13,19
421,242	12,81
421,748	13,05
422,254	15,04
422,759	12,48
423,265	12,31
423,771	11,42
424,276	12,25
424,781	11,8
425,287	11,6
425,792	10,77
426,297	12
426,802	11,42
427,306	11,45
427,811	10,67
428,316	11,67
428,82	11,19
429,324	10,61
429,829	11,51
430,333	11,62
430,837	10,94
431,34	11,27
431,844	10
432,348	10,37
432,851	11,49
433,355	10,53
433,858	11,45
434,361	10,53
434,864	10,54
435,367	10,8
435,87	10,61
436,373	9,93
436,876	10,82
437,378	10,31
437,88	9,5
438,383	10,13
438,885	9,77
439,387	9,63
439,889	9,84
440,391	9,76
440,892	10,27
441,394	10,03
441,896	9,87
442,397	10,19
442,898	9,71
443,399	9,62
443,9	10,22
444,401	9,95
444,902	10,09
445,403	9,9
445,903	10,17
446,404	9,87
446,904	10,02
447,405	10,17
447,905	9,89
448,405	9,77
448,905	10,73
449,404	10,16
449,904	9,98
450,404	10,16
450,903	10,41
451,403	9,74
451,902	10,17
452,401	10,27
452,9	10,04
453,399	11,02
453,898	9,99
454,396	10,44
454,895	10,48
455,393	10,31
455,892	10,1
456,39	10,59
456,888	10,53
457,386	10,48
457,884	10,4
458,382	10,12
458,879	10,38
459,377	10,47
459,874	10,28
460,372	10,42
460,869	10,13
461,366	10,62
461,863	11,26
462,36	10,16
462,857	10,06
463,353	10,36
463,85	10,4
464,346	9,99
464,843	10,21
465,339	10,45
465,835	10,39
466,331	9,7
466,827	10,33
467,323	10,3
467,818	10,23
468,314	10,02
468,809	10,07
469,305	9,94
469,8	10,42
470,295	10,34
470,79	10,3
471,285	10
471,78	9,6
472,274	10,07
472,769	10,38
473,263	10,02
473,758	10,22
474,252	10,31
474,746	9,87
475,24	10,05
475,734	10,58
476,228	9,75
476,721	9,92
477,215	10,16
477,708	9,88
478,202	10,41
478,695	10
479,188	10,07
479,681	10,38
480,174	10,22
480,667	10,54
481,159	10,86
481,652	10,03
482,144	10,4
482,637	10,07
483,129	9,76
483,621	10,7
484,113	10,31
484,605	10,22
485,097	10,14
485,588	10,38
486,08	10,37
486,571	10,8
487,063	10,62
487,554	10,03
488,045	10,74
488,536	10,98
489,027	11,15
489,518	10,59
490,008	10,58
490,499	11,16
490,989	10,73
491,48	10,82
491,97	10,98
492,46	10,82
492,95	11,02
493,44	11,57
493,93	11,33
494,419	11,32
494,909	11,03
495,398	11,65
495,888	11,61
496,377	11,55
496,866	11,57
497,355	11,96
497,844	11,91
498,333	12,19
498,821	12,45
499,31	12,26
499,798	12,7
500,287	13,18
500,775	13,1
501,263	13,45
501,751	13,28
502,239	13,68
502,727	14,3
503,215	13,91
503,702	14,1
504,19	14,1
504,677	14,84
505,164	14,46
505,651	15,13
506,139	15,3
506,625	15,39
507,112	15,61
507,599	16,61
508,086	16,59
508,572	16,75
509,058	16,74
509,545	17,3
510,031	17,57
510,517	17,99
511,003	18,41
511,489	18,79
511,974	19,01
512,46	19,83
512,946	20,62
513,431	19,52
513,916	21,04
514,401	21,22
514,887	20,69
515,371	22,26
515,856	22,38
516,341	22,59
516,826	22,87
517,31	23,74
517,795	24,36
518,279	24,33
518,763	25,16
519,247	25,49
519,731	25,97
520,215	26,03
520,699	26,52
521,182	27,77
521,666	27,85
522,149	28,38
522,633	28,86
523,116	28,81
523,599	29,19
524,082	29,54
524,565	30,84
525,048	31,12
525,53	31,1
526,013	32,23
526,495	32,7
526,978	32,73
527,46	32,5
527,942	33,62
528,424	33,51
528,906	33,13
529,388	33,43
529,87	34,62
530,351	34,6
530,833	34,99
531,314	35,57
531,795	35,14
532,277	35,81
532,758	35,72
533,238	37
533,719	36,61
534,2	36,98
534,681	36,73
535,161	36,95
535,642	36,19
536,122	37,39
536,602	37,2
537,082	37,25
537,562	37,45
538,042	37,75
538,522	38,01
539,001	37,72
539,481	37,95
539,96	37,59
540,44	37,48
540,919	37,91
541,398	37,56
541,877	38,9
542,356	38,7
542,835	38,25
543,313	38,1
543,792	38,4
544,27	38,26
544,749	38,44
545,227	38,18
545,705	38,94
546,183	38,88
546,661	39,27
547,139	38,59
547,616	38,67
548,094	39,27
548,571	39,04
549,049	39,64
549,526	39,47
550,003	39,24
550,48	39,43
550,957	39,49
551,434	39,27
551,911	39,49
552,387	39,66
552,864	39,38
553,34	39,57
553,817	39,26
554,293	39,12
554,769	39,28
555,245	39,65
555,721	39,39
556,197	39,41
556,672	39,1
557,148	39,45
557,623	39,54
558,099	38,71
558,574	39,28
559,049	39,17
559,524	39,13
559,999	38,86
560,474	38,81
560,948	37,83
561,423	38,42
561,897	38,66
562,372	38,64
562,846	38,26
563,32	38,44
563,794	38,11
564,268	37,85
564,742	37,81
565,216	37,69
565,69	37,49
566,163	37,18
566,636	37,2
567,11	37,44
567,583	36,81
568,056	35,87
568,529	35,89
569,002	35,95
569,475	35,66
569,947	35,44
570,42	35,21
570,892	35,02
571,365	34,17
571,837	34,47
572,309	33,92
572,781	33,81
573,253	34,13
573,725	33,31
574,197	33,11
574,668	32,99
575,14	32,47
575,611	32,63
576,082	31,8
576,554	32,56
577,025	31,89
577,496	31,4
577,967	31,36
578,437	31,38
578,908	31,13
579,379	31
579,849	30,2
580,319	30,76
580,79	30,44
581,26	29,7
581,73	29,52
582,2	29,61
582,669	29,82
583,139	29,41
583,609	29,17
584,078	29,52
584,548	29
585,017	29,01
585,486	28,62
585,955	28,28
586,424	28,72
586,893	27,93
587,362	27,9
587,83	28,15
588,299	27,94
588,767	27,83
589,236	28,24
589,704	27,55
590,172	27,25
590,64	27,33
591,108	27,01
591,576	27,44
592,043	27,06
592,511	26,75
592,978	27,21
593,446	26,76
593,913	26,69
594,38	26,74
594,847	26,5
595,314	26,63
595,781	26,31
596,248	26,43
596,715	26,69
597,181	25,93
597,647	25,87
598,114	26,12
598,58	26,38
599,046	26,25
599,512	25,88
599,978	25,79
600,444	26,37
600,91	25,27
601,375	25,88
601,841	25,63
602,306	25,92
602,771	25,71
603,236	25,43
603,702	25,61
604,167	25,23
604,631	25,44
605,096	24,74
605,561	24,82
606,025	24,86
606,49	24,55
606,954	24,71
607,418	24,66
607,882	24,36
608,347	24,66
608,81	24,47
609,274	24,23
609,738	23,95
610,202	23,91
610,665	23,76
611,128	23,58
611,592	23,69
612,055	23,27
612,518	23,7
612,981	23,13
613,444	23,05
613,907	22,9
614,369	22,78
614,832	22,55
615,294	22,66
615,757	22,54
616,219	22,19
616,681	22,48
617,143	21,96
617,605	21,77
618,067	21,52
618,529	21,86
618,99	21,52
619,452	21,65
619,913	21,59
620,375	21,27
620,836	21,06
621,297	20,85
621,758	21,26
622,219	20,89
622,68	20,84
623,14	20,98
623,601	20,75
624,061	20,43
624,522	20,53
624,982	20,43
625,442	20,54
625,902	20,2
626,362	20,59
626,822	20,62
627,282	20,51
627,742	20,2
628,201	20,32
628,661	20,23
629,12	20,14
629,579	20,28
630,038	20,35
630,497	20,11
630,956	19,86
631,415	19,54
631,874	19,83
632,332	19,93
632,791	19,47
633,249	19,47
633,708	19,85
634,166	19,45
634,624	19,36
635,082	19,14
635,54	19,31
635,998	18,9
636,455	19,05
636,913	18,68
637,37	18,7
637,828	18,53
638,285	18,28
638,742	18,25
639,199	18,1
639,656	17,99
640,113	17,63
640,57	17,3
641,027	17,31
641,483	16,94
641,94	16,94
642,396	16,45
642,852	16,22
643,309	16,18
643,765	15,94
644,221	16,02
644,676	15,73
645,132	15,57
645,588	15,23
646,043	15,28
646,499	14,99
646,954	14,75
647,409	14,64
647,864	14,25
648,319	14,31
648,774	13,84
649,229	13,87
649,684	14,09
650,139	13,88
650,593	13,82
651,047	13,43
651,502	13,69
651,956	13,32
652,41	13,38
652,864	13,42
653,318	13,27
653,772	13,29
654,225	13,14
654,679	12,99
655,133	12,92
655,586	12,8
656,039	12,85
656,492	12,88
656,946	12,54
657,399	12,4
657,851	12,55
658,304	12,17
658,757	12,24
659,209	12,25
659,662	12,07
660,114	11,97
660,567	11,83
661,019	11,69
661,471	11,55
661,923	11,18
662,375	11,17
662,826	11,04
663,278	10,99
663,73	10,93
664,181	10,78
664,632	10,48
665,084	10,71
665,535	10,59
665,986	10,43
666,437	10,23
666,888	10,5
667,338	10,3
667,789	10,08
668,24	10,23
668,69	10,13
669,14	9,99
669,591	10,13
670,041	10,04
670,491	10,08
670,941	9,87
671,391	10,15
671,84	10,14
672,29	10,08
672,74	9,93
673,189	10,13
673,638	10,31
674,088	10,36
674,537	10,3
674,986	10,38
675,435	10,25
675,883	10,52
676,332	10,63
676,781	10,78
677,229	11,08
677,678	11
678,126	10,78
678,574	11,18
679,022	11,37
679,47	11,54
679,918	11,8
680,366	11,74
680,814	11,87
681,261	12,06
681,709	12,18
682,156	12,35
682,604	12,47
683,051	12,78
683,498	13
683,945	13,18
684,392	13,24
684,839	13,6
685,286	13,74
685,732	14,08
686,179	14,19
686,625	14,6
687,071	14,89
687,518	15,19
687,964	15,67
688,41	15,99
688,856	16,49
689,301	16,88
689,747	17,59
690,193	18,12
690,638	18,65
691,084	19,04
691,529	19,64
691,974	20,47
692,419	21,45
692,864	21,82
693,309	22,65
693,754	23,48
694,199	24,05
694,643	24,87
695,088	25,55
695,532	26,73
695,977	27,38
696,421	28,37
696,865	29,05
697,309	29,7
697,753	30,43
698,197	31,78
698,64	32,5
699,084	33,35
699,527	34,16
699,971	34,74
700,414	35,89
700,857	36,34
701,3	37,38
701,743	37,68
702,186	38,35
702,629	39,23
703,072	40,31
703,515	40,41
703,957	41,32
704,399	42,35
704,842	43,26
705,284	43,26
705,726	44,71
706,168	45,25
706,61	45,62
707,052	46,13
707,494	46,63
707,935	47,33
708,377	47,96
708,818	48,4
709,26	49,54
709,701	49,86
710,142	50,67
710,583	51,16
711,024	51,73
711,465	52,38
711,905	52,73
712,346	53,22
712,787	53,32
713,227	54,47
713,667	54,55
714,108	54,91
714,548	55,92
714,988	56,34
715,428	56,01
715,868	57,09
716,307	57,51
716,747	58,39
717,186	58,64
717,626	59,03
718,065	59,3
718,504	59,45
718,944	59,81
719,383	60,34
719,822	60,79
720,261	61,03
720,699	61,2
721,138	61,79
721,576	62,02
722,015	62,76
722,453	62,83
722,892	63,36
723,33	63,58
723,768	63,69
724,206	64,11
724,644	64,08
725,081	64,38
725,519	64,96
725,957	65,19
726,394	65,46
726,832	65,52
727,269	66,3
727,706	66,12
728,143	66,45
728,58	66,56
729,017	67,25
729,454	66,84
729,89	66,68
730,327	67,86
730,764	67,6
731,2	68
731,636	68,1
732,072	68,06
732,509	68,1
732,945	68,72
733,38	68,46
733,816	68,78
734,252	69,02
734,688	68,54
735,123	68,97
735,559	69,04
735,994	69,08
736,429	68,98
736,864	69,38
737,299	69,21
737,734	69,36
738,169	69,55
738,604	69,38
739,038	69,88
739,473	70,29
739,907	70,16
740,342	70,2
740,776	70,27
741,21	69,57
741,644	70,32
742,078	70,14
742,512	70,27
742,946	70,37
743,379	69,82
743,813	70,75
744,246	70,58
744,68	70,41
745,113	70,35
745,546	69,89
745,979	69,92
746,412	70,42
746,845	70,1
747,278	70,42
747,711	70,52
748,143	70,69
748,576	70,81
749,008	70,22
749,441	70,3
749,873	69,84
750,305	70,09
750,737	69,99
751,169	69,89
751,601	69,87
752,032	70,1
752,464	70,19
752,896	69,6
753,327	70,45
753,758	70,13
754,19	70,03
754,621	70,41
755,052	70,09
755,483	70,01
755,914	69,41
756,344	69,8
756,775	69,62
757,206	69,37
757,636	69,79
758,066	69,55
758,497	69,54
758,927	69,64
759,357	70,24
759,787	69,71
760,217	69,57
760,647	69,4
761,076	69,29
761,506	69,57
761,935	69,49
762,365	69,11
762,794	69,12
763,223	68,64
763,653	69,27
764,082	69,59
764,51	69,68
764,939	69,48
765,368	68,92
765,797	69,49
766,225	68,87
766,654	68,55
767,082	68,84
767,51	69,08
767,938	68,5
768,367	69,55
768,795	69,07
769,222	68,69
769,65	68,5
770,078	69,28
770,505	68,57
770,933	68,48
771,36	68,7
771,788	69,11
772,215	68,73
772,642	68,51
773,069	68,37
773,496	68,67
773,923	68,24
774,349	68,39
774,776	68,93
775,203	68,79
775,629	68,48
776,055	68,68
776,482	68,73
776,908	68,62
777,334	68,08
777,76	68,46
778,186	68,43
778,611	68,29
779,037	68,33
779,463	68,58
779,888	68,15
780,314	67,86
780,739	68,29
781,164	68,29
781,589	68,35
782,014	67,58
782,439	67,79
782,864	68,11
783,289	68,08
783,713	67,71
784,138	68,58
784,562	67,79
784,987	68,1
785,411	67,72
785,835	68,1
786,259	68,12
786,683	67,96
787,107	67,61
787,531	67,87
787,954	67,96
788,378	68,42
788,802	67,81
789,225	67,95
789,648	67,89
790,071	68,18
790,495	68,06
790,918	67,9
791,34	68,08
791,763	67,33
792,186	68,04
792,609	67,8
793,031	67,83
793,454	67,88
793,876	68,39
794,298	68,06
794,721	67,96
795,143	67,81
795,565	67,91
795,986	67,91
796,408	67,88
796,83	68,01
797,252	67,47
797,673	67,23
798,094	68,01
798,516	67,92
798,937	67,4
799,358	67,77
799,779	68,23
800,2	67,83
800,621	67,68
801,042	67,76
801,462	67,64
801,883	67,31
802,303	67,46
802,724	67,91
803,144	68,01
803,564	67,98
803,984	67,88
804,404	67,42
804,824	67,49
805,244	67,92
805,664	67,41
806,084	67,29
806,503	67,65
806,923	67,31
807,342	67,89
807,761	68,01
808,18	68,05
808,599	67,63
809,018	67,87
809,437	67,94
809,856	67,27
810,275	67,84
810,693	67,76
811,112	67,72
811,53	67,49
811,949	67,92
812,367	67,94
812,785	67,19
813,203	67,21
813,621	67,35
814,039	67,78
814,457	67,95
814,874	67,21
815,292	67,64
815,709	66,51
816,127	67,57
816,544	66,82
816,961	67,41
817,378	68,02
817,795	66,95
818,212	67,94
818,629	67,81
819,046	67,26
819,462	67,85
819,879	67,43
820,295	67,5
820,712	67,54
821,128	67,44
821,544	67,35
821,96	67,17
822,376	67,85
822,792	67,44
823,208	67,24
823,624	67,52
824,039	67,76
824,455	67,58
824,87	66,97
825,286	67,39
825,701	67,11
826,116	67,36
826,531	67,54
826,946	67,62
827,361	67,47
827,776	67,35
828,19	67,59
828,605	66,96
829,02	67,32
829,434	67,13
829,848	67,74
830,263	67,46
830,677	67,36
831,091	67,07
831,505	67,21
831,919	67,46
832,332	67,27
832,746	67,19
833,16	67,34
833,573	66,85
833,987	66,88
834,4	67,32
