Data from E_6_Relative__4__00109.txt Node

Date: Tue Jan 30 10:06:20 CET 2024
User: diatiterra
Spectrometer: HDX00911
Trigger mode: 0
Integration Time (sec): 6,000000E-3
Scans to average: 2
Nonlinearity correction enabled: false
Boxcar width: 0
Storing dark spectrum: false
XAxis mode: Wavelengths
Number of Pixels in Spectrum: 2068
>>>>>Begin Spectral Data<<<<<
194,468	93,37
195,025	95,16
195,581	88,64
196,138	78,34
196,694	83,08
197,251	80,62
197,807	76,67
198,363	68,85
198,919	85,11
199,474	80,93
200,03	73,23
200,586	69,6
201,141	75,63
201,696	72,27
202,251	82,59
202,806	71,91
203,361	81,3
203,916	76,76
204,471	83,17
205,025	74,06
205,58	71,89
206,134	70,52
206,688	70,82
207,242	88,29
207,796	69,92
208,35	87,67
208,904	78,23
209,457	75,58
210,011	78,17
210,564	69,82
211,117	90,21
211,67	76,52
212,223	75,3
212,776	88,98
213,329	76,37
213,881	82,25
214,434	75
214,986	74,11
215,538	79,53
216,09	73,9
216,642	86,36
217,194	88,52
217,746	73,71
218,297	78,99
218,849	76,05
219,4	75,76
219,951	84,07
220,502	77,43
221,053	79,66
221,604	81,5
222,155	75
222,705	77,02
223,256	74,91
223,806	76,25
224,356	87,25
224,906	85,46
225,456	73,11
226,006	79,46
226,556	80,09
227,106	78,84
227,655	79,53
228,204	92,31
228,754	74,68
229,303	78,83
229,852	79,04
230,401	84,75
230,949	65,6
231,498	75,45
232,047	72,95
232,595	69,08
233,143	86,4
233,691	69,26
234,239	72,9
234,787	79,82
235,335	71,86
235,883	79,73
236,43	74,15
236,978	76,52
237,525	74,47
238,072	70,04
238,619	66,82
239,166	78,88
239,713	78,48
240,26	74,19
240,806	76,72
241,353	70,51
241,899	74,9
242,445	71,97
242,991	75
243,537	71,86
244,083	78,73
244,629	74,01
245,174	80,85
245,72	73,36
246,265	78,73
246,81	83,56
247,355	73,36
247,9	77,5
248,445	66,67
248,99	70,64
249,534	74,72
250,079	79,63
250,623	77,88
251,168	78,37
251,712	72,93
252,256	68,6
252,8	87,17
253,343	76,92
253,887	78,35
254,43	72,59
254,974	72
255,517	79,33
256,06	73
256,603	84,36
257,146	73,08
257,689	72,46
258,232	71,49
258,774	76,21
259,317	83,19
259,859	83,81
260,401	79,91
260,943	78,84
261,485	75,45
262,027	69,79
262,569	75,46
263,11	70,8
263,652	80,09
264,193	81,86
264,734	81,94
265,275	79,83
265,816	69,23
266,357	71,37
266,898	78,63
267,438	74,04
267,979	71,12
268,519	78,37
269,059	70,36
269,6	82,74
270,14	78,88
270,68	75
271,219	77,83
271,759	75,98
272,298	72
272,838	70,52
273,377	87,39
273,916	78,99
274,455	73,08
274,994	82,95
275,533	68,06
276,072	80
276,61	85,09
277,149	74,58
277,687	80,93
278,225	69,96
278,763	74,81
279,301	79,59
279,839	77,46
280,377	73,88
280,914	74,07
281,452	77,24
281,989	77,69
282,526	67,92
283,064	75,86
283,601	72,5
284,137	72,89
284,674	73,22
285,211	68,12
285,747	83,07
286,284	80,17
286,82	80,65
287,356	79,11
287,892	69,14
288,428	71,67
288,964	78,84
289,5	72,09
290,035	79,25
290,571	79,38
291,106	71,95
291,641	65,07
292,176	64,8
292,711	75
293,246	74,71
293,781	72,61
294,315	70,7
294,85	70,52
295,384	77,83
295,918	70,4
296,453	70,45
296,987	69,92
297,52	77,83
298,054	75,11
298,588	72
299,121	74,32
299,655	72,64
300,188	72,03
300,721	73,66
301,254	73,54
301,787	80,26
302,32	69,66
302,853	77,87
303,385	64,71
303,918	78,67
304,45	75,98
304,982	74,4
305,514	80,08
306,046	83,19
306,578	75,52
307,11	72,73
307,641	71,85
308,173	78,7
308,704	76,42
309,236	69,57
309,767	66,67
310,298	72,4
310,829	75,19
311,359	73,89
311,89	74,23
312,421	64,49
312,951	71,97
313,481	81,52
314,012	67,83
314,542	75,23
315,072	69,53
315,601	70,56
316,131	81,97
316,661	69,5
317,19	73,06
317,72	66,95
318,249	72,94
318,778	79,42
319,307	72,98
319,836	67,6
320,365	73,19
320,893	76,38
321,422	78,92
321,95	73,48
322,479	69,48
323,007	72,91
323,535	75,85
324,063	75,1
324,591	76,63
325,118	68,83
325,646	76,72
326,173	73,66
326,701	61,75
327,228	76,33
327,755	73,81
328,282	74,55
328,809	72,37
329,336	78,72
329,862	69,34
330,389	78,41
330,915	69,77
331,441	84,39
331,968	67,73
332,494	78,67
333,02	75,31
333,545	76,11
334,071	80,25
334,597	74,79
335,122	77,03
335,648	72,8
336,173	79,66
336,698	80,26
337,223	76,53
337,748	70,98
338,272	78,11
338,797	79,68
339,322	76,92
339,846	71,49
340,37	80,79
340,894	76,79
341,419	79,44
341,942	72,09
342,466	72,12
342,99	74,9
343,514	78,14
344,037	69,17
344,56	68,53
345,084	67,8
345,607	71,7
346,13	67,74
346,653	61,62
347,175	72,46
347,698	69,6
348,221	71,66
348,743	82,26
349,265	70,2
349,787	69,69
350,309	70,8
350,831	65,85
351,353	62,04
351,875	67,4
352,397	61,69
352,918	70,52
353,439	64,54
353,961	66,43
354,482	69,8
355,003	62,15
355,524	72,64
356,044	68,73
356,565	69,44
357,086	65,58
357,606	59,67
358,126	66,22
358,646	60
359,167	70,43
359,687	67,99
360,206	65,18
360,726	65,62
361,246	63,47
361,765	59,55
362,285	58,72
362,804	59,45
363,323	60,06
363,842	67,99
364,361	62,85
364,88	62,46
365,398	58,91
365,917	56,51
366,435	60,61
366,954	63,53
367,472	60,66
367,99	57,22
368,508	64,85
369,026	62,32
369,544	63,77
370,061	55,5
370,579	61,05
371,096	60,21
371,613	55,5
372,131	60,31
372,648	58,88
373,165	59,89
373,681	54,97
374,198	59,24
374,715	55,15
375,231	60
375,747	51,85
376,264	53,64
376,78	51,9
377,296	54,52
377,812	51,12
378,327	53,99
378,843	54,68
379,359	50,88
379,874	49,06
380,389	49,09
380,905	52,23
381,42	48,57
381,935	54,53
382,449	52,34
382,964	49,72
383,479	49,69
383,993	50,2
384,508	47,31
385,022	49,72
385,536	46,47
386,05	47,87
386,564	45,44
387,078	50,79
387,592	47,87
388,105	47,35
388,619	42,49
389,132	49,08
389,645	42,09
390,158	43,15
390,671	45,96
391,184	44,92
391,697	42,11
392,21	39,38
392,722	41,23
393,235	39,84
393,747	42,42
394,259	40,15
394,771	40,23
395,283	37,78
395,795	38,13
396,307	39,34
396,818	37,29
397,33	41,56
397,841	33,03
398,353	37,55
398,864	34,81
399,375	36,11
399,886	32,12
400,397	35,71
400,907	32,63
401,418	33,3
401,928	34,33
402,439	32,02
402,949	30,79
403,459	31,69
403,969	30,12
404,479	30,43
404,989	30,28
405,498	27,09
406,008	28,15
406,517	28,81
407,027	24,9
407,536	27,12
408,045	26,26
408,554	22,6
409,063	23,04
409,572	21,09
410,08	21,86
410,589	21,77
411,097	20,5
411,606	20,38
412,114	18,03
412,622	17,65
413,13	17,38
413,638	17,69
414,145	18,37
414,653	15,74
415,16	16,01
415,668	16,46
416,175	15,74
416,682	16,18
417,189	15,17
417,696	15,09
418,203	15,66
418,71	14,46
419,216	13,86
419,723	15,36
420,229	14,22
420,735	14,1
421,242	13,87
421,748	13,37
422,254	14,45
422,759	12,86
423,265	11,87
423,771	12,25
424,276	12,51
424,781	12,12
425,287	11,85
425,792	12,01
426,297	11,91
426,802	11,63
427,306	12,35
427,811	11,8
428,316	12,42
428,82	11,79
429,324	10,64
429,829	11,05
430,333	11,13
430,837	11,72
431,34	11,67
431,844	11,06
432,348	11,5
432,851	10,98
433,355	10,55
433,858	11,63
434,361	10,75
434,864	10,91
435,367	11,46
435,87	10,51
436,373	10,84
436,876	10,68
437,378	10,29
437,88	10,99
438,383	10,06
438,885	10,3
439,387	10,24
439,889	10,25
440,391	9,98
440,892	11,07
441,394	10,5
441,896	9,87
442,397	10,55
442,898	9,84
443,399	9,99
443,9	10,89
444,401	10,4
444,902	10,03
445,403	10,37
445,903	10,71
446,404	10,3
446,904	10,64
447,405	10,57
447,905	10,36
448,405	10,44
448,905	10,11
449,404	9,55
449,904	10,32
450,404	10,33
450,903	10,5
451,403	10,1
451,902	10,57
452,401	10,61
452,9	10,25
453,399	10,37
453,898	9,98
454,396	10,54
454,895	10,45
455,393	10,07
455,892	10,4
456,39	10,12
456,888	10,87
457,386	9,85
457,884	10,28
458,382	10,85
458,879	10,81
459,377	10,55
459,874	10,19
460,372	10,45
460,869	10,21
461,366	10,23
461,863	10,81
462,36	10,21
462,857	10,15
463,353	10,55
463,85	10,4
464,346	10,46
464,843	10,45
465,339	10,35
465,835	10,58
466,331	9,87
466,827	10,19
467,323	10,5
467,818	10,21
468,314	10,23
468,809	10
469,305	9,78
469,8	10,4
470,295	10,16
470,79	10,11
471,285	10,12
471,78	10,01
472,274	10,09
472,769	10,54
473,263	10,11
473,758	10,55
474,252	9,96
474,746	9,76
475,24	10,24
475,734	9,95
476,228	10,01
476,721	10,26
477,215	9,78
477,708	10,18
478,202	10,27
478,695	9,97
479,188	10,42
479,681	10,24
480,174	9,84
480,667	10,38
481,159	10,42
481,652	10,54
482,144	10,45
482,637	10,25
483,129	10,36
483,621	10,17
484,113	10,23
484,605	10,41
485,097	10,51
485,588	10,3
486,08	10,45
486,571	10,05
487,063	10,64
487,554	10,52
488,045	10,38
488,536	10,05
489,027	10,64
489,518	10,42
490,008	10,61
490,499	10,92
490,989	10,53
491,48	10,42
491,97	10,47
492,46	10,76
492,95	10,59
493,44	10,75
493,93	10,82
494,419	10,97
494,909	10,68
495,398	11,05
495,888	11,15
496,377	10,95
496,866	11,2
497,355	11,48
497,844	11,11
498,333	11,02
498,821	11,63
499,31	11,48
499,798	11,98
500,287	11,93
500,775	11,36
501,263	12,24
501,751	11,62
502,239	12,08
502,727	12,54
503,215	12,52
503,702	12,22
504,19	12,58
504,677	12,4
505,164	12,73
505,651	13,55
506,139	13,43
506,625	13,35
507,112	13,49
507,599	13,85
508,086	14,26
508,572	14,45
509,058	14,07
509,545	14,97
510,031	15,18
510,517	15,1
511,003	15,28
511,489	15,41
511,974	15,62
512,46	16,58
512,946	16,34
513,431	16,52
513,916	17,01
514,401	17,65
514,887	17,73
515,371	17,83
515,856	17,96
516,341	18,85
516,826	18,86
517,31	19,57
517,795	20,05
518,279	19,72
518,763	20,59
519,247	20,89
519,731	20,66
520,215	21,28
520,699	21,58
521,182	22,72
521,666	22,63
522,149	23,16
522,633	23,63
523,116	23,79
523,599	24,09
524,082	24,35
524,565	24,86
525,048	25,15
525,53	25,64
526,013	25,36
526,495	26,28
526,978	26,48
527,46	27,36
527,942	27,43
528,424	27,9
528,906	27,61
529,388	27,68
529,87	28,11
530,351	28,2
530,833	29,04
531,314	29,1
531,795	29,21
532,277	29,31
532,758	29,01
533,238	29,96
533,719	30,79
534,2	30,41
534,681	30,3
535,161	30,6
535,642	30,08
536,122	30,92
536,602	30,66
537,082	30,59
537,562	30,7
538,042	30,42
538,522	30,73
539,001	30,97
539,481	30,87
539,96	31,63
540,44	31,11
540,919	31,31
541,398	31,26
541,877	31,42
542,356	31,65
542,835	31,78
543,313	31,39
543,792	31,95
544,27	31,95
544,749	32,26
545,227	31,9
545,705	32,13
546,183	32,08
546,661	31,76
547,139	31,6
547,616	32,42
548,094	32,56
548,571	32,16
549,049	32,71
549,526	32,69
550,003	32,33
550,48	33,14
550,957	32,78
551,434	32,54
551,911	32,99
552,387	32,61
552,864	32,23
553,34	33,04
553,817	32,72
554,293	32,46
554,769	32,81
555,245	32,86
555,721	32,54
556,197	32,42
556,672	32,27
557,148	32,38
557,623	32,42
558,099	32,77
558,574	32,55
559,049	31,94
559,524	32,12
559,999	31,74
560,474	32,11
560,948	31,53
561,423	31,9
561,897	31,16
562,372	31,94
562,846	31,08
563,32	31,32
563,794	31,18
564,268	31,07
564,742	31,23
565,216	30,68
565,69	29,9
566,163	30,75
566,636	29,42
567,11	30,28
567,583	29,96
568,056	29,43
568,529	29,62
569,002	29,06
569,475	28,97
569,947	28,62
570,42	28,49
570,892	28,24
571,365	27,89
571,837	27,71
572,309	27,66
572,781	27,59
573,253	27,05
573,725	26,73
574,197	26,38
574,668	26,84
575,14	26,27
575,611	26,33
576,082	25,77
576,554	25,79
577,025	25,29
577,496	25,23
577,967	25,27
578,437	24,84
578,908	25,25
579,379	24,63
579,849	24,23
580,319	24,43
580,79	23,68
581,26	23,72
581,73	23,9
582,2	23,59
582,669	23,68
583,139	23,21
583,609	23,01
584,078	23,59
584,548	23,25
585,017	23,3
585,486	22,67
585,955	22,38
586,424	22,47
586,893	22,55
587,362	22,55
587,83	22,32
588,299	22,22
588,767	21,99
589,236	22,1
589,704	21,96
590,172	21,61
590,64	21,63
591,108	21,56
591,576	21,61
592,043	21,34
592,511	21,46
592,978	21,48
593,446	21,47
593,913	21,05
594,38	21,51
594,847	21,09
595,314	21,04
595,781	21,08
596,248	21
596,715	21,06
597,181	20,63
597,647	21,05
598,114	20,66
598,58	20,77
599,046	21,08
599,512	20,34
599,978	20,3
600,444	21,15
600,91	20,67
601,375	20,43
601,841	20,49
602,306	20,37
602,771	20,3
603,236	20,23
603,702	20,07
604,167	20,13
604,631	20,35
605,096	19,92
605,561	19,77
606,025	19,67
606,49	19,37
606,954	19,74
607,418	19,5
607,882	19,23
608,347	19,44
608,81	19,33
609,274	19,22
609,738	19,15
610,202	18,87
610,665	19,03
611,128	18,35
611,592	18,48
612,055	18,42
612,518	18,49
612,981	18,19
613,444	17,96
613,907	18,02
614,369	17,74
614,832	17,73
615,294	17,73
615,757	17,55
616,219	17,3
616,681	17,56
617,143	17,47
617,605	16,96
618,067	17,08
618,529	17,08
618,99	16,62
619,452	16,93
619,913	16,75
620,375	16,84
620,836	16,58
621,297	16,5
621,758	16,53
622,219	16,33
622,68	16,37
623,14	16,26
623,601	16,27
624,061	16,24
624,522	16,18
624,982	16,04
625,442	16,07
625,902	15,97
626,362	16,05
626,822	15,87
627,282	16,3
627,742	15,93
628,201	16,07
628,661	15,98
629,12	16,02
629,579	15,89
630,038	16,05
630,497	15,79
630,956	15,73
631,415	15,65
631,874	15,92
632,332	15,7
632,791	15,68
633,249	15,5
633,708	15,54
634,166	15,3
634,624	15,54
635,082	15,35
635,54	15,42
635,998	15,18
636,455	15,22
636,913	15,07
637,37	14,94
637,828	14,79
638,285	14,57
638,742	14,94
639,199	14,29
639,656	14,26
640,113	14,32
640,57	13,91
641,027	13,93
641,483	13,83
641,94	13,8
642,396	13,83
642,852	13,54
643,309	13,43
643,765	13,24
644,221	13,06
644,676	12,94
645,132	13,07
645,588	12,98
646,043	12,76
646,499	12,5
646,954	12,39
647,409	12,3
647,864	12,19
648,319	12,37
648,774	11,96
649,229	11,97
649,684	11,83
650,139	11,72
650,593	11,59
651,047	11,41
651,502	11,48
651,956	11,57
652,41	11,37
652,864	11,4
653,318	11,38
653,772	11,24
654,225	11,13
654,679	11,12
655,133	11,04
655,586	10,89
656,039	10,72
656,492	10,98
656,946	10,94
657,399	10,76
657,851	10,76
658,304	10,72
658,757	10,55
659,209	10,63
659,662	10,32
660,114	10,3
660,567	10,25
661,019	10,18
661,471	10,21
661,923	9,8
662,375	9,82
662,826	9,68
663,278	9,67
663,73	9,73
664,181	9,8
664,632	9,73
665,084	9,67
665,535	9,54
665,986	9,54
666,437	9,53
666,888	9,47
667,338	9,51
667,789	9,32
668,24	9,49
668,69	9,58
669,14	9,45
669,591	9,45
670,041	9,38
670,491	9,49
670,941	9,48
671,391	9,38
671,84	9,54
672,29	9,64
672,74	9,47
673,189	9,65
673,638	9,62
674,088	9,87
674,537	10
674,986	9,99
675,435	10,09
675,883	10,21
676,332	10,07
676,781	10,32
677,229	10,29
677,678	10,53
678,126	10,54
678,574	10,67
679,022	10,79
679,47	11,07
679,918	11,13
680,366	11,16
680,814	11
681,261	11,32
681,709	11,36
682,156	11,52
682,604	11,51
683,051	11,64
683,498	11,83
683,945	11,96
684,392	11,96
684,839	12,27
685,286	12,31
685,732	12,62
686,179	12,69
686,625	12,93
687,071	13,05
687,518	13,14
687,964	13,34
688,41	13,64
688,856	13,93
689,301	14,12
689,747	14,67
690,193	15,09
690,638	15,53
691,084	15,51
691,529	16,3
691,974	16,71
692,419	17,15
692,864	17,49
693,309	18,25
693,754	18,79
694,199	19,34
694,643	19,77
695,088	20,25
695,532	21,12
695,977	21,73
696,421	22,45
696,865	23,16
697,309	23,64
697,753	24,4
698,197	25,2
698,64	25,97
699,084	26,95
699,527	27,49
699,971	28,23
700,414	29,02
700,857	29,27
701,3	30,35
701,743	30,57
702,186	31,6
702,629	32,11
703,072	33,12
703,515	33,72
703,957	34,48
704,399	34,78
704,842	35,53
705,284	36,16
705,726	36,75
706,168	37,68
706,61	38
707,052	38,31
707,494	39,22
707,935	39,91
708,377	40,63
708,818	40,7
709,26	41,67
709,701	42,26
710,142	42,72
710,583	43,15
711,024	43,94
711,465	44,57
711,905	44,97
712,346	45,12
712,787	45,78
713,227	46,8
713,667	47,23
714,108	47,24
714,548	48,49
714,988	48,67
715,428	49,04
715,868	49,57
716,307	49,91
716,747	50,58
717,186	51,19
717,626	51,66
718,065	51,99
718,504	52,34
718,944	51,89
719,383	52,99
719,822	53,3
720,261	53,69
720,699	54,39
721,138	55,01
721,576	55,11
722,015	55,63
722,453	55,71
722,892	56,56
723,33	56,38
723,768	57,06
724,206	57
724,644	57,21
725,081	57,08
725,519	58,16
725,957	58,14
726,394	58,39
726,832	58,64
727,269	59,32
727,706	59,75
728,143	59,96
728,58	60,17
729,017	60,77
729,454	60,47
729,89	60,34
730,327	61
730,764	60,94
731,2	61,4
731,636	61,05
732,072	61,47
732,509	61,86
732,945	61,81
733,38	61,93
733,816	62,44
734,252	62,55
734,688	62,17
735,123	62,24
735,559	62,25
735,994	62,8
736,429	62,65
736,864	63,08
737,299	63,21
737,734	63,04
738,169	63,57
738,604	63,32
739,038	63,46
739,473	64,03
739,907	63,49
740,342	64,16
740,776	63,67
741,21	63,55
741,644	64,51
742,078	64,01
742,512	64,1
742,946	63,92
743,379	63,85
743,813	64,54
744,246	64,24
744,68	64,5
745,113	64,21
745,546	63,86
745,979	64,03
746,412	64,17
746,845	64,17
747,278	64,57
747,711	64,01
748,143	64,43
748,576	64,31
749,008	63,52
749,441	63,81
749,873	64,36
750,305	63,95
750,737	63,89
751,169	64,38
751,601	64,09
752,032	64,17
752,464	64,31
752,896	63,95
753,327	64,38
753,758	64
754,19	64,41
754,621	64,59
755,052	63,98
755,483	63,69
755,914	63,59
756,344	64,08
756,775	63,72
757,206	63,75
757,636	63,54
758,066	63,77
758,497	63,74
758,927	63,48
759,357	63,99
759,787	64,07
760,217	63,8
760,647	63,2
761,076	63,59
761,506	63,62
761,935	63,75
762,365	63,46
762,794	63,54
763,223	62,7
763,653	63,52
764,082	63,44
764,51	63,06
764,939	63,69
765,368	63,61
765,797	63,86
766,225	62,91
766,654	63,17
767,082	63,12
767,51	63,26
767,938	63,06
768,367	63,16
768,795	62,92
769,222	62,68
769,65	62,77
770,078	63,35
770,505	63,3
770,933	62,62
771,36	62,62
771,788	62,86
772,215	62,9
772,642	62,58
773,069	62,85
773,496	62,54
773,923	62,88
774,349	62,78
774,776	63,5
775,203	63,45
775,629	62,89
776,055	62,9
776,482	62,78
776,908	62,71
777,334	62,28
777,76	62,76
778,186	62,33
778,611	63,03
779,037	62,62
779,463	62,85
779,888	62,8
780,314	62,35
780,739	62,36
781,164	62,74
781,589	62,17
782,014	62,09
782,439	62,4
782,864	62,35
783,289	62,99
783,713	62,12
784,138	62,74
784,562	62,5
784,987	62,32
785,411	61,85
785,835	62,43
786,259	62,32
786,683	62,49
787,107	62,45
787,531	62,46
787,954	62,32
788,378	62,75
788,802	62,53
789,225	62,54
789,648	62,13
790,071	62,24
790,495	62,35
790,918	62,33
791,34	62
791,763	62,05
792,186	62,1
792,609	61,8
793,031	61,86
793,454	62,24
793,876	62,38
794,298	62,47
794,721	62,19
795,143	61,96
795,565	62,64
795,986	62,01
796,408	62,28
796,83	62,5
797,252	61,93
797,673	62,15
798,094	62,37
798,516	62,27
798,937	62,15
799,358	62,63
799,779	61,98
800,2	61,87
800,621	61,92
801,042	62,46
801,462	62,35
801,883	61,78
802,303	62,06
802,724	62
803,144	62,76
803,564	62,53
803,984	62,28
804,404	61,74
804,824	61,8
805,244	62,28
805,664	62,52
806,084	61,86
806,503	61,87
806,923	61,86
807,342	62,37
807,761	61,78
808,18	62,37
808,599	62,51
809,018	62
809,437	62,05
809,856	61,83
810,275	63,1
810,693	61,99
811,112	61,89
811,53	62,07
811,949	62,06
812,367	61,89
812,785	61,95
813,203	61,46
813,621	61,88
814,039	62,39
814,457	62,1
814,874	61,79
815,292	61,74
815,709	61,7
816,127	61,91
816,544	61,17
816,961	62,14
817,378	61,72
817,795	61,73
818,212	61,61
818,629	61,98
819,046	62,03
819,462	62,52
819,879	61,79
820,295	61,97
820,712	61,71
821,128	62,1
821,544	61,62
821,96	62
822,376	62,18
822,792	61,38
823,208	62,11
823,624	61,78
824,039	61,61
824,455	61,88
824,87	61,78
825,286	61,7
825,701	61,63
826,116	62,07
826,531	61,64
826,946	61,67
827,361	61,69
827,776	61,9
828,19	61,81
828,605	61,51
829,02	61,43
829,434	61,29
829,848	61,4
830,263	61,96
830,677	61,38
831,091	61,51
831,505	61,5
831,919	61,75
832,332	61,21
832,746	61,78
833,16	61,22
833,573	61,25
833,987	60,89
834,4	61,33
834,813	61,07
835,226	61,42
835,639	61,51
836,052	62,18
