Data from E_6_Relative__8__00113.txt Node

Date: Tue Jan 30 10:06:38 CET 2024
User: diatiterra
Spectrometer: HDX00911
Trigger mode: 0
Integration Time (sec): 6,000000E-3
Scans to average: 2
Nonlinearity correction enabled: false
Boxcar width: 0
Storing dark spectrum: false
XAxis mode: Wavelengths
Number of Pixels in Spectrum: 2068
>>>>>Begin Spectral Data<<<<<
194,468	88,95
195,025	95,97
195,581	96,97
196,138	85,99
196,694	87,06
197,251	74,89
197,807	74,17
198,363	71,72
198,919	79,57
199,474	72,03
200,03	68,9
200,586	79,3
201,141	70,59
201,696	71,43
202,251	68,66
202,806	64,26
203,361	73,58
203,916	77,18
204,471	85,64
205,025	67,36
205,58	77,42
206,134	69,32
206,688	73,82
207,242	82,88
207,796	70,76
208,35	89,95
208,904	77,42
209,457	70,93
210,011	82,97
210,564	75,68
211,117	82,98
211,67	70,04
212,223	70,52
212,776	80,51
213,329	69,2
213,881	78,79
214,434	74,59
214,986	79,91
215,538	77,95
216,09	75,1
216,642	79,34
217,194	89,95
217,746	73,71
218,297	71,01
218,849	66,16
219,4	76,19
219,951	85,4
220,502	80,93
221,053	79,24
221,604	85,83
222,155	73,73
222,705	77,02
223,256	77,15
223,806	81,25
224,356	77,45
224,906	76,21
225,456	78,15
226,006	75
226,556	86,73
227,106	77,59
227,655	87,44
228,204	86,88
228,754	78,48
229,303	77,93
229,852	73,8
230,401	78,03
230,949	67,02
231,498	76,34
232,047	75,41
232,595	78,71
233,143	82,89
233,691	71,02
234,239	67,18
234,787	69,96
235,335	74,46
235,883	74,77
236,43	82,2
236,978	82,17
237,525	79,15
238,072	66,96
238,619	65,92
239,166	71,98
239,713	86,5
240,26	72,18
240,806	73,28
241,353	86,75
241,899	72,02
242,445	75,73
242,991	75,82
243,537	75,32
244,083	72,4
244,629	77,53
245,174	77,02
245,72	73,75
246,265	76,92
246,81	82,22
247,355	72,26
247,9	82,5
248,445	63,89
248,99	64,26
249,534	75,09
250,079	90,74
250,623	77,88
251,168	84,9
251,712	71,18
252,256	65,7
252,8	76,55
253,343	71,66
253,887	85,28
254,43	74,07
254,974	73,6
255,517	80,29
256,06	64,56
256,603	79,42
257,146	70,38
257,689	72,46
258,232	79,64
258,774	71,81
259,317	71,12
259,859	77,14
260,401	78,5
260,943	75,1
261,485	78,64
262,027	77,02
262,569	78,24
263,11	86,73
263,652	79,65
264,193	79,07
264,734	80,56
265,275	73,82
265,816	67,95
266,357	71,37
266,898	80,77
267,438	74,04
267,979	71,55
268,519	85,1
269,059	58,5
269,6	69,03
270,14	70,26
270,68	70,49
271,219	75,65
271,759	77,29
272,298	72,4
272,838	75,7
273,377	88,74
273,916	64,59
274,455	69,62
274,994	77,42
275,533	73,76
276,072	72,77
276,61	78,51
277,149	72,92
277,687	83,9
278,225	66,67
278,763	62,21
279,301	71,02
279,839	79,1
280,377	71,84
280,914	73,15
281,452	69,11
281,989	80,58
282,526	62,92
283,064	72,03
283,601	77,08
284,137	62,22
284,674	71,97
285,211	73,36
285,747	68,11
286,284	81,03
286,82	67,34
287,356	61,78
287,892	67,9
288,428	70,39
288,964	70,12
289,5	61,86
290,035	71,78
290,571	68,09
291,106	65,61
291,641	69,87
292,176	60,8
292,711	61,64
293,246	72,03
293,781	57,39
294,315	58,14
294,85	65,34
295,384	64,62
295,918	69,6
296,453	70,04
296,987	68,64
297,52	61,54
298,054	75,57
298,588	66
299,121	71,62
299,655	64,62
300,188	68,22
300,721	67,86
301,254	61,88
301,787	73,25
302,32	67,95
302,853	78,3
303,385	67,84
303,918	59,11
304,45	71,62
304,982	68,8
305,514	72,76
306,046	71,68
306,578	67,63
307,11	65,53
307,641	66,81
308,173	71,74
308,704	80,08
309,236	75,65
309,767	62,08
310,298	68
310,829	71,71
311,359	73,45
311,89	71,92
312,421	65,31
312,951	69,46
313,481	74,88
314,012	65,89
314,542	65,32
315,072	64,38
315,601	72,18
316,131	71,67
316,661	65,64
317,19	62,86
317,72	67,8
318,249	66,51
318,778	68,72
319,307	67,74
319,836	68,4
320,365	74,89
320,893	75,59
321,422	71,3
321,95	76,09
322,479	64,66
323,007	67,33
323,535	68,68
324,063	72,37
324,591	73,18
325,118	60,61
325,646	75
326,173	75,89
326,701	64,94
327,228	73,88
327,755	74,76
328,282	65
328,809	67,54
329,336	72,77
329,862	76,28
330,389	70,93
330,915	66,28
331,441	78,06
331,968	60,96
332,494	74,67
333,02	74,48
333,545	66,8
334,071	75,21
334,597	71,9
335,122	75,23
335,648	73,2
336,173	75,85
336,698	60,52
337,223	69,95
337,748	64,71
338,272	76,39
338,797	72,11
339,322	75,64
339,846	64,66
340,37	75,98
340,894	70,89
341,419	67,34
341,942	66,67
342,466	61,5
342,99	60,46
343,514	70,04
344,037	63,16
344,56	67,33
345,084	66,1
345,607	67,17
346,13	60,48
346,653	61,62
347,175	73,73
347,698	71,06
348,221	71,26
348,743	72,08
349,265	64,08
349,787	62,72
350,309	61,31
350,831	64,79
351,353	67,76
351,875	67,4
352,397	69,15
352,918	69,72
353,439	67,33
353,961	62,24
354,482	64,77
355,003	58,68
355,524	63,18
356,044	61,09
356,565	64,24
357,086	57,47
357,606	53,67
358,126	65,55
358,646	57,59
359,167	61,79
359,687	54,79
360,206	66,13
360,726	57,73
361,246	58,82
361,765	56,96
362,285	56,71
362,804	50,91
363,323	56,16
363,842	54,46
364,361	60,68
364,88	57,96
365,398	53,17
365,917	51,18
366,435	52,89
366,954	57,14
367,472	55,26
367,99	51,56
368,508	53,94
369,026	51,56
369,544	58,55
370,061	45,04
370,579	56,63
371,096	49,74
371,613	46,38
372,131	45,69
372,648	53,55
373,165	52,51
373,681	48,17
374,198	47,34
374,715	46,65
375,231	49,88
375,747	47,9
376,264	42,72
376,78	47,16
377,296	45
377,812	43,89
378,327	48,12
378,843	41,01
379,359	43,83
379,874	41,58
380,389	37,44
380,905	47,98
381,42	40,61
381,935	43,75
382,449	44,73
382,964	39,7
383,479	41,34
383,993	45
384,508	39,04
385,022	42,18
385,536	39,22
386,05	40,26
386,564	35,44
387,078	41,54
387,592	36,07
388,105	40,07
388,619	37,32
389,132	38,1
389,645	33,64
390,158	34,33
390,671	37
391,184	36,12
391,697	33,71
392,21	32,61
392,722	29,59
393,235	33,1
393,747	34,27
394,259	29,48
394,771	33,1
395,283	28,17
395,795	31,87
396,307	31,92
396,818	30,25
397,33	32,86
397,841	27,28
398,353	29,68
398,864	26,45
399,375	27,9
399,886	24,45
400,397	25,89
400,907	26,55
401,418	25,85
401,928	24,25
402,439	27,03
402,949	23,89
403,459	22,4
403,969	24,52
404,479	21,71
404,989	23,15
405,498	20,84
406,008	23,66
406,517	20,08
407,027	18,21
407,536	20,18
408,045	18,45
408,554	16,65
409,063	16,54
409,572	17,88
410,08	16,33
410,589	16,01
411,097	14,88
411,606	14,49
412,114	13,12
412,622	14,05
413,13	14,65
413,638	13,51
414,145	12,6
414,653	11,24
415,16	11,68
415,668	12,14
416,175	11,4
416,682	11,92
417,189	10,95
417,696	10,37
418,203	11,29
418,71	9,76
419,216	10,9
419,723	10,2
420,229	9,33
420,735	9,08
421,242	9,59
421,748	9,46
422,254	10,53
422,759	8,61
423,265	8,62
423,771	7,83
424,276	8,53
424,781	8,96
425,287	8,57
425,792	8,12
426,297	8,86
426,802	8,62
427,306	8,16
427,811	7,89
428,316	9,25
428,82	8,02
429,324	8,39
429,829	9,12
430,333	7,63
430,837	8,41
431,34	7,85
431,844	7,69
432,348	8,15
432,851	7,56
433,355	7,36
433,858	7,86
434,361	7,81
434,864	7,7
435,367	8,05
435,87	7,42
436,373	7,12
436,876	8,23
437,378	7,16
437,88	7,15
438,383	7,71
438,885	6,76
439,387	6,88
439,889	7,3
440,391	6,92
440,892	7,41
441,394	7,55
441,896	7,09
442,397	7,36
442,898	7,18
443,399	6,65
443,9	6,75
444,401	7,3
444,902	6,51
445,403	6,79
445,903	7,17
446,404	7,2
446,904	7,6
447,405	6,72
447,905	6,72
448,405	6,97
448,905	7,54
449,404	7,08
449,904	6,7
450,404	6,69
450,903	7,39
451,403	6,67
451,902	6,72
452,401	6,61
452,9	6,67
453,399	7,07
453,898	6,98
454,396	6,53
454,895	7,08
455,393	7,14
455,892	6,72
456,39	7,08
456,888	7,37
457,386	6,6
457,884	7,03
458,382	7,16
458,879	7,05
459,377	6,91
459,874	7,04
460,372	7,15
460,869	6,84
461,366	6,91
461,863	6,97
462,36	6,82
462,857	6,45
463,353	7,04
463,85	6,53
464,346	6,63
464,843	6,8
465,339	6,99
465,835	7,16
466,331	6,98
466,827	6,73
467,323	6,54
467,818	6,64
468,314	6,73
468,809	6,53
469,305	6,81
469,8	6,76
470,295	6,73
470,79	6,76
471,285	6,63
471,78	6,37
472,274	6,53
472,769	6,56
473,263	6,63
473,758	6,48
474,252	6,58
474,746	6,49
475,24	6,71
475,734	6,57
476,228	6,69
476,721	6,53
477,215	6,49
477,708	6,91
478,202	6,63
478,695	6,78
479,188	6,87
479,681	6,55
480,174	6,33
480,667	6,78
481,159	6,65
481,652	6,45
482,144	6,58
482,637	6,52
483,129	6,59
483,621	6,61
484,113	6,82
484,605	6,81
485,097	6,61
485,588	6,96
486,08	6,66
486,571	6,85
487,063	7,06
487,554	6,81
488,045	6,67
488,536	6,78
489,027	7,01
489,518	7,1
490,008	7,07
490,499	7,04
490,989	7,11
491,48	6,93
491,97	7,11
492,46	6,74
492,95	6,88
493,44	7,18
493,93	7,29
494,419	7,28
494,909	7,06
495,398	7,26
495,888	7,56
496,377	7,6
496,866	7,61
497,355	7,76
497,844	7,39
498,333	7,78
498,821	7,75
499,31	8,15
499,798	8,14
500,287	8,53
500,775	7,9
501,263	8,54
501,751	8,75
502,239	8,75
502,727	8,39
503,215	8,96
503,702	9,19
504,19	9,13
504,677	9,45
505,164	9,47
505,651	9,25
506,139	9,84
506,625	10,22
507,112	10,77
507,599	10,55
508,086	10,93
508,572	11,11
509,058	10,88
509,545	11,74
510,031	11,41
510,517	11,92
511,003	12,12
511,489	12,47
511,974	12,71
512,46	13,01
512,946	13,1
513,431	13,53
513,916	13,7
514,401	14,33
514,887	14,29
515,371	14,39
515,856	15,24
516,341	15,51
516,826	15,81
517,31	16,37
517,795	16,5
518,279	16,93
518,763	16,89
519,247	17,45
519,731	18,39
520,215	17,98
520,699	18,61
521,182	19,35
521,666	19,07
522,149	19,83
522,633	20,15
523,116	20,46
523,599	20,95
524,082	21,54
524,565	21,52
525,048	22,23
525,53	22,15
526,013	22,64
526,495	23,55
526,978	23,39
527,46	23,11
527,942	24,53
528,424	24,78
528,906	24,63
529,388	24,39
529,87	24,64
530,351	25,34
530,833	25,23
531,314	25,23
531,795	25,79
532,277	25,78
532,758	25,83
533,238	26,29
533,719	26,51
534,2	26,5
534,681	27,02
535,161	26,88
535,642	26,39
536,122	27,38
536,602	27,32
537,082	26,95
537,562	27,44
538,042	27,55
538,522	27,28
539,001	28,26
539,481	27,75
539,96	28,02
540,44	27,58
540,919	28,1
541,398	28,11
541,877	27,85
542,356	27,74
542,835	28,2
543,313	27,95
543,792	28,36
544,27	28,47
544,749	28,06
545,227	28,23
545,705	28,5
546,183	28,9
546,661	28,9
547,139	28,81
547,616	28,75
548,094	28,97
548,571	28,78
549,049	28,53
549,526	28,7
550,003	28,72
550,48	28,79
550,957	28,44
551,434	28,63
551,911	29,1
552,387	28,83
552,864	28,71
553,34	29,05
553,817	28,95
554,293	29,12
554,769	29,07
555,245	28,86
555,721	28,74
556,197	28,58
556,672	28,66
557,148	28,77
557,623	28,59
558,099	28,61
558,574	28,5
559,049	28,59
559,524	28,82
559,999	28,37
560,474	28,5
560,948	27,96
561,423	27,96
561,897	27,99
562,372	27,74
562,846	27,77
563,32	27,82
563,794	27,4
564,268	27,16
564,742	27,53
565,216	26,97
565,69	27,44
566,163	26,89
566,636	26,36
567,11	26,62
567,583	26,29
568,056	25,37
568,529	25,69
569,002	25,78
569,475	25,44
569,947	25,12
570,42	24,86
570,892	24,76
571,365	24,7
571,837	24,09
572,309	24,26
572,781	23,41
573,253	23,59
573,725	23,21
574,197	23,4
574,668	23,01
575,14	22,81
575,611	22,58
576,082	22,26
576,554	21,99
577,025	21,65
577,496	22,16
577,967	22,25
578,437	21,86
578,908	21,68
579,379	21,13
579,849	21,09
580,319	21,03
580,79	20,39
581,26	20,76
581,73	20,24
582,2	20,66
582,669	20,39
583,139	20,2
583,609	20,08
584,078	19,71
584,548	19,87
585,017	19,72
585,486	19,42
585,955	19,45
586,424	19,18
586,893	19,44
587,362	19,06
587,83	18,94
588,299	19,1
588,767	18,66
589,236	18,92
589,704	18,82
590,172	18,54
590,64	18,63
591,108	18,5
591,576	18,55
592,043	18,22
592,511	18,21
592,978	18,34
593,446	18,24
593,913	18,12
594,38	18,01
594,847	17,96
595,314	17,75
595,781	18,37
596,248	17,73
596,715	17,99
597,181	17,86
597,647	17,83
598,114	17,47
598,58	17,55
599,046	17,62
599,512	17,27
599,978	17,42
600,444	17,33
600,91	17,31
601,375	17,37
601,841	17,29
602,306	17,25
602,771	17,33
603,236	17,4
603,702	16,86
604,167	16,89
604,631	17,01
605,096	16,81
605,561	16,61
606,025	16,63
606,49	16,48
606,954	16,48
607,418	16,57
607,882	16,15
608,347	16,44
608,81	16,06
609,274	16,09
609,738	15,94
610,202	15,78
610,665	15,72
611,128	15,45
611,592	15,42
612,055	15,39
612,518	15,09
612,981	15,12
613,444	14,76
613,907	15,09
614,369	14,85
614,832	14,57
615,294	14,58
615,757	14,51
616,219	14,17
616,681	14,31
617,143	14,04
617,605	14,12
618,067	13,98
618,529	13,82
618,99	14,03
619,452	13,7
619,913	13,86
620,375	13,46
620,836	13,26
621,297	13,64
621,758	13,43
622,219	13,19
622,68	13,38
623,14	13,02
623,601	13,26
624,061	13,25
624,522	13,18
624,982	13,26
625,442	13,18
625,902	13,12
626,362	12,96
626,822	12,75
627,282	12,98
627,742	12,78
628,201	12,7
628,661	12,88
629,12	12,85
629,579	12,76
630,038	12,88
630,497	12,86
630,956	12,7
631,415	12,85
631,874	12,73
632,332	12,72
632,791	12,69
633,249	12,68
633,708	12,37
634,166	12,61
634,624	12,62
635,082	12,62
635,54	12,23
635,998	12
636,455	12,04
636,913	12,16
637,37	11,88
637,828	11,93
638,285	11,95
638,742	11,71
639,199	11,54
639,656	11,58
640,113	11,39
640,57	10,92
641,027	11,15
641,483	10,85
641,94	10,76
642,396	10,69
642,852	10,38
643,309	10,52
643,765	10,02
644,221	10,1
644,676	10,02
645,132	9,77
645,588	9,59
646,043	9,63
646,499	9,39
646,954	9,5
647,409	9,46
647,864	8,96
648,319	8,98
648,774	8,6
649,229	8,92
649,684	8,86
650,139	8,57
650,593	8,42
651,047	8,48
651,502	8,44
651,956	8,2
652,41	8,21
652,864	8,13
653,318	8,21
653,772	8,19
654,225	8,15
654,679	8,18
655,133	8,1
655,586	7,8
656,039	7,94
656,492	7,85
656,946	7,85
657,399	7,71
657,851	7,57
658,304	7,62
658,757	7,38
659,209	7,49
659,662	7,32
660,114	7,35
660,567	7,09
661,019	7,11
661,471	7,05
661,923	6,84
662,375	6,89
662,826	6,77
663,278	6,69
663,73	6,67
664,181	6,66
664,632	6,64
665,084	6,6
665,535	6,54
665,986	6,53
666,437	6,44
666,888	6,35
667,338	6,47
667,789	6,37
668,24	6,31
668,69	6,28
669,14	6,46
669,591	6,4
670,041	6,4
670,491	6,49
670,941	6,55
671,391	6,55
671,84	6,65
672,29	6,67
672,74	6,71
673,189	6,64
673,638	6,81
674,088	6,95
674,537	7,06
674,986	7,07
675,435	7,02
675,883	7,29
676,332	7,5
676,781	7,3
677,229	7,65
677,678	7,59
678,126	7,58
678,574	7,91
679,022	7,95
679,47	8,2
679,918	8,17
680,366	8,4
680,814	8,31
681,261	8,49
681,709	8,55
682,156	8,71
682,604	8,92
683,051	9,03
683,498	9,15
683,945	9,17
684,392	9,34
684,839	9,5
685,286	9,43
685,732	9,81
686,179	9,76
686,625	10
687,071	10,28
687,518	10,42
687,964	10,79
688,41	10,89
688,856	11,19
689,301	11,4
689,747	11,76
690,193	12,32
690,638	12,65
691,084	12,9
691,529	13,46
691,974	13,86
692,419	14,52
692,864	14,8
693,309	15,47
693,754	16,26
694,199	16,77
694,643	17,4
695,088	17,89
695,532	18,67
695,977	19,29
696,421	19,94
696,865	20,71
697,309	21,38
697,753	22,04
698,197	23
698,64	23,39
699,084	24,23
699,527	24,98
699,971	25,69
700,414	26,53
700,857	26,98
701,3	27,61
701,743	28,27
702,186	28,91
702,629	29,75
703,072	30,67
703,515	31,2
703,957	31,63
704,399	32,35
704,842	32,96
705,284	33,46
705,726	34,06
706,168	35,12
706,61	35,36
707,052	35,91
707,494	36,38
707,935	37,13
708,377	37,95
708,818	38,03
709,26	38,55
709,701	39,21
710,142	40,17
710,583	40,4
711,024	40,94
711,465	41,16
711,905	42,1
712,346	42,38
712,787	42,9
713,227	43,42
713,667	43,75
714,108	44,31
714,548	44,88
714,988	45,27
715,428	45,63
715,868	46,23
716,307	46,46
716,747	47,18
717,186	47,54
717,626	47,97
718,065	48,37
718,504	48,75
718,944	49,16
719,383	49,12
719,822	50,12
720,261	50,16
720,699	50,6
721,138	51,07
721,576	51,27
722,015	51,8
722,453	51,83
722,892	52,57
723,33	52,66
723,768	53,18
724,206	53,26
724,644	53,45
725,081	53,39
725,519	54,26
725,957	53,93
726,394	54,93
726,832	55,05
727,269	55,36
727,706	55,66
728,143	55,9
728,58	55,72
729,017	56,28
729,454	55,88
729,89	56,27
730,327	56,63
730,764	57,01
731,2	57,52
731,636	57,35
732,072	57,12
732,509	57,51
732,945	57,98
733,38	57,82
733,816	58,16
734,252	58,69
734,688	57,98
735,123	58,52
735,559	58,34
735,994	58,89
736,429	58,73
736,864	58,57
737,299	58,81
737,734	58,77
738,169	59,23
738,604	58,79
739,038	59,26
739,473	59,55
739,907	59,79
740,342	59,78
740,776	59,69
741,21	59,14
741,644	60,03
742,078	59,53
742,512	59,88
742,946	60,11
743,379	59,97
743,813	60,1
744,246	59,88
744,68	59,75
745,113	60,38
745,546	59,97
745,979	60,11
746,412	60,2
746,845	60,13
747,278	59,98
747,711	60,12
748,143	59,97
748,576	60,02
749,008	59,6
749,441	59,91
749,873	60,35
750,305	59,87
750,737	59,98
751,169	59,98
751,601	59,99
752,032	59,99
752,464	60,1
752,896	60,07
753,327	60,56
753,758	59,88
754,19	60,11
754,621	59,98
755,052	60,11
755,483	60,03
755,914	59,8
756,344	60,21
756,775	59,93
757,206	59,87
757,636	59,92
758,066	59,32
758,497	60,01
758,927	59,87
759,357	59,91
759,787	59,82
760,217	59,87
760,647	59,37
761,076	59,82
761,506	59,38
761,935	59,79
762,365	59,43
762,794	59,52
763,223	59,65
763,653	59,99
764,082	59,58
764,51	59,64
764,939	60,16
765,368	59,52
765,797	59,54
766,225	59,52
766,654	59,08
767,082	59,38
767,51	59,63
767,938	58,95
768,367	59,47
768,795	59,32
769,222	59,16
769,65	59,05
770,078	58,91
770,505	59,04
770,933	59,08
771,36	59,3
771,788	58,8
772,215	59,49
772,642	58,79
773,069	58,89
773,496	59,12
773,923	59,12
774,349	58,86
774,776	59,37
775,203	59,55
775,629	58,58
776,055	58,73
776,482	59,05
776,908	58,73
777,334	58,85
777,76	59,19
778,186	58,98
778,611	58,96
779,037	58,73
779,463	59,51
779,888	58,38
780,314	58,86
780,739	58,47
781,164	58,61
781,589	58,89
782,014	58,52
782,439	58,49
782,864	58,62
783,289	59,08
783,713	58,23
784,138	59,35
784,562	58,86
784,987	58,97
785,411	58,65
785,835	59,03
786,259	58,99
786,683	58,74
787,107	58,7
787,531	58,74
787,954	58,25
788,378	58,86
788,802	58,42
789,225	58,37
789,648	58,42
790,071	59,08
790,495	58,54
790,918	58,28
791,34	58,44
791,763	58,48
792,186	58,63
792,609	58,67
793,031	58,26
793,454	59,19
793,876	58,76
794,298	58,82
794,721	58,98
795,143	58,29
795,565	58,99
795,986	58,61
796,408	58,37
796,83	58,64
797,252	58,49
797,673	58,19
798,094	58,83
798,516	58,36
798,937	58,56
799,358	58,48
799,779	58,73
800,2	58,68
800,621	58,75
801,042	58,43
801,462	58,35
801,883	58,51
802,303	57,92
802,724	58,7
803,144	58,83
803,564	58,69
803,984	58,72
804,404	58,37
804,824	58,63
805,244	58,61
805,664	58,44
806,084	58,14
806,503	58,41
806,923	58,16
807,342	59,05
807,761	58,57
808,18	58,47
808,599	58,76
809,018	58,64
809,437	58,27
809,856	58,13
810,275	58,79
810,693	58,72
811,112	58,8
811,53	58,92
811,949	58,85
812,367	58,64
812,785	58,38
813,203	58,33
813,621	58,56
814,039	59,08
814,457	58,33
814,874	58,03
815,292	58,08
815,709	58,3
816,127	58,25
816,544	58,15
816,961	58,46
817,378	58,33
817,795	58,19
818,212	58,57
818,629	58,23
819,046	58,42
819,462	58,85
819,879	58,86
820,295	58,71
820,712	58,22
821,128	58,73
821,544	58,74
821,96	58,46
822,376	58,77
822,792	58,39
823,208	58,03
823,624	58,58
824,039	58,14
824,455	58,49
824,87	58,24
825,286	58,33
825,701	58,09
826,116	58,46
826,531	58,84
826,946	57,92
827,361	58,24
827,776	58,55
828,19	58,31
828,605	57,95
829,02	58,28
829,434	58,21
829,848	58,7
830,263	58,03
830,677	58
831,091	58,25
831,505	58,06
831,919	58,18
832,332	57,92
832,746	58,25
833,16	58,29
833,573	58,25
833,987	57,52
834,4	58,18
834,813	58,06
835,226	58,18
835,639	58,47
836,052	58,39
836,465	58,31
836,878	58,43
837,29	57,68
837,703	58,76
838,116	58,56
838,528	58,65
838,94	58,09
839,352	58,56
839,765	58,35
840,177	58,18
840,589	58,31
841	58,49
