Data from E_6_Relative__6__00111.txt Node

Date: Tue Jan 30 10:06:27 CET 2024
User: diatiterra
Spectrometer: HDX00911
Trigger mode: 0
Integration Time (sec): 6,000000E-3
Scans to average: 2
Nonlinearity correction enabled: false
Boxcar width: 0
Storing dark spectrum: false
XAxis mode: Wavelengths
Number of Pixels in Spectrum: 2068
>>>>>Begin Spectral Data<<<<<
194,468	88,95
195,025	91,13
195,581	87,12
196,138	77,71
196,694	76,12
197,251	69,16
197,807	71,67
198,363	73,36
198,919	68,94
199,474	74,15
200,03	68,9
200,586	64,32
201,141	67,23
201,696	73,53
202,251	64,18
202,806	75,32
203,361	78,05
203,916	73,03
204,471	77,23
205,025	70,29
205,58	66,36
206,134	66,93
206,688	66,52
207,242	68,02
207,796	70,34
208,35	79
208,904	71,37
209,457	73,26
210,011	72,93
210,564	77,48
211,117	78,3
211,67	64,37
212,223	68,53
212,776	77,12
213,329	72,15
213,881	75,32
214,434	72,95
214,986	77,68
215,538	74,8
216,09	72,69
216,642	76,45
217,194	84,69
217,746	73,31
218,297	78,15
218,849	69,96
219,4	73,16
219,951	72,57
220,502	72,76
221,053	80,93
221,604	73,62
222,155	69,49
222,705	71,06
223,256	70,04
223,806	72,08
224,356	69,61
224,906	80,62
225,456	71,85
226,006	70,09
226,556	72,57
227,106	79,67
227,655	77,67
228,204	88,69
228,754	75,53
229,303	79,73
229,852	79,48
230,401	73,09
230,949	67,38
231,498	69,64
232,047	72,95
232,595	65,86
233,143	77,19
233,691	66,78
234,239	62,21
234,787	75,78
235,335	74,89
235,883	80,63
236,43	78,39
236,978	76,52
237,525	77,45
238,072	68,28
238,619	63,68
239,166	62,5
239,713	73
240,26	69,35
240,806	72,84
241,353	79,06
241,899	67,08
242,445	76,15
242,991	65,98
243,537	77,06
244,083	69,23
244,629	68,28
245,174	74,89
245,72	63,32
246,265	76,02
246,81	79,11
247,355	66,06
247,9	75,83
248,445	67,06
248,99	67,23
249,534	70,19
250,079	82,41
250,623	70,35
251,168	71,02
251,712	57,64
252,256	62,81
252,8	82,3
253,343	65,59
253,887	66,23
254,43	72,22
254,974	68
255,517	68,27
256,06	62,87
256,603	68,72
257,146	66,15
257,689	73,73
258,232	76,92
258,774	72,69
259,317	72,84
259,859	67,14
260,401	80,37
260,943	74,27
261,485	65
262,027	69,36
262,569	72,22
263,11	77,43
263,652	61,5
264,193	71,16
264,734	69,44
265,275	67,81
265,816	64,96
266,357	65,56
266,898	70,51
267,438	69,36
267,979	63,36
268,519	74,04
269,059	60,08
269,6	73,01
270,14	68,53
270,68	61,48
271,219	80,87
271,759	74,24
272,298	63,6
272,838	65,74
273,377	78,38
273,916	67,32
274,455	61,54
274,994	66,36
275,533	63,88
276,072	77,02
276,61	73,25
277,149	74,17
277,687	71,19
278,225	65,02
278,763	67,94
279,301	68,57
279,839	77,87
280,377	65,71
280,914	67,59
281,452	73,58
281,989	80,17
282,526	66,67
283,064	65,13
283,601	76,25
284,137	66,67
284,674	71,97
285,211	68,56
285,747	67,32
286,284	73,71
286,82	64,11
287,356	60,44
287,892	51,85
288,428	62,66
288,964	70,95
289,5	77,21
290,035	68,46
290,571	64,59
291,106	64,71
291,641	68,12
292,176	63,2
292,711	65,09
293,246	66,28
293,781	60,43
294,315	65,58
294,85	58,96
295,384	68,87
295,918	66,4
296,453	62,35
296,987	61,44
297,52	59,73
298,054	66,97
298,588	62
299,121	68,92
299,655	69,34
300,188	60,17
300,721	70,54
301,254	65,02
301,787	72,37
302,32	67,52
302,853	71,06
303,385	64,71
303,918	59,56
304,45	63,32
304,982	70
305,514	62,6
306,046	69,47
306,578	66,8
307,11	65,91
307,641	65,13
308,173	70,43
308,704	67,48
309,236	71,3
309,767	65
310,298	72,8
310,829	59,3
311,359	72,57
311,89	69,23
312,421	60,82
312,951	71,13
313,481	69,19
314,012	68,22
314,542	70,72
315,072	71,67
315,601	68,55
316,131	69,1
316,661	64,86
317,19	56,33
317,72	63,56
318,249	77,06
318,778	72,43
319,307	64,92
319,836	70
320,365	76,17
320,893	72,83
321,422	74,44
321,95	74,35
322,479	71,49
323,007	64,94
323,535	72,45
324,063	62,26
324,591	71,65
325,118	68,83
325,646	65,09
326,173	66,07
326,701	70,12
327,228	70,61
327,755	66,19
328,282	77,27
328,809	65,79
329,336	77,45
329,862	72,99
330,389	64,32
330,915	58,53
331,441	74,68
331,968	60,16
332,494	76
333,02	68,2
333,545	70,85
334,071	67,23
334,597	66,53
335,122	62,61
335,648	66,8
336,173	69,07
336,698	68,24
337,223	67,14
337,748	69,8
338,272	67,81
338,797	68,13
339,322	69,23
339,846	69,08
340,37	73,8
340,894	66,67
341,419	59,68
341,942	68,6
342,466	67,7
342,99	58,17
343,514	72,47
344,037	63,91
344,56	69,72
345,084	74,58
345,607	67,92
346,13	62,9
346,653	62,73
347,175	69,49
347,698	72,16
348,221	65,99
348,743	67,55
349,265	70,2
349,787	60,63
350,309	59,49
350,831	61,97
351,353	71,43
351,875	68,13
352,397	56,61
352,918	69,32
353,439	61,75
353,961	64,69
354,482	65,77
355,003	64,67
355,524	70,95
356,044	58,18
356,565	63,89
357,086	62,66
357,606	59,67
358,126	62,54
358,646	54,83
359,167	63,79
359,687	61,72
360,206	61,98
360,726	68,14
361,246	62,23
361,765	58,58
362,285	62,08
362,804	49,09
363,323	57,66
363,842	57,43
364,361	60,68
364,88	60,36
365,398	56,5
365,917	55,33
366,435	54,55
366,954	53,8
367,472	57,96
367,99	54,67
368,508	56,97
369,026	61,76
369,544	58,55
370,061	54,69
370,579	61,05
371,096	59,42
371,613	52,28
372,131	54,83
372,648	56,85
373,165	57,78
373,681	53,14
374,198	48,86
374,715	55,93
375,231	55,31
375,747	54,07
376,264	51,46
376,78	54,03
377,296	50,71
377,812	53,62
378,327	56,81
378,843	52,52
379,359	49,78
379,874	47,61
380,389	48,17
380,905	50,32
381,42	46,73
381,935	52,8
382,449	48,63
382,964	46,31
383,479	49,69
383,993	53,4
384,508	43,85
385,022	50,09
385,536	49,07
386,05	42,12
386,564	40,7
387,078	44,85
387,592	43,93
388,105	48,34
388,619	42
389,132	42,6
389,645	40,09
390,158	41,42
390,671	43,76
391,184	41,43
391,697	40,4
392,21	38,7
392,722	41,94
393,235	40,25
393,747	39,47
394,259	36,74
394,771	43,79
395,283	37,92
395,795	39,33
396,307	37,48
396,818	37,55
397,33	38,7
397,841	34,46
398,353	34,32
398,864	33,95
399,375	38,23
399,886	31,87
400,397	35,06
400,907	32,84
401,418	30,3
401,928	32,99
402,439	30,25
402,949	30,38
403,459	30,98
403,969	28,96
404,479	29,95
404,989	27,5
405,498	27,79
406,008	30,05
406,517	25,85
407,027	24,5
407,536	25,67
408,045	24,2
408,554	24,28
409,063	23,04
409,572	21,91
410,08	21,29
410,589	18,92
411,097	20,62
411,606	19,49
412,114	17,23
412,622	18,44
413,13	17,27
413,638	18,15
414,145	17,32
414,653	15,24
415,16	16,15
415,668	15,49
416,175	14,82
416,682	14,41
417,189	14,43
417,696	14,84
418,203	13,54
418,71	13,8
419,216	14,32
419,723	12,68
420,229	12,87
420,735	13,08
421,242	12,46
421,748	13,12
422,254	13,34
422,759	11,8
423,265	11,8
423,771	10,69
424,276	11,58
424,781	12,72
425,287	11,29
425,792	11,26
426,297	11,11
426,802	11,66
427,306	12,29
427,811	10,61
428,316	11,47
428,82	10,81
429,324	11,03
429,829	11,51
430,333	11,27
430,837	11,02
431,34	10,46
431,844	10,27
432,348	11,94
432,851	10,7
433,355	10,25
433,858	10,64
434,361	10,68
434,864	10,17
435,367	11,22
435,87	9,77
436,373	9,86
436,876	11,04
437,378	10,08
437,88	10,03
438,383	10,17
438,885	9,93
439,387	9,72
439,889	9,75
440,391	10,09
440,892	10,46
441,394	10,24
441,896	9,85
442,397	9,94
442,898	9,4
443,399	9,93
443,9	9,1
444,401	10,22
444,902	9,74
445,403	9,74
445,903	10,05
446,404	10,06
446,904	10,31
447,405	10,09
447,905	10,34
448,405	9,86
448,905	10,13
449,404	9,68
449,904	10,19
450,404	10,16
450,903	10,69
451,403	9,94
451,902	9,83
452,401	10,32
452,9	9,75
453,399	9,96
453,898	10,19
454,396	10,02
454,895	10,16
455,393	10,7
455,892	10,27
456,39	10,36
456,888	10,21
457,386	10,46
457,884	10,51
458,382	10,17
458,879	10,15
459,377	10,81
459,874	10,13
460,372	10,31
460,869	10,5
461,366	9,97
461,863	10,6
462,36	10,09
462,857	9,87
463,353	10,31
463,85	9,71
464,346	9,75
464,843	10,35
465,339	9,81
465,835	9,81
466,331	10,35
466,827	10,23
467,323	10,22
467,818	10,04
468,314	10,19
468,809	10,14
469,305	9,71
469,8	10,39
470,295	10,51
470,79	10,81
471,285	10,46
471,78	10,01
472,274	9,99
472,769	9,95
473,263	10,17
473,758	10,59
474,252	10,36
474,746	10,08
475,24	10,28
475,734	10,08
476,228	9,98
476,721	10,06
477,215	10,34
477,708	10,15
478,202	10,13
478,695	10,3
479,188	10,28
479,681	10,62
480,174	10,04
480,667	10,17
481,159	10,61
481,652	10,39
482,144	10,16
482,637	10,22
483,129	9,81
483,621	10,6
484,113	10
484,605	10,45
485,097	10,45
485,588	10,45
486,08	10,08
486,571	10,35
487,063	10,51
487,554	10,31
488,045	10,5
488,536	10,55
489,027	10,6
489,518	10,6
490,008	10,47
490,499	10,82
490,989	10,58
491,48	10,7
491,97	10,86
492,46	10,92
492,95	10,74
493,44	10,93
493,93	11,07
494,419	11,68
494,909	11,05
495,398	11,05
495,888	11,31
496,377	11,7
496,866	11,79
497,355	11,53
497,844	11,87
498,333	12,16
498,821	12,15
499,31	12,26
499,798	12,34
500,287	12,57
500,775	12,8
501,263	12,93
501,751	13,15
502,239	13,54
502,727	13,27
503,215	13,37
503,702	13,8
504,19	13,82
504,677	14,53
505,164	14,17
505,651	14,46
506,139	15,27
506,625	15,25
507,112	15,39
507,599	16,56
508,086	15,84
508,572	16,24
509,058	16,32
509,545	16,94
510,031	16,97
510,517	17,21
511,003	17,48
511,489	17,68
511,974	18,09
512,46	19,29
512,946	19,38
513,431	18,82
513,916	19,97
514,401	19,72
514,887	20,43
515,371	20,57
515,856	21,52
516,341	21,74
516,826	21,75
517,31	21,95
517,795	22,98
518,279	22,57
518,763	23,29
519,247	23,47
519,731	24,22
520,215	24,3
520,699	24,47
521,182	25,86
521,666	25,71
522,149	26,6
522,633	26,64
523,116	26,81
523,599	27,49
524,082	27,79
524,565	28,18
525,048	28,62
525,53	28,48
526,013	29,07
526,495	29,44
526,978	29,88
527,46	29,94
527,942	30,22
528,424	31,37
528,906	30,76
529,388	30,66
529,87	31,09
530,351	31,79
530,833	31,95
531,314	31,58
531,795	31,9
532,277	32,5
532,758	32,31
533,238	33,15
533,719	33,12
534,2	33,04
534,681	33,39
535,161	33,69
535,642	33,26
536,122	33,96
536,602	33,69
537,082	33,27
537,562	33,77
538,042	33,8
538,522	33
539,001	33,97
539,481	34,36
539,96	34,48
540,44	34,22
540,919	34,51
541,398	34,78
541,877	34,42
542,356	35,02
542,835	34,32
543,313	34,59
543,792	34,53
544,27	35,34
544,749	34,76
545,227	35,12
545,705	34,92
546,183	34,63
546,661	35,99
547,139	34,93
547,616	35,07
548,094	35,11
548,571	34,3
549,049	35,51
549,526	35,06
550,003	35,36
550,48	35,42
550,957	34,89
551,434	35,46
551,911	35,74
552,387	35,37
552,864	35,81
553,34	35,11
553,817	35,81
554,293	35,57
554,769	35,07
555,245	35,91
555,721	35,25
556,197	35,2
556,672	35,34
557,148	35,22
557,623	35,04
558,099	35,32
558,574	35,25
559,049	34,7
559,524	35,3
559,999	34,27
560,474	35,1
560,948	34,35
561,423	34,32
561,897	34,22
562,372	34,47
562,846	34,17
563,32	34,51
563,794	33,55
564,268	33,86
564,742	33,94
565,216	33,82
565,69	33,64
566,163	33,75
566,636	33,31
567,11	33,41
567,583	32,79
568,056	31,98
568,529	32,27
569,002	32,09
569,475	32,41
569,947	31,63
570,42	31,37
570,892	31,17
571,365	31,33
571,837	31,28
572,309	30,62
572,781	30,84
573,253	30,77
573,725	30,26
574,197	29,84
574,668	29,98
575,14	29,7
575,611	29,6
576,082	29,49
576,554	29,28
577,025	28,75
577,496	28,77
577,967	28,79
578,437	28,59
578,908	27,89
579,379	27,93
579,849	27,82
580,319	28,02
580,79	27,13
581,26	27,04
581,73	27,12
582,2	26,78
582,669	27,12
583,139	27,09
583,609	26,77
584,078	26,56
584,548	26,46
585,017	26,13
585,486	26,07
585,955	25,97
586,424	26,15
586,893	25,86
587,362	25,95
587,83	25,26
588,299	25,57
588,767	25,71
589,236	25,85
589,704	24,94
590,172	25,28
590,64	25,07
591,108	24,84
591,576	25,04
592,043	24,06
592,511	24,5
592,978	24,77
593,446	24,41
593,913	24,6
594,38	24,76
594,847	24,55
595,314	24,23
595,781	24,39
596,248	23,98
596,715	24,28
597,181	24,03
597,647	23,76
598,114	24,09
598,58	23,89
599,046	24,23
599,512	23,93
599,978	23,68
600,444	23,84
600,91	23,48
601,375	23,88
601,841	23,49
602,306	23,53
602,771	23,42
603,236	23,34
603,702	23,42
604,167	23,33
604,631	23,25
605,096	22,7
605,561	23,26
606,025	22,76
606,49	22,73
606,954	22,29
607,418	22,66
607,882	22,44
608,347	22,81
608,81	22,4
609,274	22,08
609,738	22,15
610,202	22,32
610,665	21,78
611,128	21,61
611,592	21,45
612,055	21,03
612,518	21,62
612,981	21,12
613,444	20,86
613,907	20,78
614,369	20,77
614,832	20,66
615,294	20,74
615,757	20,38
616,219	20,28
616,681	20,24
617,143	20,11
617,605	19,9
618,067	19,93
618,529	19,56
618,99	19,73
619,452	19,7
619,913	19,39
620,375	19,42
620,836	19,27
621,297	19,35
621,758	19,27
622,219	19,06
622,68	19,13
623,14	19,14
623,601	18,75
624,061	19,01
624,522	18,81
624,982	18,72
625,442	18,82
625,902	18,67
626,362	18,8
626,822	18,73
627,282	18,88
627,742	18,54
628,201	18,58
628,661	18,38
629,12	18,65
629,579	18,5
630,038	18,83
630,497	18,42
630,956	18,37
631,415	18,46
631,874	18,05
632,332	18,34
632,791	18,11
633,249	18,08
633,708	18,1
634,166	18,08
634,624	17,82
635,082	17,85
635,54	17,94
635,998	17,45
636,455	17,46
636,913	17,56
637,37	17,72
637,828	17,23
638,285	17,01
638,742	16,97
639,199	16,85
639,656	16,63
640,113	16,39
640,57	16,48
641,027	16,39
641,483	16,14
641,94	15,84
642,396	15,66
642,852	15,61
643,309	15,53
643,765	15,42
644,221	15,22
644,676	15,02
645,132	14,78
645,588	14,58
646,043	14,55
646,499	14,08
646,954	14,23
647,409	14,01
647,864	13,74
648,319	13,71
648,774	13,39
649,229	13,18
649,684	13,39
650,139	13,18
650,593	13,31
651,047	13,04
651,502	12,99
651,956	12,78
652,41	12,57
652,864	12,75
653,318	12,51
653,772	12,56
654,225	12,39
654,679	12,28
655,133	12,41
655,586	12,3
656,039	12,11
656,492	12,13
656,946	11,98
657,399	11,9
657,851	11,71
658,304	11,94
658,757	11,46
659,209	11,55
659,662	11,42
660,114	11,3
660,567	11,04
661,019	11,01
661,471	10,84
661,923	10,79
662,375	10,71
662,826	10,46
663,278	10,46
663,73	10,22
664,181	10,27
664,632	10,31
665,084	10,23
665,535	9,86
665,986	10,08
666,437	9,8
666,888	9,78
667,338	9,87
667,789	9,79
668,24	9,63
668,69	9,76
669,14	9,6
669,591	9,69
670,041	9,71
670,491	9,5
670,941	9,72
671,391	9,76
671,84	9,98
672,29	9,83
672,74	9,65
673,189	9,93
673,638	9,94
674,088	9,98
674,537	10,18
674,986	10,2
675,435	10,29
675,883	10,47
676,332	10,25
676,781	10,66
677,229	10,61
677,678	10,71
678,126	10,85
678,574	11,12
679,022	11,11
679,47	11,35
679,918	11,47
680,366	11,49
680,814	11,58
681,261	11,7
681,709	11,98
682,156	12
682,604	12,09
683,051	12,48
683,498	12,61
683,945	12,78
684,392	12,81
684,839	13,1
685,286	13,19
685,732	13,53
686,179	13,6
686,625	13,81
687,071	14,12
687,518	14,36
687,964	14,82
688,41	15,04
688,856	15,62
689,301	16,13
689,747	16,25
690,193	16,94
690,638	17,26
691,084	17,69
691,529	18,61
691,974	19,03
692,419	19,63
692,864	20,32
693,309	21,08
693,754	21,48
694,199	22,05
694,643	22,72
695,088	23,41
695,532	24,25
695,977	25,13
696,421	25,89
696,865	26,08
697,309	26,81
697,753	27,65
698,197	28,42
698,64	29,21
699,084	29,76
699,527	30,26
699,971	31,23
700,414	32
700,857	32,04
701,3	32,99
701,743	33,63
702,186	33,98
702,629	34,41
703,072	35,65
703,515	35,67
703,957	36,19
704,399	36,72
704,842	37,09
705,284	37,94
705,726	38,14
706,168	39,09
706,61	39,81
707,052	39,74
707,494	39,97
707,935	40,86
708,377	41,38
708,818	41,43
709,26	41,95
709,701	42,21
710,142	43,15
710,583	43,18
711,024	43,77
711,465	44,11
711,905	44,15
712,346	44,42
712,787	45,02
713,227	45,59
713,667	45,69
714,108	45,87
714,548	46,84
714,988	46,89
715,428	46,64
715,868	47,44
716,307	47,33
716,747	48,18
717,186	48,27
717,626	48,89
718,065	49,11
718,504	49,3
718,944	49,11
719,383	49,18
719,822	50,15
720,261	50,08
720,699	50,5
721,138	50,49
721,576	50,81
722,015	50,9
722,453	51,06
722,892	51,67
723,33	51,87
723,768	52,17
724,206	52,17
724,644	52,3
725,081	52,47
725,519	52,61
725,957	52,59
726,394	53
726,832	52,86
727,269	53,12
727,706	53,46
728,143	53,25
728,58	53,82
729,017	53,84
729,454	53,82
729,89	53,59
730,327	54,39
730,764	54,34
731,2	54,63
731,636	54,15
732,072	54,14
732,509	54,62
732,945	54,74
733,38	55,05
733,816	54,7
734,252	55,21
734,688	54,68
735,123	54,71
735,559	54,86
735,994	55,05
736,429	54,91
736,864	54,97
737,299	55,58
737,734	55,09
738,169	55,89
738,604	55,01
739,038	55,58
739,473	55,3
739,907	55,22
740,342	55,57
740,776	55,43
741,21	55,05
741,644	56,13
742,078	55,45
742,512	55,95
742,946	55,79
743,379	55,48
743,813	55,84
744,246	55,59
744,68	55,39
745,113	55,3
745,546	55,17
745,979	55,13
746,412	55,54
746,845	55,59
747,278	55,47
747,711	55,28
748,143	55,31
748,576	55,53
749,008	55,3
749,441	55,38
749,873	54,85
750,305	55,21
750,737	55,19
751,169	55,43
751,601	55,06
752,032	55,09
752,464	54,9
752,896	54,96
753,327	55,08
753,758	55,12
754,19	54,91
754,621	55,19
755,052	54,33
755,483	54,78
755,914	54,59
756,344	54,66
756,775	54,8
757,206	54,82
757,636	54,46
758,066	54,24
758,497	54,21
758,927	54,4
759,357	54,89
759,787	54,48
760,217	54,43
760,647	54,19
761,076	54,16
761,506	53,87
761,935	54,12
762,365	53,63
762,794	54,11
763,223	53,66
763,653	54,14
764,082	54,14
764,51	53,86
764,939	54,29
765,368	54,27
765,797	54,16
766,225	53,4
766,654	53,6
767,082	53,69
767,51	53,95
767,938	53,56
768,367	53,53
768,795	54
769,222	53,38
769,65	53,58
770,078	53,63
770,505	53,11
770,933	53,34
771,36	53,29
771,788	53,79
772,215	53,52
772,642	53,18
773,069	53,13
773,496	53,36
773,923	53,19
774,349	53,25
774,776	53,5
775,203	53,87
775,629	53,15
776,055	53,05
776,482	52,95
776,908	53,42
777,334	53,01
777,76	52,93
778,186	52,75
778,611	52,91
779,037	53,22
779,463	53,25
779,888	52,55
780,314	52,52
780,739	52,83
781,164	52,45
781,589	53,07
782,014	52,85
782,439	52,84
782,864	52,6
783,289	52,92
783,713	52,68
784,138	53,34
784,562	52,71
784,987	52,85
785,411	52,58
785,835	52,78
786,259	52,53
786,683	52,82
787,107	52,89
787,531	53,05
787,954	52,48
788,378	52,74
788,802	52,5
789,225	52,69
789,648	52,48
790,071	52,8
790,495	52,62
790,918	52,8
791,34	52,27
791,763	52,33
792,186	52,19
792,609	52,14
793,031	52,41
793,454	52,72
793,876	52,73
794,298	52,66
794,721	52,68
795,143	52,15
795,565	52,52
795,986	52,22
796,408	52,24
796,83	52,53
797,252	52,47
797,673	51,89
798,094	52,81
798,516	52,4
798,937	52,06
799,358	52,21
799,779	52,15
800,2	52,26
800,621	52,31
801,042	52,4
801,462	52,64
801,883	51,87
802,303	52,21
802,724	52,4
803,144	52,26
803,564	52,29
803,984	52,55
804,404	51,88
804,824	52,03
805,244	52,29
805,664	52,16
806,084	52,01
806,503	51,9
806,923	51,87
807,342	51,9
807,761	51,63
808,18	52,74
808,599	52,53
809,018	52,33
809,437	52,51
809,856	51,97
810,275	52,65
810,693	52,29
811,112	51,86
811,53	52,12
811,949	52,27
812,367	52,05
812,785	51,98
813,203	51,92
813,621	52,04
814,039	52,72
814,457	52,21
814,874	52,25
815,292	52,04
815,709	51,77
816,127	52,05
816,544	51,4
816,961	52,31
817,378	51,86
817,795	51,75
818,212	51,76
818,629	52,12
819,046	51,98
819,462	52,33
819,879	52,06
820,295	51,65
820,712	51,86
821,128	52,31
821,544	52,32
821,96	51,98
822,376	51,98
822,792	52,18
823,208	51,85
823,624	51,86
824,039	51,78
824,455	52,26
824,87	51,81
825,286	51,71
825,701	51,28
826,116	51,97
826,531	51,41
826,946	51,94
827,361	51,72
827,776	51,9
828,19	51,88
828,605	50,93
829,02	52
829,434	51,67
829,848	51,97
830,263	52,02
830,677	52,12
831,091	51,37
831,505	51,69
831,919	51,76
832,332	51,66
832,746	51,38
833,16	51,88
833,573	51,5
833,987	51,56
834,4	51,51
834,813	51,65
835,226	51,58
