Data from F_1_Relative__0__00115.txt Node

Date: Tue Jan 30 10:07:02 CET 2024
User: diatiterra
Spectrometer: HDX00911
Trigger mode: 0
Integration Time (sec): 6,000000E-3
Scans to average: 2
Nonlinearity correction enabled: false
Boxcar width: 0
Storing dark spectrum: false
XAxis mode: Wavelengths
Number of Pixels in Spectrum: 2068
>>>>>Begin Spectral Data<<<<<
194,468	103,87
195,025	102,42
195,581	104,55
196,138	94,27
196,694	100
197,251	91,19
197,807	86,67
198,363	91,8
198,919	79,15
199,474	86,02
200,03	85,43
200,586	81,94
201,141	86,97
201,696	81,93
202,251	95,52
202,806	80,85
203,361	81,71
203,916	83,4
204,471	86,14
205,025	90,79
205,58	88,02
206,134	87,65
206,688	84,12
207,242	96,4
207,796	81,78
208,35	93,15
208,904	90,32
209,457	87,98
210,011	80,79
210,564	84,23
211,117	91,06
211,67	84,62
212,223	82,87
212,776	94,92
213,329	81,01
213,881	90,91
214,434	81,56
214,986	84,82
215,538	83,07
216,09	85,14
216,642	87,6
217,194	98,56
217,746	84,46
218,297	85,71
218,849	79,09
219,4	88,31
219,951	92,04
220,502	88,72
221,053	94,07
221,604	82,28
222,155	91,1
222,705	81,7
223,256	82,02
223,806	79,58
224,356	93,14
224,906	93,39
225,456	75,63
226,006	82,59
226,556	92,48
227,106	84,65
227,655	94,42
228,204	98,19
228,754	81,43
229,303	96,4
229,852	94,32
230,401	92,38
230,949	71,99
231,498	82,59
232,047	87,3
232,595	90,36
233,143	96,05
233,691	80,57
234,239	88,55
234,787	87,89
235,335	87,01
235,883	96,85
236,43	88,56
236,978	86,96
237,525	87,66
238,072	86,78
238,619	79,37
239,166	88,36
239,713	90,3
240,26	89,11
240,806	86,64
241,353	90,17
241,899	88,48
242,445	86,19
242,991	84,84
243,537	80,52
244,083	85,97
244,629	83,7
245,174	84,26
245,72	80,31
246,265	90,95
246,81	93,78
247,355	86,13
247,9	89,58
248,445	81,75
248,99	80
249,534	79,62
250,079	93,98
250,623	88,94
251,168	82,04
251,712	74,67
252,256	78,93
252,8	91,15
253,343	87,45
253,887	96,1
254,43	79,63
254,974	86
255,517	95,67
256,06	81,43
256,603	88,48
257,146	81,92
257,689	88,14
258,232	90,95
258,774	79,3
259,317	84,48
259,859	92,38
260,401	91,59
260,943	87,55
261,485	90
262,027	80,43
262,569	85,65
263,11	92,48
263,652	85,4
264,193	93,49
264,734	89,35
265,275	82,83
265,816	77,35
266,357	78,84
266,898	85,9
267,438	91,49
267,979	78,45
268,519	85,1
269,059	78,66
269,6	88,94
270,14	85,78
270,68	80,33
271,219	82,17
271,759	89,08
272,298	88
272,838	82,07
273,377	94,59
273,916	83,27
274,455	75
274,994	86,18
275,533	79,47
276,072	84,68
276,61	89,04
277,149	84,17
277,687	100,42
278,225	83,13
278,763	79,77
279,301	92,24
279,839	83,61
280,377	70,61
280,914	76,39
281,452	91,87
281,989	92,98
282,526	84,17
283,064	79,31
283,601	86,67
284,137	83,11
284,674	87,87
285,211	82,97
285,747	82,28
286,284	96,55
286,82	79,44
287,356	76,44
287,892	76,95
288,428	85,41
288,964	90,87
289,5	82,79
290,035	88,8
290,571	82,49
291,106	84,16
291,641	78,6
292,176	79,6
292,711	87,5
293,246	84,29
293,781	79,13
294,315	79,53
294,85	79,28
295,384	87,26
295,918	84
296,453	79,76
296,987	80,93
297,52	79,64
298,054	84,62
298,588	75,6
299,121	79,73
299,655	91,04
300,188	80,51
300,721	85,27
301,254	73,54
301,787	84,65
302,32	77,78
302,853	85,11
303,385	77,65
303,918	80,44
304,45	86,46
304,982	81,2
305,514	78,86
306,046	82,74
306,578	81,74
307,11	79,55
307,641	75,63
308,173	80,87
308,704	89,43
309,236	88,26
309,767	77,92
310,298	77,6
310,829	77,91
311,359	80,53
311,89	79,62
312,421	73,06
312,951	87,03
313,481	84,36
314,012	75,19
314,542	81,98
315,072	82,83
315,601	85,48
316,131	87,12
316,661	83,01
317,19	71,84
317,72	83,05
318,249	85,32
318,778	88,07
319,307	77,02
319,836	84,4
320,365	85,11
320,893	85,83
321,422	84,75
321,95	81,3
322,479	83,94
323,007	73,71
323,535	85,28
324,063	76,26
324,591	80,84
325,118	75,76
325,646	83,62
326,173	89,29
326,701	80,88
327,228	82,86
327,755	84,29
328,282	87,73
328,809	83,77
329,336	74,89
329,862	83,21
330,389	74,89
330,915	78,29
331,441	87,34
331,968	76,89
332,494	85,33
333,02	87,03
333,545	78,54
334,071	77,31
334,597	83,47
335,122	89,64
335,648	82,8
336,173	86,02
336,698	82,4
337,223	83,1
337,748	77,25
338,272	75,11
338,797	87,65
339,322	88,03
339,846	81,93
340,37	75,11
340,894	83,54
341,419	75,81
341,942	81,78
342,466	77,43
342,99	76,05
343,514	85,43
344,037	79,7
344,56	76,49
345,084	81,78
345,607	74,34
346,13	82,66
346,653	64,94
347,175	76,69
347,698	75,46
348,221	90,28
348,743	86,42
349,265	81,63
349,787	78,05
350,309	77,01
350,831	73,94
351,353	84,9
351,875	75,09
352,397	81,69
352,918	86,45
353,439	82,47
353,961	81,12
354,482	76,85
355,003	73,5
355,524	68,58
356,044	77,09
356,565	71,88
357,086	73,7
357,606	69,33
358,126	77,26
358,646	67,93
359,167	77,74
359,687	72,94
360,206	77,32
360,726	69,09
361,246	68,42
361,765	66,99
362,285	73,83
362,804	59,45
363,323	71,77
363,842	70,63
364,361	69,97
364,88	70,87
365,398	64,65
365,917	65,38
366,435	65,01
366,954	66,26
367,472	64,86
367,99	66,01
368,508	65,76
369,026	68,27
369,544	60
370,061	60,86
370,579	66,85
371,096	64,14
371,613	62,47
372,131	63,19
372,648	70,3
373,165	64,64
373,681	66,49
374,198	63,8
374,715	55,41
375,231	63,21
375,747	64,2
376,264	62,86
376,78	64,45
377,296	57,38
377,812	57,61
378,327	66,9
378,843	63,79
379,359	56,83
379,874	56,76
380,389	59,82
380,905	59,02
381,42	54,49
381,935	59,27
382,449	54,69
382,964	52,93
383,479	61,59
383,993	59
384,508	50,96
385,022	54,05
385,536	53,35
386,05	51,95
386,564	55,61
387,078	52,88
387,592	51,64
388,105	52,15
388,619	48,63
389,132	46,26
389,645	48,23
390,158	50,24
390,671	49,78
391,184	47,8
391,697	44,52
392,21	45,87
392,722	43,76
393,235	46,29
393,747	46,49
394,259	44,44
394,771	45,36
395,283	43,39
395,795	43,33
396,307	44,11
396,818	43,02
397,33	41,82
397,841	38,51
398,353	40,65
398,864	38,62
399,375	38,11
399,886	37,1
400,397	37,22
400,907	34,1
401,418	35,16
401,928	37,92
402,439	35,76
402,949	35,74
403,459	35,82
403,969	31,76
404,479	34,22
404,989	32,69
405,498	31,75
406,008	33,07
406,517	32,03
407,027	27,8
407,536	28,25
408,045	29,25
408,554	27,51
409,063	25,37
409,572	25,53
410,08	24,82
410,589	24,68
411,097	22,18
411,606	22,38
412,114	20,54
412,622	19,73
413,13	19,21
413,638	18,62
414,145	19,18
414,653	17,79
415,16	17,14
415,668	17,75
416,175	17,04
416,682	17,07
417,189	16,71
417,696	16,76
418,203	16,58
418,71	15,25
419,216	16,62
419,723	14,97
420,229	15,15
420,735	15,08
421,242	14,44
421,748	14,72
422,254	15,87
422,759	14,05
423,265	13,38
423,771	12,99
424,276	13,11
424,781	13
425,287	14,29
425,792	12,43
426,297	13,27
426,802	13,41
427,306	13,4
427,811	12,01
428,316	13,37
428,82	12,8
429,324	12,69
429,829	13
430,333	12,91
430,837	12,24
431,34	11,7
431,844	11,7
432,348	12,92
432,851	12,33
433,355	11,69
433,858	13,04
434,361	12,18
434,864	12,59
435,367	12,12
435,87	12,41
436,373	11,53
436,876	12,22
437,378	11,96
437,88	11,38
438,383	11,96
438,885	11,62
439,387	11,06
439,889	11,32
440,391	11,17
440,892	11,73
441,394	12,23
441,896	10,88
442,397	11,72
442,898	11,24
443,399	11,37
443,9	11,43
444,401	11,08
444,902	10,83
445,403	10,75
445,903	11,45
446,404	11,56
446,904	11,63
447,405	11,31
447,905	11,28
448,405	11,2
448,905	11,08
449,404	10,93
449,904	10,93
450,404	11,42
450,903	11,61
451,403	10,71
451,902	11,45
452,401	11,21
452,9	11,03
453,399	11,84
453,898	11,37
454,396	11,39
454,895	11,3
455,393	11,39
455,892	11,52
456,39	10,91
456,888	11,75
457,386	11,32
457,884	11,01
458,382	11,18
458,879	11,51
459,377	11,39
459,874	11,32
460,372	11,13
460,869	10,92
461,366	11,04
461,863	11,39
462,36	11,14
462,857	11,22
463,353	11,22
463,85	11,2
464,346	10,93
464,843	11
465,339	11,1
465,835	11,33
466,331	10,67
466,827	11,35
467,323	10,77
467,818	10,52
468,314	10,98
468,809	10,68
469,305	11,25
469,8	11,23
470,295	11,18
470,79	11,08
471,285	11,3
471,78	10,97
472,274	10,98
472,769	10,71
473,263	10,69
473,758	11,12
474,252	11,02
474,746	10,64
475,24	10,93
475,734	11,25
476,228	10,66
476,721	11,35
477,215	10,65
477,708	10,73
478,202	10,95
478,695	10,64
479,188	10,88
479,681	11
480,174	10,81
480,667	10,7
481,159	11,09
481,652	10,85
482,144	11,1
482,637	10,84
483,129	10,38
483,621	10,86
484,113	10,61
484,605	10,62
485,097	11,09
485,588	11,05
486,08	10,99
486,571	10,92
487,063	11
487,554	10,88
488,045	10,83
488,536	11,05
489,027	10,78
489,518	10,76
490,008	11,01
490,499	11,3
490,989	10,87
491,48	10,83
491,97	10,85
492,46	10,98
492,95	11,15
493,44	10,79
493,93	11,01
494,419	11,9
494,909	10,99
495,398	11,33
495,888	11,07
496,377	11,18
496,866	11,66
497,355	11,57
497,844	11,42
498,333	11,82
498,821	11,96
499,31	11,92
499,798	11,63
500,287	12,31
500,775	12,07
501,263	12,4
501,751	12,09
502,239	11,94
502,727	12,8
503,215	12,83
503,702	12,73
504,19	12,88
504,677	12,74
505,164	13,36
505,651	13,63
506,139	13,85
506,625	13,81
507,112	14,19
507,599	14,13
508,086	14,2
508,572	14,47
509,058	14,71
509,545	15,04
510,031	15,2
510,517	15,06
511,003	15,49
511,489	15,55
511,974	16,13
512,46	16,55
512,946	16,73
513,431	17,05
513,916	16,98
514,401	17,54
514,887	17,9
515,371	18,24
515,856	18,92
516,341	18,57
516,826	19,23
517,31	19,81
517,795	20,6
518,279	20,45
518,763	20,9
519,247	20,98
519,731	21,36
520,215	21,9
520,699	22,14
521,182	23
521,666	23,49
522,149	23,62
522,633	23,87
523,116	24,84
523,599	25,46
524,082	25,11
524,565	25,69
525,048	26,49
525,53	26,4
526,013	27,21
526,495	27,62
526,978	28,38
527,46	28,21
527,942	28,86
528,424	29,06
528,906	29,73
529,388	29,16
529,87	29,86
530,351	29,87
530,833	30,35
531,314	30,91
531,795	31,12
532,277	31,42
532,758	31,32
533,238	31,21
533,719	31,67
534,2	31,8
534,681	32,36
535,161	32,52
535,642	31,84
536,122	32,67
536,602	32,46
537,082	32,44
537,562	33,12
538,042	32,82
538,522	33,05
539,001	32,82
539,481	33,19
539,96	33,72
540,44	33,22
540,919	33,49
541,398	33,47
541,877	33,67
542,356	34,19
542,835	33,49
543,313	33,46
543,792	33,62
544,27	34,05
544,749	34,35
545,227	33,96
545,705	34,32
546,183	34,22
546,661	34,44
547,139	34,39
547,616	34,4
548,094	35,19
548,571	34,11
549,049	34,41
549,526	35,16
550,003	34,85
550,48	34,95
550,957	35,04
551,434	34,32
551,911	34,89
552,387	34,64
552,864	35,01
553,34	35,43
553,817	35,15
554,293	35,27
554,769	34,7
555,245	34,69
555,721	34,56
556,197	34,92
556,672	34,85
557,148	35,09
557,623	34,64
558,099	34,34
558,574	34,54
559,049	34,45
559,524	34,23
559,999	33,72
560,474	33,91
560,948	33,54
561,423	33,3
561,897	33,4
562,372	33,84
562,846	33,1
563,32	33,2
563,794	33,12
564,268	33,2
564,742	32,65
565,216	32,33
565,69	32,15
566,163	31,9
566,636	31,64
567,11	31,69
567,583	31,25
568,056	30,75
568,529	30,94
569,002	30,79
569,475	30,4
569,947	29,83
570,42	29,31
570,892	29,45
571,365	28,94
571,837	29,08
572,309	28,79
572,781	28,48
573,253	28,13
573,725	27,86
574,197	27,29
574,668	27,99
575,14	26,9
575,611	27,1
576,082	27,07
576,554	26,19
577,025	26,13
577,496	25,96
577,967	25,6
578,437	25,67
578,908	25,61
579,379	25,12
579,849	24,58
580,319	25,27
580,79	24,99
581,26	24,37
581,73	24,25
582,2	24,43
582,669	24,23
583,139	24,19
583,609	24,05
584,078	23,81
584,548	23,7
585,017	23,82
585,486	23,18
585,955	23,4
586,424	22,78
586,893	23,14
587,362	22,71
587,83	22,67
588,299	22,62
588,767	22,37
589,236	22,4
589,704	22,27
590,172	22,1
590,64	22,38
591,108	21,63
591,576	22,06
592,043	21,88
592,511	21,66
592,978	21,75
593,446	21,83
593,913	21,48
594,38	21,61
594,847	21,28
595,314	21,28
595,781	21,5
596,248	21,32
596,715	21,06
597,181	21,25
597,647	21,5
598,114	21,1
598,58	21,05
599,046	21,28
599,512	20,85
599,978	20,64
600,444	21,14
600,91	20,64
601,375	20,75
601,841	20,58
602,306	20,52
602,771	20,49
603,236	20,61
603,702	20,5
604,167	20
604,631	20,41
605,096	20,13
605,561	19,96
606,025	19,74
606,49	19,57
606,954	19,85
607,418	19,52
607,882	19,33
608,347	19,59
608,81	19,26
609,274	19,22
609,738	19,27
610,202	19,01
610,665	18,69
611,128	18,63
611,592	18,72
612,055	18,31
612,518	18,39
612,981	18,17
613,444	17,85
613,907	18,05
614,369	17,94
614,832	17,54
615,294	17,74
615,757	17,47
616,219	17,47
616,681	17,33
617,143	17,37
617,605	17,02
618,067	16,65
618,529	17,05
618,99	16,95
619,452	16,64
619,913	16,77
620,375	16,72
620,836	16,34
621,297	16,44
621,758	16,29
622,219	16,34
622,68	15,93
623,14	16,04
623,601	16,18
624,061	16,07
624,522	16,01
624,982	15,88
625,442	16,05
625,902	16,1
626,362	16,1
626,822	15,74
627,282	16,14
627,742	15,83
628,201	15,81
628,661	15,96
629,12	15,7
629,579	15,68
630,038	15,89
630,497	15,79
630,956	15,7
631,415	15,81
631,874	15,59
632,332	15,7
632,791	15,33
633,249	15,43
633,708	15,4
634,166	15,23
634,624	15,35
635,082	15,13
635,54	15,19
635,998	15,22
636,455	14,95
636,913	15,11
637,37	14,85
637,828	14,69
638,285	14,73
638,742	14,74
639,199	14,54
639,656	14,06
640,113	14,13
640,57	13,79
641,027	13,95
641,483	14,06
641,94	13,67
642,396	13,53
642,852	13,26
643,309	13,29
643,765	13,09
644,221	13,05
644,676	12,87
645,132	12,65
645,588	12,68
646,043	12,74
646,499	12,75
646,954	12,27
647,409	12,49
647,864	12,26
648,319	12,11
648,774	11,94
649,229	11,72
649,684	11,83
650,139	11,54
650,593	11,57
651,047	11,51
651,502	11,57
651,956	11,42
652,41	11,49
652,864	11,41
653,318	11,28
653,772	11,28
654,225	11,2
654,679	11,2
655,133	10,98
655,586	10,98
656,039	10,82
656,492	10,91
656,946	11,15
657,399	10,75
657,851	10,91
658,304	10,67
658,757	10,54
659,209	10,78
659,662	10,4
660,114	10,56
660,567	10,57
661,019	10,41
661,471	10,3
661,923	10,22
662,375	10,05
662,826	10,11
663,278	10,12
663,73	10,14
664,181	10,15
664,632	10,24
665,084	10,03
665,535	9,96
665,986	10,09
666,437	9,75
666,888	10,08
667,338	9,81
667,789	9,88
668,24	9,83
668,69	9,99
669,14	9,88
669,591	10,08
670,041	10,02
670,491	10,03
670,941	10,14
671,391	10,35
671,84	10,21
672,29	10,37
672,74	10,3
673,189	10,44
673,638	10,46
674,088	10,53
674,537	10,64
674,986	10,7
675,435	10,81
675,883	11,06
676,332	10,97
676,781	11,16
677,229	11,22
677,678	11,26
678,126	11,4
678,574	11,48
679,022	11,62
679,47	11,64
679,918	11,91
680,366	12,03
680,814	11,99
681,261	12,23
681,709	12,31
682,156	12,27
682,604	12,24
683,051	12,56
683,498	12,84
683,945	12,81
684,392	12,92
684,839	12,98
685,286	13,05
685,732	13,34
686,179	13,33
686,625	13,58
687,071	13,64
687,518	13,78
687,964	13,94
688,41	14,02
688,856	14,5
689,301	14,56
689,747	15,02
690,193	15,17
690,638	15,61
691,084	15,86
691,529	16,43
691,974	16,76
692,419	17,35
692,864	17,75
693,309	18,31
693,754	18,71
694,199	19,31
694,643	20,12
695,088	20,73
695,532	21,57
695,977	22,09
696,421	23,14
696,865	23,86
697,309	24,6
697,753	25,39
698,197	26,31
698,64	27,1
699,084	28,01
699,527	28,77
699,971	29,42
700,414	30,85
700,857	30,8
701,3	32,04
701,743	32,72
702,186	33,66
702,629	34,7
703,072	35,77
703,515	36,36
703,957	37,08
704,399	37,87
704,842	39,06
705,284	39,94
705,726	40,75
706,168	41,44
706,61	42,1
707,052	43,34
707,494	44,18
707,935	44,71
708,377	45,53
708,818	45,84
709,26	47,06
709,701	47,52
710,142	48,82
710,583	49,33
711,024	50,42
711,465	51,14
711,905	51,84
712,346	52,39
712,787	53,15
713,227	54,23
713,667	54,51
714,108	55,27
714,548	56,71
714,988	57
715,428	57,36
715,868	58,02
716,307	58,81
716,747	59,62
717,186	60,31
717,626	61,28
718,065	62,05
718,504	62,33
718,944	62,93
719,383	63,25
719,822	64,08
720,261	64,5
720,699	65,85
721,138	66,71
721,576	66,75
722,015	66,99
722,453	67,45
722,892	68,99
723,33	69,25
723,768	69,68
724,206	69,78
724,644	70,4
725,081	70,44
725,519	71,43
725,957	71,43
726,394	72,53
726,832	72,22
727,269	73,2
727,706	73,18
728,143	73,5
728,58	74,1
729,017	74,94
729,454	74,61
729,89	74,57
730,327	76,01
730,764	76,32
731,2	76,36
731,636	76,82
732,072	76,53
732,509	76,79
732,945	77,66
733,38	77,69
733,816	77,39
734,252	78,37
734,688	78,39
735,123	79,3
735,559	78,97
735,994	78,74
736,429	79,35
736,864	79,58
737,299	79,91
737,734	79,94
738,169	79,97
738,604	80,27
739,038	80,28
739,473	80,69
739,907	80,58
740,342	81,37
740,776	80,86
741,21	80,87
741,644	81,83
742,078	81
742,512	81,3
742,946	81,44
743,379	81,76
743,813	82,38
744,246	81,6
744,68	81,81
745,113	81,79
745,546	81,42
745,979	81,94
746,412	82,05
746,845	81,75
747,278	81,65
747,711	81,68
748,143	81,98
748,576	82,26
749,008	81,6
749,441	82,25
749,873	81,85
750,305	81,97
750,737	81,88
751,169	81,83
751,601	81,87
752,032	82,11
752,464	81,72
752,896	82
753,327	82,78
753,758	82,44
754,19	82,28
754,621	82,74
755,052	82,18
755,483	81,64
755,914	81,49
756,344	82,13
756,775	81,77
757,206	82,13
757,636	81,91
758,066	81,88
758,497	81,91
758,927	81,35
759,357	82,33
759,787	82,13
760,217	82,21
760,647	81,11
761,076	81,12
761,506	81,75
761,935	81,78
762,365	81,75
762,794	81,53
763,223	81,39
763,653	81,85
764,082	81,37
764,51	81,53
764,939	81,46
765,368	81,45
765,797	81,9
766,225	80,97
766,654	80,72
767,082	81,01
767,51	81,38
767,938	81,29
768,367	81,6
768,795	81,35
769,222	81,15
769,65	81,21
770,078	80,79
770,505	81,17
770,933	80,87
771,36	81,1
771,788	80,63
772,215	81,35
772,642	80,57
773,069	80,72
773,496	81,31
773,923	80,84
774,349	80,97
774,776	81,09
775,203	81,33
775,629	80,87
776,055	81,11
776,482	81,24
776,908	81,08
777,334	80,18
777,76	80,89
778,186	80,79
778,611	81,06
779,037	80,8
779,463	81,59
779,888	80,91
780,314	80,39
780,739	80,52
781,164	80,26
781,589	81,15
782,014	80,52
782,439	80,16
782,864	80,51
783,289	80,89
783,713	80,03
784,138	80,9
784,562	80,62
784,987	80,28
785,411	80,36
785,835	80,74
786,259	80,59
786,683	80,52
787,107	80,59
787,531	80,33
787,954	80,4
788,378	80,9
788,802	80,32
789,225	80,61
789,648	80,34
790,071	80,91
790,495	80,27
790,918	80,61
791,34	80,33
791,763	80,1
792,186	80,11
792,609	80,7
793,031	80,23
793,454	80,25
793,876	80,97
794,298	80,68
794,721	80,55
795,143	79,93
795,565	80,61
795,986	79,85
796,408	80,18
796,83	80,76
797,252	80,32
797,673	80,04
798,094	81,07
798,516	79,99
798,937	80,52
799,358	80,6
799,779	80,86
800,2	80,51
800,621	80,11
801,042	80,65
801,462	79,58
801,883	80,26
802,303	79,37
802,724	80,24
803,144	80,48
803,564	80,35
803,984	80,3
804,404	80,07
804,824	80,75
805,244	80,55
805,664	80,36
806,084	79,83
806,503	80,29
806,923	80,25
807,342	80,04
807,761	80,23
808,18	80,43
808,599	80,31
809,018	80,21
809,437	80,44
809,856	80,22
810,275	80,39
810,693	79,72
811,112	81,02
811,53	80,22
811,949	79,99
812,367	80,43
812,785	80,15
813,203	79,96
813,621	80,18
814,039	80,77
814,457	80,53
814,874	79,74
815,292	79,52
815,709	79,6
816,127	80,32
816,544	79,54
816,961	80,37
817,378	79,92
817,795	79,77
818,212	80,06
818,629	80,26
819,046	79,96
819,462	80,53
819,879	80,17
820,295	80,43
820,712	80,4
821,128	80,83
821,544	80,2
821,96	79,79
822,376	80,66
822,792	79,97
823,208	79,92
823,624	80,16
824,039	80,04
824,455	80,58
824,87	79,73
825,286	80,22
825,701	79,27
826,116	79,72
826,531	80,09
826,946	79,53
827,361	80,1
827,776	79,82
828,19	80,29
828,605	79,3
829,02	79,77
829,434	79,24
829,848	79,89
830,263	79,53
830,677	80,37
831,091	80,05
831,505	80,15
831,919	79,68
832,332	80,14
832,746	80,06
833,16	80,27
833,573	79,77
833,987	79,37
834,4	79,9
834,813	79,13
