Data from F_1_Relative__6__00121.txt Node

Date: Tue Jan 30 10:07:23 CET 2024
User: diatiterra
Spectrometer: HDX00911
Trigger mode: 0
Integration Time (sec): 6,000000E-3
Scans to average: 2
Nonlinearity correction enabled: false
Boxcar width: 0
Storing dark spectrum: false
XAxis mode: Wavelengths
Number of Pixels in Spectrum: 2068
>>>>>Begin Spectral Data<<<<<
194,468	93,92
195,025	100,81
195,581	90,91
196,138	77,07
196,694	81,59
197,251	81,5
197,807	80
198,363	78,28
198,919	81,28
199,474	88,56
200,03	82,68
200,586	80,62
201,141	83,61
201,696	80,25
202,251	88,56
202,806	82,98
203,361	79,27
203,916	82,57
204,471	74,75
205,025	81,59
205,58	81,57
206,134	81,27
206,688	80,26
207,242	82,88
207,796	80,08
208,35	83,56
208,904	78,23
209,457	81,01
210,011	82,97
210,564	80,63
211,117	90,64
211,67	77,73
212,223	67,73
212,776	89,83
213,329	80,59
213,881	82,25
214,434	78,69
214,986	87,05
215,538	86,22
216,09	79,52
216,642	84,3
217,194	86,12
217,746	78,49
218,297	85,71
218,849	75,29
219,4	79,65
219,951	83,19
220,502	82,88
221,053	86,02
221,604	83,86
222,155	80,51
222,705	87,23
223,256	79,78
223,806	78,75
224,356	90,2
224,906	88,99
225,456	75,63
226,006	87,5
226,556	78,76
227,106	80,5
227,655	80,47
228,204	96,38
228,754	81,43
229,303	91,44
229,852	83,41
230,401	84,75
230,949	75,18
231,498	81,25
232,047	81,56
232,595	81,12
233,143	90,79
233,691	78,09
234,239	76,34
234,787	82,96
235,335	83,12
235,883	87,84
236,43	82,2
236,978	84,78
237,525	77,45
238,072	73,57
238,619	69,06
239,166	68,97
239,713	74,26
240,26	73,39
240,806	77,59
241,353	87,61
241,899	81,07
242,445	76,15
242,991	81,15
243,537	73,16
244,083	85,97
244,629	76,65
245,174	79,15
245,72	81,85
246,265	87,33
246,81	83,11
247,355	84,31
247,9	75,83
248,445	78,57
248,99	77,87
249,534	74,72
250,079	87,04
250,623	83,19
251,168	80,82
251,712	76,86
252,256	73,14
252,8	80,09
253,343	78,14
253,887	78,35
254,43	73,7
254,974	76
255,517	89,42
256,06	68,78
256,603	82,72
257,146	78,85
257,689	82,2
258,232	86,88
258,774	72,25
259,317	85,34
259,859	87,14
260,401	85,98
260,943	78,42
261,485	80,91
262,027	75,74
262,569	81,94
263,11	77,43
263,652	84,51
264,193	75,81
264,734	84,72
265,275	85,41
265,816	76,92
266,357	76,76
266,898	76,5
267,438	87,66
267,979	77,59
268,519	82,69
269,059	71,15
269,6	84,07
270,14	76,72
270,68	75,82
271,219	80,87
271,759	81,66
272,298	74
272,838	77,29
273,377	92,79
273,916	78,99
274,455	68,08
274,994	82,49
275,533	73
276,072	77,02
276,61	78,95
277,149	79,17
277,687	89,83
278,225	70,37
278,763	66,03
279,301	75,51
279,839	77,05
280,377	74,69
280,914	72,22
281,452	80,08
281,989	83,47
282,526	76,67
283,064	77,78
283,601	92,5
284,137	78,22
284,674	84,94
285,211	74,24
285,747	76,77
286,284	80,17
286,82	72,58
287,356	84
287,892	65,43
288,428	75,11
288,964	72,61
289,5	76,28
290,035	68,88
290,571	74,71
291,106	76,92
291,641	73,36
292,176	68
292,711	72,41
293,246	69,35
293,781	71,3
294,315	69,77
294,85	70,92
295,384	85,38
295,918	80,4
296,453	76,52
296,987	71,61
297,52	76,92
298,054	75,11
298,588	67,6
299,121	85,14
299,655	75,47
300,188	66,53
300,721	75
301,254	76,23
301,787	73,25
302,32	66,24
302,853	77,87
303,385	77,25
303,918	71,11
304,45	72,05
304,982	70
305,514	67,48
306,046	71,24
306,578	69,71
307,11	73,86
307,641	72,69
308,173	68,26
308,704	79,27
309,236	77,83
309,767	71,67
310,298	70
310,829	73,26
311,359	81,42
311,89	72,31
312,421	56,33
312,951	74,06
313,481	80,57
314,012	67,83
314,542	74,32
315,072	69,96
315,601	74,6
316,131	74,68
316,661	73,36
317,19	60
317,72	69,49
318,249	72,48
318,778	75,72
319,307	68,15
319,836	72
320,365	77,45
320,893	77,95
321,422	81,17
321,95	76,09
322,479	72,69
323,007	69,72
323,535	74,34
324,063	73,54
324,591	79,69
325,118	71
325,646	73,71
326,173	77,23
326,701	69,32
327,228	77,96
327,755	73,33
328,282	80
328,809	73,68
329,336	74,04
329,862	76,64
330,389	79,74
330,915	73,64
331,441	78,06
331,968	59,76
332,494	73,78
333,02	70,71
333,545	76,92
334,071	67,23
334,597	70,66
335,122	74,32
335,648	73,6
336,173	73,73
336,698	75,54
337,223	72,3
337,748	67,06
338,272	68,67
338,797	72,11
339,322	72,22
339,846	70,68
340,37	76,86
340,894	76,37
341,419	73,39
341,942	72,48
342,466	67,26
342,99	66,54
343,514	74,9
344,037	68,8
344,56	74,1
345,084	73,73
345,607	66,79
346,13	72,58
346,653	64,21
347,175	66,53
347,698	68,13
348,221	74,9
348,743	75,47
349,265	65,71
349,787	69,34
350,309	66,79
350,831	65,49
351,353	64,49
351,875	62,64
352,397	62,71
352,918	74,5
353,439	68,92
353,961	67,48
354,482	65,1
355,003	66,88
355,524	64,86
356,044	65,09
356,565	66,32
357,086	62,34
357,606	59,67
358,126	61,2
358,646	61,72
359,167	70,76
359,687	62,38
360,206	65,81
360,726	60,25
361,246	65,94
361,765	61,17
362,285	61,41
362,804	54,27
363,323	60,36
363,842	67,66
364,361	62,85
364,88	59,76
365,398	60,42
365,917	54,44
366,435	58,68
366,954	63,83
367,472	60,66
367,99	55,52
368,508	62,12
369,026	59,77
369,544	66,09
370,061	54,42
370,579	62,15
371,096	54,71
371,613	54,96
372,131	56,66
372,648	61,42
373,165	59,63
373,681	55,24
374,198	57,97
374,715	52,58
375,231	55,31
375,747	55,31
376,264	52,43
376,78	54,98
377,296	51,67
377,812	51,12
378,327	52,35
378,843	56,83
379,359	51,54
379,874	49,06
380,389	51,83
380,905	52,23
381,42	46,73
381,935	53,66
382,449	48,83
382,964	49,15
383,479	45,3
383,993	52,8
384,508	47,5
385,022	50,66
385,536	44,24
386,05	44,9
386,564	45,44
387,078	46,07
387,592	43,93
388,105	45,2
388,619	44,59
389,132	44,26
389,645	40,71
390,158	45,2
390,671	44,79
391,184	42,34
391,697	43,81
392,21	39,51
392,722	40,53
393,235	41,62
393,747	42,7
394,259	42,67
394,771	42,23
395,283	39,25
395,795	39,47
396,307	43,71
396,818	34,94
397,33	40,13
397,841	33,81
398,353	35,61
398,864	33,95
399,375	35,74
399,886	33,21
400,397	33,44
400,907	34,31
401,418	32,06
401,928	32,37
402,439	31,39
402,949	31,31
403,459	30,07
403,969	29,44
404,479	30,43
404,989	29,07
405,498	28,5
406,008	29,02
406,517	25,85
407,027	25,3
407,536	26,63
408,045	24,12
408,554	24,5
409,063	23,32
409,572	22,25
410,08	21,48
410,589	21,01
411,097	20,5
411,606	19,43
412,114	17,06
412,622	16,81
413,13	17,6
413,638	17,12
414,145	17,47
414,653	16,59
415,16	16,05
415,668	16,92
416,175	15,6
416,682	14,54
417,189	14,51
417,696	15,47
418,203	14,29
418,71	12,5
419,216	14,79
419,723	13,93
420,229	13,17
420,735	12,78
421,242	12,77
421,748	13,3
422,254	14,55
422,759	12,24
423,265	12,68
423,771	11,46
424,276	12,16
424,781	11,96
425,287	11,73
425,792	11,62
426,297	11,02
426,802	11,39
427,306	12,08
427,811	11,57
428,316	11,38
428,82	12,4
429,324	11,11
429,829	11,6
430,333	11,07
430,837	11,13
431,34	10,7
431,844	10,56
432,348	11,45
432,851	11,08
433,355	10,48
433,858	10,89
434,361	10,41
434,864	10,34
435,367	10,9
435,87	9,98
436,373	10,1
436,876	11,28
437,378	9,48
437,88	10,03
438,383	10,69
438,885	10,03
439,387	9,72
439,889	9,97
440,391	9,85
440,892	10,4
441,394	10,8
441,896	10,04
442,397	10,52
442,898	9,82
443,399	10,03
443,9	10,47
444,401	9,39
444,902	9,78
445,403	10,29
445,903	10,71
446,404	10,37
446,904	10,27
447,405	9,88
447,905	9,78
448,405	9,9
448,905	10,13
449,404	10,41
449,904	10,02
450,404	10,12
450,903	10,25
451,403	10,15
451,902	10,19
452,401	9,51
452,9	9,93
453,399	10,37
453,898	10,33
454,396	10,27
454,895	10,29
455,393	10,34
455,892	10,61
456,39	10,21
456,888	10,82
457,386	9,88
457,884	10,71
458,382	10,83
458,879	11,06
459,377	10,12
459,874	10,68
460,372	10,77
460,869	10,32
461,366	10,27
461,863	10,67
462,36	9,94
462,857	10,06
463,353	10,1
463,85	10,61
464,346	10,82
464,843	10,3
465,339	10,45
465,835	9,92
466,331	10,25
466,827	10,5
467,323	10,17
467,818	10,42
468,314	10,34
468,809	10,29
469,305	10,72
469,8	10,57
470,295	10,79
470,79	10,3
471,285	10,51
471,78	10,23
472,274	10,08
472,769	10,58
473,263	10,27
473,758	10
474,252	10,41
474,746	10,16
475,24	10,66
475,734	10,65
476,228	10,5
476,721	10,57
477,215	10,53
477,708	10,08
478,202	10,56
478,695	10,14
479,188	10,84
479,681	10,29
480,174	10,81
480,667	10,35
481,159	10,39
481,652	10,32
482,144	10,58
482,637	10,35
483,129	10,16
483,621	10,71
484,113	10,38
484,605	10,55
485,097	10,22
485,588	10,5
486,08	10,56
486,571	10,24
487,063	10,92
487,554	10,52
488,045	10,77
488,536	10,88
489,027	10,94
489,518	10,73
490,008	10,76
490,499	10,82
490,989	10,49
491,48	10,98
491,97	10,96
492,46	10,82
492,95	11,36
493,44	11,14
493,93	11,79
494,419	11,63
494,909	11,59
495,398	11,88
495,888	11,85
496,377	12,12
496,866	11,84
497,355	12,22
497,844	11,95
498,333	12,46
498,821	12,37
499,31	12,67
499,798	12,94
500,287	13,2
500,775	13,33
501,263	13,35
501,751	13,69
502,239	13,75
502,727	14,03
503,215	14,21
503,702	14,31
504,19	14,22
504,677	14,47
505,164	14,7
505,651	14,96
506,139	15,3
506,625	15,99
507,112	16,18
507,599	16,34
508,086	16,99
508,572	17,22
509,058	16,58
509,545	17,05
510,031	17,69
510,517	18,08
511,003	18,64
511,489	18,67
511,974	19,14
512,46	19,56
512,946	19,78
513,431	19,81
513,916	20,63
514,401	20,68
514,887	20,69
515,371	21,35
515,856	21,92
516,341	22,29
516,826	22,52
517,31	23,06
517,795	23,62
518,279	24,26
518,763	24,47
519,247	24,85
519,731	25,45
520,215	25,81
520,699	25,98
521,182	26,59
521,666	26,81
522,149	27,24
522,633	27,68
523,116	28,09
523,599	28,94
524,082	28,88
524,565	29,27
525,048	29,07
525,53	29,42
526,013	30,52
526,495	30,48
526,978	30,98
527,46	31,46
527,942	32,1
528,424	32,45
528,906	32,54
529,388	32,29
529,87	32,52
530,351	32,98
530,833	33,66
531,314	33,93
531,795	33,83
532,277	34,07
532,758	33,57
533,238	34,58
533,719	34,25
534,2	34,64
534,681	34,98
535,161	35,96
535,642	35,33
536,122	35,38
536,602	35,89
537,082	34,84
537,562	35,63
538,042	35,3
538,522	35,94
539,001	35,4
539,481	36,08
539,96	35,61
540,44	35,77
540,919	36,22
541,398	36,29
541,877	35,62
542,356	36,54
542,835	36,38
543,313	36,21
543,792	36,74
544,27	36,6
544,749	36,75
545,227	36,61
545,705	36,58
546,183	37,03
546,661	36,87
547,139	37,14
547,616	37,01
548,094	37,1
548,571	37,17
549,049	36,9
549,526	37,45
550,003	36,92
550,48	37,44
550,957	36,92
551,434	36,71
551,911	37,36
552,387	36,42
552,864	37,32
553,34	37,71
553,817	37,24
554,293	37,32
554,769	36,73
555,245	37,14
555,721	37,33
556,197	37,21
556,672	36,7
557,148	37,06
557,623	36,91
558,099	36,88
558,574	37,03
559,049	37,24
559,524	36,73
559,999	35,89
560,474	36,99
560,948	36,58
561,423	35,86
561,897	36,69
562,372	36,11
562,846	35,89
563,32	36,4
563,794	35,82
564,268	35,78
564,742	36,13
565,216	35,28
565,69	35,12
566,163	35,29
566,636	34,83
567,11	35,41
567,583	34,46
568,056	33,48
568,529	33,44
569,002	33,51
569,475	33,98
569,947	33,65
570,42	33,71
570,892	32,83
571,365	32,89
571,837	32,81
572,309	32,73
572,781	32,23
573,253	32,03
573,725	31,54
574,197	31,41
574,668	31,32
575,14	30,94
575,611	30,97
576,082	30,47
576,554	31,14
577,025	29,96
577,496	30,26
577,967	29,53
578,437	29,96
578,908	29,9
579,379	29,2
579,849	29,11
580,319	29
580,79	28,77
581,26	28,69
581,73	28,38
582,2	28,59
582,669	28,29
583,139	27,89
583,609	27,82
584,078	27,77
584,548	27,84
585,017	27,53
585,486	27,31
585,955	27,46
586,424	27,43
586,893	26,98
587,362	26,97
587,83	26,59
588,299	26,86
588,767	26,62
589,236	26,83
589,704	26,41
590,172	26,42
590,64	26,14
591,108	25,75
591,576	26,17
592,043	25,88
592,511	26,06
592,978	26,09
593,446	25,67
593,913	26,19
594,38	25,51
594,847	25,42
595,314	25,28
595,781	25,63
596,248	25,28
596,715	25,72
597,181	25,31
597,647	25,39
598,114	25,07
598,58	25,33
599,046	25,63
599,512	24,85
599,978	24,83
600,444	24,94
600,91	24,94
601,375	25,32
601,841	24,58
602,306	24,78
602,771	24,51
603,236	24,32
603,702	24,33
604,167	24,21
604,631	24,51
605,096	23,86
605,561	24,47
606,025	23,97
606,49	23,63
606,954	23,74
607,418	23,59
607,882	23,38
608,347	23,34
608,81	23,48
609,274	23,13
609,738	23,11
610,202	23,05
610,665	23,23
611,128	22,66
611,592	22,82
612,055	22,43
612,518	22,4
612,981	22,36
613,444	21,64
613,907	22,05
614,369	21,67
614,832	21,48
615,294	21,79
615,757	21,4
616,219	21,48
616,681	21,3
617,143	21,45
617,605	20,92
618,067	20,81
618,529	21,14
618,99	20,53
619,452	20,6
619,913	20,52
620,375	20,36
620,836	20,16
621,297	20,1
621,758	20,01
622,219	19,95
622,68	20,16
623,14	19,8
623,601	20
624,061	19,91
624,522	19,84
624,982	19,56
625,442	19,72
625,902	19,56
626,362	19,79
626,822	19,78
627,282	19,91
627,742	19,68
628,201	19,54
628,661	19,91
629,12	19,57
629,579	19,57
630,038	19,58
630,497	19,39
630,956	19,35
631,415	19,24
631,874	19,39
632,332	19,13
632,791	18,95
633,249	18,99
633,708	19,23
634,166	18,86
634,624	18,82
635,082	18,98
635,54	18,89
635,998	18,74
636,455	18,65
636,913	18,26
637,37	18,39
637,828	18,27
638,285	17,81
638,742	17,92
639,199	17,7
639,656	17,45
640,113	17,41
640,57	17,13
641,027	17,25
641,483	16,98
641,94	16,56
642,396	16,33
642,852	16,22
643,309	16,23
643,765	16,18
644,221	15,86
644,676	15,88
645,132	15,66
645,588	15,31
646,043	15,31
646,499	15,17
646,954	14,78
647,409	14,97
647,864	14,59
648,319	14,39
648,774	14,01
649,229	13,98
649,684	14,27
650,139	13,9
650,593	13,54
651,047	13,77
651,502	13,74
651,956	13,45
652,41	13,48
652,864	13,29
653,318	13,53
653,772	13,49
654,225	13,22
654,679	13,11
655,133	12,98
655,586	12,89
656,039	12,81
656,492	12,71
656,946	12,54
657,399	12,38
657,851	12,47
658,304	12,23
658,757	12,24
659,209	12,16
659,662	11,95
660,114	11,83
660,567	11,76
661,019	11,5
661,471	11,36
661,923	11,3
662,375	11,1
662,826	10,99
663,278	10,75
663,73	10,77
664,181	10,78
664,632	10,6
665,084	10,56
665,535	10,46
665,986	10,39
666,437	10,35
666,888	10,3
667,338	10,07
667,789	10,22
668,24	10,04
668,69	10,05
669,14	10,06
669,591	10,07
670,041	10,08
670,491	9,93
670,941	9,96
671,391	9,91
671,84	10,09
672,29	9,99
672,74	9,95
673,189	10,27
673,638	10,12
674,088	10,22
674,537	10,36
674,986	10,35
675,435	10,4
675,883	10,61
676,332	10,72
676,781	10,76
677,229	10,91
677,678	11
678,126	10,91
678,574	11,19
679,022	11,41
679,47	11,27
679,918	11,52
680,366	11,63
680,814	11,83
681,261	11,87
681,709	12,14
682,156	12
682,604	12,42
683,051	12,63
683,498	12,78
683,945	12,96
684,392	13,2
684,839	13,57
685,286	13,44
685,732	13,76
686,179	14,13
686,625	14,28
687,071	14,72
687,518	15,08
687,964	15,38
688,41	15,58
688,856	15,95
689,301	16,51
689,747	17,08
690,193	17,47
690,638	18,29
691,084	18,54
691,529	19,18
691,974	19,73
692,419	20,51
692,864	21,15
693,309	21,95
693,754	22,55
694,199	23,24
694,643	24,08
695,088	24,71
695,532	25,49
695,977	26,37
696,421	27,18
696,865	27,86
697,309	28,29
697,753	29,18
698,197	30,35
698,64	30,92
699,084	31,48
699,527	32,44
699,971	33,13
700,414	33,94
700,857	34,17
701,3	34,9
701,743	35,73
702,186	36,62
702,629	37,07
703,072	37,67
703,515	38,18
703,957	38,93
704,399	39,35
704,842	40,36
705,284	40,7
705,726	41,58
706,168	42,15
706,61	42,52
707,052	43,1
707,494	43,75
707,935	44,24
708,377	44,88
708,818	44,87
709,26	45,94
709,701	45,9
710,142	46,71
710,583	47,24
711,024	48,12
711,465	48,11
711,905	48,76
712,346	48,59
712,787	49,22
713,227	50,18
713,667	49,98
714,108	50,62
714,548	51,58
714,988	52,05
715,428	51,84
715,868	52,36
716,307	52,73
716,747	53,48
717,186	53,83
717,626	54,08
718,065	54,31
718,504	54,71
718,944	54,97
719,383	54,9
719,822	55,75
720,261	55,76
720,699	56,19
721,138	56,6
721,576	56,67
722,015	56,98
722,453	57,51
722,892	58,07
723,33	58,01
723,768	58,42
724,206	58,64
724,644	58,59
725,081	58,64
725,519	58,76
725,957	59,23
726,394	59,5
726,832	59,51
727,269	60,37
727,706	60,75
728,143	60,55
728,58	60,68
729,017	61,03
729,454	60,77
729,89	60,45
730,327	61,64
730,764	61,12
731,2	61,52
731,636	61,83
732,072	61,77
732,509	61,99
732,945	62,52
733,38	62,2
733,816	62,32
734,252	62,23
734,688	62,6
735,123	62,58
735,559	62,63
735,994	62,86
736,429	62,5
736,864	62,66
737,299	62,79
737,734	63,24
738,169	63,41
738,604	62,94
739,038	62,98
739,473	63,48
739,907	63,09
740,342	63,76
740,776	63,15
741,21	63,57
741,644	63,74
742,078	63,4
742,512	63,33
742,946	63,81
743,379	63,6
743,813	63,72
744,246	63,43
744,68	63,86
745,113	63,63
745,546	63,38
745,979	63,59
746,412	63,5
746,845	63,57
747,278	63,35
747,711	63,21
748,143	63,64
748,576	63,8
749,008	63,4
749,441	63,21
749,873	63,44
750,305	63,46
750,737	63,31
751,169	63,15
751,601	63,67
752,032	63,33
752,464	63,37
752,896	62,97
753,327	63,66
753,758	63,5
754,19	63,29
754,621	63,63
755,052	63,42
755,483	62,96
755,914	62,95
756,344	63,32
756,775	63,01
757,206	62,88
757,636	62,92
758,066	62,98
758,497	62,78
758,927	62,9
759,357	62,97
759,787	63,05
760,217	62,92
760,647	62,38
761,076	62,49
761,506	62,49
761,935	63,11
762,365	62,57
762,794	62,58
763,223	61,74
763,653	62,67
764,082	62,5
764,51	62,37
764,939	62,28
765,368	62,42
765,797	62,61
766,225	61,97
766,654	62,19
767,082	62,18
767,51	62,29
767,938	61,89
768,367	62,42
768,795	62,14
769,222	61,71
769,65	62,02
770,078	61,93
770,505	61,77
770,933	61,58
771,36	61,8
771,788	61,8
772,215	62,02
772,642	61,65
773,069	61,5
773,496	61,66
773,923	61,32
774,349	61,69
774,776	61,67
775,203	62,09
775,629	61,86
776,055	62,01
776,482	62,11
776,908	61,86
777,334	61,36
777,76	61,38
778,186	61,58
778,611	61,68
779,037	62,08
779,463	61,49
779,888	61,22
780,314	61,7
780,739	61,23
781,164	61,11
781,589	61,46
782,014	61,32
782,439	61,31
782,864	61,72
783,289	61,66
783,713	60,95
784,138	61,74
784,562	61,08
784,987	61,38
785,411	61
785,835	61,62
786,259	62,03
786,683	61,67
787,107	61,05
787,531	61,43
787,954	61,25
788,378	61,54
788,802	61,18
789,225	61,37
789,648	61,38
790,071	61,22
790,495	61,13
790,918	61,25
791,34	61,21
791,763	60,95
792,186	61,15
792,609	61,31
793,031	60,71
793,454	61,38
793,876	61,15
794,298	61,45
794,721	61,22
795,143	60,61
795,565	61,46
795,986	60,95
796,408	61,03
796,83	60,85
797,252	61,41
797,673	60,72
798,094	61,33
798,516	60,93
798,937	61,13
799,358	61,53
799,779	61,09
800,2	60,96
800,621	60,71
801,042	61,07
801,462	60,67
801,883	61,07
802,303	60,7
802,724	61,36
803,144	61,46
803,564	61,29
803,984	60,94
804,404	60,8
804,824	61,07
805,244	60,95
805,664	60,92
806,084	61,05
806,503	60,45
806,923	60,79
807,342	61,27
807,761	60,99
808,18	61,33
808,599	60,8
809,018	60,63
809,437	61,09
809,856	60,51
810,275	61,29
810,693	61,38
811,112	61,11
811,53	61,5
811,949	61,18
812,367	61,09
812,785	60,89
813,203	60,59
813,621	60,97
814,039	61,27
814,457	60,35
814,874	60,87
815,292	60,54
815,709	60,73
816,127	60,93
816,544	60,54
816,961	60,66
817,378	60,71
817,795	60,52
818,212	60,75
818,629	60,93
819,046	61,1
819,462	61,42
819,879	61,02
820,295	60,52
820,712	61,16
821,128	60,95
821,544	60,73
821,96	60,99
822,376	61,34
822,792	60,96
823,208	61,04
823,624	60,92
824,039	60,87
824,455	60,91
824,87	60,57
825,286	60,94
825,701	60,48
826,116	60,82
826,531	60,82
826,946	60,73
827,361	60,8
827,776	60,51
828,19	61,05
828,605	59,7
829,02	60,31
829,434	60,07
829,848	60,6
830,263	60,4
830,677	60,6
831,091	60,36
831,505	60,43
831,919	60,35
832,332	60,36
832,746	60,98
833,16	60,72
833,573	60,39
833,987	60,09
834,4	60,66
834,813	60,38
