Data from F_5_Relative__8__00134.txt Node

Date: Tue Jan 30 10:09:01 CET 2024
User: diatiterra
Spectrometer: HDX00911
Trigger mode: 0
Integration Time (sec): 6,000000E-3
Scans to average: 2
Nonlinearity correction enabled: false
Boxcar width: 0
Storing dark spectrum: false
XAxis mode: Wavelengths
Number of Pixels in Spectrum: 2068
>>>>>Begin Spectral Data<<<<<
194,468	88,95
195,025	89,52
195,581	77,27
196,138	84,08
196,694	79,1
197,251	76,21
197,807	70,42
198,363	68,44
198,919	68,51
199,474	77,12
200,03	65,35
200,586	65,2
201,141	78,99
201,696	67,65
202,251	67,66
202,806	66,81
203,361	67,89
203,916	69,71
204,471	70,3
205,025	69,04
205,58	72,81
206,134	68,92
206,688	75,54
207,242	74,32
207,796	70,34
208,35	79,91
208,904	67,74
209,457	73,26
210,011	69,43
210,564	70,27
211,117	72,77
211,67	65,18
212,223	68,92
212,776	77,97
213,329	68,78
213,881	72,29
214,434	71,31
214,986	66,96
215,538	74,8
216,09	70,28
216,642	76,03
217,194	88,04
217,746	69,72
218,297	71,01
218,849	73,76
219,4	74,46
219,951	75,66
220,502	74,71
221,053	73,73
221,604	72,44
222,155	70,34
222,705	73,62
223,256	71,91
223,806	70,42
224,356	73,53
224,906	79,3
225,456	70,17
226,006	67,86
226,556	76,55
227,106	73,03
227,655	72,56
228,204	76,47
228,754	72,15
229,303	73,87
229,852	80,35
230,401	76,68
230,949	69,15
231,498	71,88
232,047	73,36
232,595	66,67
233,143	75,88
233,691	71,38
234,239	70,23
234,787	73,09
235,335	68,4
235,883	82,88
236,43	71,19
236,978	78,26
237,525	71,06
238,072	67,4
238,619	59,64
239,166	62,93
239,713	70,89
240,26	72,18
240,806	72,41
241,353	80,77
241,899	71,6
242,445	67,78
242,991	72,95
243,537	67,53
244,083	70,14
244,629	63,88
245,174	76,17
245,72	76,45
246,265	77,38
246,81	84,89
247,355	70,44
247,9	74,17
248,445	73,02
248,99	64,26
249,534	66,79
250,079	80,56
250,623	83,63
251,168	79,18
251,712	62,88
252,256	69,42
252,8	78,76
253,343	75,71
253,887	74,89
254,43	69,63
254,974	70
255,517	73,08
256,06	62,03
256,603	76,13
257,146	70,77
257,689	70,34
258,232	79,19
258,774	68,28
259,317	79,31
259,859	82,86
260,401	75,7
260,943	73,86
261,485	70
262,027	74,89
262,569	74,07
263,11	68,14
263,652	70,8
264,193	73,02
264,734	79,63
265,275	75,54
265,816	65,81
266,357	73,86
266,898	77,78
267,438	74,47
267,979	69,4
268,519	78,37
269,059	69,96
269,6	69,03
270,14	67,24
270,68	72,13
271,219	70,87
271,759	73,36
272,298	76,8
272,838	70,52
273,377	83,33
273,916	68,09
274,455	64,62
274,994	71,43
275,533	68,82
276,072	67,23
276,61	74,12
277,149	70,42
277,687	79,24
278,225	63,37
278,763	68,7
279,301	67,76
279,839	66,8
280,377	61,22
280,914	70,83
281,452	71,14
281,989	72,31
282,526	62,5
283,064	67,82
283,601	72,08
284,137	68,89
284,674	74,06
285,211	67,69
285,747	69,69
286,284	72,41
286,82	72,58
287,356	71,11
287,892	64,61
288,428	68,67
288,964	71,37
289,5	70,23
290,035	66,8
290,571	71,21
291,106	71,04
291,641	72,05
292,176	68
292,711	67,67
293,246	60,15
293,781	68,7
294,315	73,95
294,85	59,36
295,384	68,4
295,918	66
296,453	72,47
296,987	67,37
297,52	65,16
298,054	76,47
298,588	61,6
299,121	71,62
299,655	72,17
300,188	69,07
300,721	63,84
301,254	72,2
301,787	75
302,32	63,68
302,853	74,04
303,385	65,88
303,918	66,22
304,45	69
304,982	67,6
305,514	68,7
306,046	69,47
306,578	71,78
307,11	62,88
307,641	76,89
308,173	69,57
308,704	71,95
309,236	80,43
309,767	62,5
310,298	62
310,829	71,32
311,359	83,19
311,89	62,69
312,421	64,9
312,951	74,48
313,481	77,25
314,012	68,6
314,542	68,02
315,072	69,53
315,601	71,77
316,131	71,24
316,661	71,04
317,19	63,67
317,72	75
318,249	75,23
318,778	79,84
319,307	68,95
319,836	73,6
320,365	66,38
320,893	78,74
321,422	73,09
321,95	79,13
322,479	70,68
323,007	60,96
323,535	70,57
324,063	72,37
324,591	63,22
325,118	70,56
325,646	65,95
326,173	68,3
326,701	64,54
327,228	77,96
327,755	70,48
328,282	72,27
328,809	68,86
329,336	74,89
329,862	75,18
330,389	71,37
330,915	64,73
331,441	82,7
331,968	65,34
332,494	73,78
333,02	66,53
333,545	68,83
334,071	72,69
334,597	72,73
335,122	73,42
335,648	72
336,173	74,15
336,698	67,38
337,223	71,83
337,748	70,59
338,272	76,39
338,797	68,13
339,322	72,22
339,846	72,29
340,37	75,98
340,894	67,93
341,419	69,35
341,942	72,09
342,466	63,72
342,99	63,88
343,514	76,11
344,037	61,28
344,56	66,53
345,084	73,31
345,607	63,4
346,13	68,95
346,653	60,52
347,175	67,8
347,698	68,86
348,221	68,02
348,743	75,47
349,265	61,22
349,787	65,85
350,309	59,85
350,831	63,38
351,353	60,41
351,875	61,9
352,397	57,63
352,918	72,91
353,439	64,14
353,961	61,19
354,482	63,76
355,003	65,93
355,524	58,45
356,044	66,18
356,565	56,6
357,086	62,34
357,606	53,67
358,126	61,54
358,646	51,72
359,167	63,12
359,687	56,77
360,206	62,94
360,726	51,42
361,246	60,06
361,765	57,28
362,285	57,72
362,804	49,39
363,323	62,46
363,842	57,1
364,361	55,42
364,88	55,26
365,398	52,57
365,917	51,18
366,435	55,65
366,954	56,53
367,472	55,26
367,99	48,73
368,508	61,82
369,026	54,39
369,544	60,29
370,061	52,82
370,579	55,8
371,096	52,36
371,613	52,82
372,131	53,79
372,648	51,52
373,165	53,3
373,681	50,26
374,198	51,9
374,715	50
375,231	50,12
375,747	49,63
376,264	47,09
376,78	51,42
377,296	49,29
377,812	44,89
378,327	48,83
378,843	53,48
379,359	46,26
379,874	47,82
380,389	46,8
380,905	53,5
381,42	45,92
381,935	48,92
382,449	47,27
382,964	40,45
383,479	46,14
383,993	46
384,508	42,69
385,022	46,52
385,536	44,8
386,05	41,56
386,564	41,58
387,078	44,85
387,592	43,11
388,105	43,54
388,619	40,55
389,132	40,1
389,645	39,02
390,158	42,05
390,671	42
391,184	36,57
391,697	37,98
392,21	36,13
392,722	34,08
393,235	36,26
393,747	38,9
394,259	34,37
394,771	39,09
395,283	35,78
395,795	35,73
396,307	37,35
396,818	33,9
397,33	33,12
397,841	34,6
398,353	31,48
398,864	31
399,375	29,64
399,886	31,75
400,397	32,58
400,907	30,43
401,418	29,99
401,928	30,32
402,439	28,9
402,949	26,88
403,459	27,35
403,969	27,22
404,479	29,95
404,989	26,67
405,498	25,42
406,008	29,79
406,517	23,64
407,027	24,42
407,536	25,18
408,045	20,06
408,554	21,94
409,063	21,27
409,572	21,3
410,08	18,97
410,589	19,87
411,097	18,53
411,606	18,55
412,114	15,74
412,622	17,88
413,13	17,49
413,638	16,04
414,145	16,87
414,653	15,34
415,16	14,69
415,668	15,59
416,175	14,54
416,682	12,94
417,189	13,72
417,696	13,88
418,203	13,87
418,71	13,09
419,216	12,88
419,723	12,99
420,229	12,54
420,735	12,85
421,242	12,24
421,748	11,84
422,254	13,31
422,759	12,28
423,265	11,57
423,771	11,32
424,276	11,9
424,781	11,17
425,287	11,39
425,792	10,8
426,297	11,91
426,802	12,31
427,306	10,83
427,811	10,53
428,316	11,96
428,82	11,48
429,324	11,14
429,829	11,65
430,333	11,21
430,837	10,2
431,34	10,25
431,844	10,67
432,348	11,63
432,851	11,36
433,355	10,3
433,858	10,66
434,361	10,23
434,864	9,92
435,367	10,49
435,87	10,08
436,373	10
436,876	10,51
437,378	9,78
437,88	9,85
438,383	10,24
438,885	9,68
439,387	9,56
439,889	10,54
440,391	9,49
440,892	10,2
441,394	9,9
441,896	9,96
442,397	10,34
442,898	9,84
443,399	10,2
443,9	9,93
444,401	9,93
444,902	10,19
445,403	9,44
445,903	10,43
446,404	10,22
446,904	10
447,405	10,05
447,905	9,87
448,405	10,25
448,905	10,56
449,404	10,07
449,904	9,89
450,404	10,4
450,903	10,65
451,403	9,49
451,902	10,59
452,401	9,82
452,9	10,62
453,399	10,5
453,898	9,96
454,396	10,89
454,895	10,07
455,393	10,36
455,892	10,16
456,39	10,12
456,888	10,79
457,386	10,18
457,884	10,32
458,382	10,1
458,879	10,05
459,377	10,6
459,874	10,36
460,372	10,27
460,869	10,2
461,366	10,45
461,863	10,68
462,36	10,33
462,857	9,81
463,353	10
463,85	10,64
464,346	9,64
464,843	10,5
465,339	10,35
465,835	10,13
466,331	9,94
466,827	10,17
467,323	9,89
467,818	9,75
468,314	10,16
468,809	9,65
469,305	9,9
469,8	10,31
470,295	10,16
470,79	9,92
471,285	10,26
471,78	9,96
472,274	10,42
472,769	9,94
473,263	9,88
473,758	10,23
474,252	10,23
474,746	9,78
475,24	10,62
475,734	9,94
476,228	10,25
476,721	10,18
477,215	9,97
477,708	10,02
478,202	10,3
478,695	10,39
479,188	10,14
479,681	9,94
480,174	9,83
480,667	10,05
481,159	10,27
481,652	10,29
482,144	10,22
482,637	10,53
483,129	9,97
483,621	10,43
484,113	10,03
484,605	10,52
485,097	10,51
485,588	10,42
486,08	10,7
486,571	10,47
487,063	10,75
487,554	10,3
488,045	10,39
488,536	10,42
489,027	10,54
489,518	10,4
490,008	10,8
490,499	11,36
490,989	10,35
491,48	10,57
491,97	11,2
492,46	10,66
492,95	10,71
493,44	10,9
493,93	10,89
494,419	11,2
494,909	11,01
495,398	11,18
495,888	11,44
496,377	11,17
496,866	12,03
497,355	11,48
497,844	11,77
498,333	12,17
498,821	11,77
499,31	12,16
499,798	12,58
500,287	12,53
500,775	12,42
501,263	12,74
501,751	12,8
502,239	13,18
502,727	13,63
503,215	13,63
503,702	13,49
504,19	13,34
504,677	14,13
505,164	13,97
505,651	14,69
506,139	14,66
506,625	14,99
507,112	15,16
507,599	15,06
508,086	15,68
508,572	15,48
509,058	15,54
509,545	16,16
510,031	16,64
510,517	16,82
511,003	16,74
511,489	17,56
511,974	17,71
512,46	17,87
512,946	18,43
513,431	18,08
513,916	18,72
514,401	18,95
514,887	19,29
515,371	19,68
515,856	19,61
516,341	20,04
516,826	20,48
517,31	21,01
517,795	21,28
518,279	21,36
518,763	21,92
519,247	22,29
519,731	22,4
520,215	22,59
520,699	23,14
521,182	23,18
521,666	23,67
522,149	24,33
522,633	24,51
523,116	24,67
523,599	25,51
524,082	25,22
524,565	25,54
525,048	26,39
525,53	26,37
526,013	27,1
526,495	27,08
526,978	26,86
527,46	27,33
527,942	28,09
528,424	28,08
528,906	27,98
529,388	28,05
529,87	28,6
530,351	28,4
530,833	28,88
531,314	29,4
531,795	29,47
532,277	29,27
532,758	29,18
533,238	29,78
533,719	29,92
534,2	29,7
534,681	30,67
535,161	30,27
535,642	29,98
536,122	30,5
536,602	30,17
537,082	30,21
537,562	30,62
538,042	30,18
538,522	30,41
539,001	30,7
539,481	30,46
539,96	30,96
540,44	30,97
540,919	31,3
541,398	30,46
541,877	30,84
542,356	31,18
542,835	31,09
543,313	30,8
543,792	31,24
544,27	31,52
544,749	31,36
545,227	30,88
545,705	31,28
546,183	31,33
546,661	31,95
547,139	31,18
547,616	31,78
548,094	31,62
548,571	31,83
549,049	32,13
549,526	31,87
550,003	32,01
550,48	32,28
550,957	31,96
551,434	31,81
551,911	32,18
552,387	31,75
552,864	31,66
553,34	31,97
553,817	31,74
554,293	31,88
554,769	31,83
555,245	31,89
555,721	32,18
556,197	32,03
556,672	31,66
557,148	31,76
557,623	31,91
558,099	31,71
558,574	31,43
559,049	31,38
559,524	31,85
559,999	31,55
560,474	31,27
560,948	31,46
561,423	30,7
561,897	31,42
562,372	31,19
562,846	31,01
563,32	31,28
563,794	30,85
564,268	30,78
564,742	30,9
565,216	30,61
565,69	30,29
566,163	30,52
566,636	30,19
567,11	30,38
567,583	29,99
568,056	29,15
568,529	29,56
569,002	29,73
569,475	29,15
569,947	29,05
570,42	28,91
570,892	28,8
571,365	28,58
571,837	28,63
572,309	28,42
572,781	27,94
573,253	27,68
573,725	27,38
574,197	26,91
574,668	27,63
575,14	26,93
575,611	26,98
576,082	26,44
576,554	26,71
577,025	26,5
577,496	26,2
577,967	26,22
578,437	26,08
578,908	26,15
579,379	25,35
579,849	25,59
580,319	25,96
580,79	25,31
581,26	25,2
581,73	24,85
582,2	24,98
582,669	25,01
583,139	25,02
583,609	24,77
584,078	24,29
584,548	24,62
585,017	24,58
585,486	24,38
585,955	23,8
586,424	24,06
586,893	23,91
587,362	23,75
587,83	23,63
588,299	23,62
588,767	23,69
589,236	23,31
589,704	22,97
590,172	23,34
590,64	23,11
591,108	23,16
591,576	22,93
592,043	22,94
592,511	22,82
592,978	23
593,446	23,01
593,913	22,77
594,38	22,89
594,847	22,64
595,314	22,47
595,781	23
596,248	22,54
596,715	22,76
597,181	22,56
597,647	22,55
598,114	22,08
598,58	22,36
599,046	22,13
599,512	22,3
599,978	21,91
600,444	22,06
600,91	22,24
601,375	22,36
601,841	22,05
602,306	22,14
602,771	21,8
603,236	21,68
603,702	21,77
604,167	21,69
604,631	21,98
605,096	21,47
605,561	21,47
606,025	21,22
606,49	21,13
606,954	21,39
607,418	21,27
607,882	20,88
608,347	21,12
608,81	20,93
609,274	20,83
609,738	21
610,202	20,84
610,665	20,61
611,128	20,46
611,592	20,27
612,055	20,15
612,518	19,99
612,981	20,11
613,444	19,84
613,907	19,95
614,369	19,61
614,832	19,41
615,294	19,36
615,757	19,58
616,219	19,59
616,681	19,08
617,143	18,96
617,605	19,16
618,067	18,84
618,529	18,83
618,99	18,73
619,452	18,82
619,913	18,99
620,375	18,57
620,836	18,62
621,297	18,59
621,758	18,4
622,219	18,13
622,68	18,33
623,14	18,2
623,601	18,29
624,061	18,19
624,522	18,14
624,982	17,98
625,442	17,84
625,902	17,98
626,362	18,14
626,822	17,98
627,282	18,29
627,742	17,72
628,201	17,94
628,661	17,74
629,12	17,77
629,579	17,58
630,038	17,73
630,497	17,88
630,956	17,92
631,415	17,7
631,874	17,62
632,332	17,48
632,791	17,35
633,249	17,7
633,708	17,75
634,166	17,51
634,624	17,31
635,082	17,31
635,54	17,13
635,998	16,97
636,455	16,87
636,913	16,84
637,37	16,63
637,828	16,81
638,285	16,41
638,742	16,76
639,199	16,16
639,656	16,22
640,113	16,02
640,57	15,84
641,027	15,68
641,483	15,63
641,94	15,54
642,396	15,46
642,852	15,13
643,309	14,89
643,765	14,89
644,221	14,68
644,676	14,47
645,132	14,65
645,588	14,22
646,043	13,89
646,499	13,99
646,954	13,95
647,409	13,85
647,864	13,65
648,319	13,45
648,774	13,21
649,229	13,23
649,684	13,27
650,139	13,14
650,593	13
651,047	12,75
651,502	12,76
651,956	12,99
652,41	12,8
652,864	12,71
653,318	12,73
653,772	12,77
654,225	12,33
654,679	12,39
655,133	12,39
655,586	12,35
656,039	12,18
656,492	12,11
656,946	12,15
657,399	12,08
657,851	11,91
658,304	11,82
658,757	11,7
659,209	11,83
659,662	11,62
660,114	11,55
660,567	11,15
661,019	11,21
661,471	11,3
661,923	11,25
662,375	10,95
662,826	10,81
663,278	10,6
663,73	10,65
664,181	10,63
664,632	10,69
665,084	10,47
665,535	10,27
665,986	10,39
666,437	10,29
666,888	10,21
667,338	10,23
667,789	10,06
668,24	10,08
668,69	9,94
669,14	9,97
669,591	9,93
670,041	10,08
670,491	10,02
670,941	9,96
671,391	9,91
671,84	10,07
672,29	10,16
672,74	9,95
673,189	10,22
673,638	10,12
674,088	10,28
674,537	10,32
674,986	10,47
675,435	10,46
675,883	10,53
676,332	10,79
676,781	10,69
677,229	10,87
677,678	10,97
678,126	10,95
678,574	11,04
679,022	11,31
679,47	11,2
679,918	11,61
680,366	11,66
680,814	11,64
681,261	11,74
681,709	11,92
682,156	11,92
682,604	12,32
683,051	12,21
683,498	12,56
683,945	12,72
684,392	12,97
684,839	12,93
685,286	13,22
685,732	13,45
686,179	13,58
686,625	13,88
687,071	14,03
687,518	14,13
687,964	14,66
688,41	14,9
688,856	15,22
689,301	15,48
689,747	16,14
690,193	16,54
690,638	16,99
691,084	17,06
691,529	17,72
691,974	18,26
692,419	18,78
692,864	19,22
693,309	19,83
693,754	20,37
694,199	20,99
694,643	21,43
695,088	21,86
695,532	22,7
695,977	23,34
696,421	24,01
696,865	24,17
697,309	24,93
697,753	25,52
698,197	26,2
698,64	26,73
699,084	27,21
699,527	27,72
699,971	28,11
700,414	28,99
700,857	28,89
701,3	29,78
701,743	30,26
702,186	30,82
702,629	31,15
703,072	31,73
703,515	32,31
703,957	32,52
704,399	33,1
704,842	33,4
705,284	33,78
705,726	34,31
706,168	34,92
706,61	35,02
707,052	35,31
707,494	35,65
707,935	35,91
708,377	37,08
708,818	36,74
709,26	37,49
709,701	37,89
710,142	37,79
710,583	38,36
711,024	38,67
711,465	39,04
711,905	39,11
712,346	39,38
712,787	39,82
713,227	40,58
713,667	40,43
714,108	40,68
714,548	41,15
714,988	41,43
715,428	41,12
715,868	41,68
716,307	42,15
716,747	42,41
717,186	42,6
717,626	43,17
718,065	43,1
718,504	43,12
718,944	43,29
719,383	43,74
719,822	44,11
720,261	44,53
720,699	44,35
721,138	44,59
721,576	44,36
722,015	44,67
722,453	45,34
722,892	45,28
723,33	45,55
723,768	45,24
724,206	45,74
724,644	46,31
725,081	46,08
725,519	46,24
725,957	46,2
726,394	46,56
726,832	46,47
727,269	46,68
727,706	46,76
728,143	47,33
728,58	46,97
729,017	47,11
729,454	46,94
729,89	47,11
730,327	47,85
730,764	47,2
731,2	47,88
731,636	47,71
732,072	47,61
732,509	47,49
732,945	47,75
733,38	48,32
733,816	47,92
734,252	48,04
734,688	48,16
735,123	48,29
735,559	47,76
735,994	48,18
736,429	48,2
736,864	48,43
737,299	48,59
737,734	48,26
738,169	48,86
738,604	48,54
739,038	48,34
739,473	48,51
739,907	48,6
740,342	48,84
740,776	48,51
741,21	48,58
741,644	48,78
742,078	48,78
742,512	49,06
742,946	48,83
743,379	48,8
743,813	48,91
744,246	49,09
744,68	48,75
745,113	48,9
745,546	48,36
745,979	48,7
746,412	49,25
746,845	48,38
747,278	48,32
747,711	48,71
748,143	48,69
748,576	48,86
749,008	48,32
749,441	48,4
749,873	48,32
750,305	48,36
750,737	47,93
751,169	48,94
751,601	48,38
752,032	48,42
752,464	48,39
752,896	48,21
753,327	48,37
753,758	48,29
754,19	48,33
754,621	48,47
755,052	48,05
755,483	48,19
755,914	47,5
756,344	48,58
756,775	48,2
757,206	47,64
757,636	47,96
758,066	47,8
758,497	47,91
758,927	47,97
759,357	48,04
759,787	48
760,217	47,67
760,647	47,6
761,076	47,83
761,506	47,58
761,935	47,92
762,365	47,32
762,794	47,65
763,223	47,38
763,653	47,61
764,082	47,29
764,51	47,41
764,939	47,8
765,368	47,19
765,797	48,09
766,225	47,16
766,654	46,99
767,082	47,26
767,51	47,36
767,938	46,99
768,367	47,54
768,795	47,07
769,222	46,94
769,65	47,41
770,078	46,85
770,505	47,2
770,933	46,91
771,36	47,19
771,788	46,99
772,215	47,09
772,642	46,57
773,069	47,17
773,496	46,87
773,923	46,93
774,349	46,6
774,776	46,82
775,203	46,97
775,629	46,48
776,055	46,81
776,482	46,86
776,908	46,71
777,334	46,45
777,76	46,92
778,186	46,7
778,611	46,93
779,037	46,88
779,463	46,97
779,888	46,38
780,314	46,88
780,739	46,34
781,164	46,53
781,589	46,79
782,014	46,48
782,439	46,72
782,864	46,35
783,289	46,52
783,713	46,5
784,138	46,91
784,562	46,59
784,987	46,38
785,411	46,31
785,835	46,87
786,259	46,75
786,683	46,45
787,107	46,54
787,531	46,78
787,954	46,31
788,378	46,47
788,802	46,56
789,225	46,1
789,648	46,48
790,071	46,32
790,495	46,26
790,918	46,45
791,34	45,88
791,763	46,05
792,186	46,59
792,609	46,12
793,031	46,02
793,454	46,52
793,876	46,24
794,298	46,14
794,721	46,18
795,143	46,09
795,565	46,46
795,986	46,03
796,408	46,14
796,83	46,52
797,252	46,16
797,673	45,71
798,094	46,4
798,516	46
798,937	46,13
799,358	46,08
799,779	46,64
800,2	45,93
800,621	45,83
801,042	46,23
801,462	46,13
801,883	45,91
802,303	46
802,724	46,18
803,144	46,22
803,564	46,03
803,984	46,09
804,404	45,98
804,824	46
805,244	46,32
805,664	46,38
806,084	45,85
806,503	45,65
806,923	45,96
807,342	46,17
807,761	46,3
808,18	46,36
808,599	46,34
809,018	46,16
809,437	45,96
809,856	45,81
810,275	46,31
810,693	45,92
811,112	46,16
811,53	46,16
811,949	46,3
812,367	46,48
812,785	46,09
813,203	45,98
813,621	45,9
814,039	46,01
814,457	46,03
814,874	45,69
815,292	46,22
815,709	45,82
816,127	46,04
816,544	45,3
816,961	45,93
817,378	45,94
817,795	45,63
818,212	46,26
818,629	45,82
819,046	45,95
819,462	46,05
819,879	46,21
820,295	45,75
820,712	45,9
821,128	46,17
821,544	45,81
821,96	45,93
822,376	46,1
822,792	46,12
823,208	45,9
823,624	45,86
824,039	45,72
824,455	45,97
824,87	45,63
825,286	45,68
825,701	45,26
826,116	45,75
826,531	45,63
826,946	46,21
827,361	46,02
827,776	45,77
828,19	45,98
828,605	45,32
829,02	45,9
829,434	45,69
829,848	45,74
830,263	45,52
830,677	45,69
831,091	45,29
831,505	45,97
831,919	45,71
832,332	45,71
832,746	45,95
833,16	45,32
833,573	45,63
833,987	45,56
834,4	45,46
834,813	45,39
835,226	45,53
835,639	45,9
836,052	45,94
