Data from G_2_Relative__9__00144.txt Node

Date: Tue Jan 30 10:10:11 CET 2024
User: diatiterra
Spectrometer: HDX00911
Trigger mode: 0
Integration Time (sec): 6,000000E-3
Scans to average: 2
Nonlinearity correction enabled: false
Boxcar width: 0
Storing dark spectrum: false
XAxis mode: Wavelengths
Number of Pixels in Spectrum: 2068
>>>>>Begin Spectral Data<<<<<
194,468	95,58
195,025	95,16
195,581	97,73
196,138	88,54
196,694	91,04
197,251	77,53
197,807	80
198,363	75
198,919	70,64
199,474	76,69
200,03	66,54
200,586	77,09
201,141	76,47
201,696	73,95
202,251	82,09
202,806	82,98
203,361	79,27
203,916	74,27
204,471	79,7
205,025	70,29
205,58	72,35
206,134	70,52
206,688	81,97
207,242	86,04
207,796	69,07
208,35	83,56
208,904	73,39
209,457	83,33
210,011	83,41
210,564	77,93
211,117	79,15
211,67	75,3
212,223	69,32
212,776	79,24
213,329	75,11
213,881	80,95
214,434	72,13
214,986	78,57
215,538	80,31
216,09	81,12
216,642	80,99
217,194	81,82
217,746	76,49
218,297	81,09
218,849	79,85
219,4	77,49
219,951	88,94
220,502	76,26
221,053	84,75
221,604	80,31
222,155	83,05
222,705	73,62
223,256	75,28
223,806	72,92
224,356	78,92
224,906	79,3
225,456	84,03
226,006	72,32
226,556	79,2
227,106	78,42
227,655	77,67
228,204	82,81
228,754	81,43
229,303	85,14
229,852	90,39
230,401	86,55
230,949	68,09
231,498	89,29
232,047	75,41
232,595	77,91
233,143	89,91
233,691	75,97
234,239	72,9
234,787	80,72
235,335	80,52
235,883	83,78
236,43	79,24
236,978	82,17
237,525	84,68
238,072	85,46
238,619	73,09
239,166	72,84
239,713	76,79
240,26	78,63
240,806	79,31
241,353	93,59
241,899	79,42
242,445	75,31
242,991	84,02
243,537	77,49
244,083	84,62
244,629	80,62
245,174	85,96
245,72	79,92
246,265	84,62
246,81	86,67
247,355	74,09
247,9	85,83
248,445	77,78
248,99	72,77
249,534	74,72
250,079	90,28
250,623	91,15
251,168	83,67
251,712	69,43
252,256	77,27
252,8	85,4
253,343	92,71
253,887	86,15
254,43	76,67
254,974	85,2
255,517	86,06
256,06	71,31
256,603	85,19
257,146	74,23
257,689	75
258,232	78,28
258,774	82,38
259,317	77,16
259,859	83,81
260,401	82,24
260,943	81,74
261,485	91,36
262,027	85,11
262,569	84,26
263,11	81,86
263,652	81,42
264,193	80,47
264,734	90,28
265,275	80,69
265,816	72,22
266,357	73,86
266,898	84,19
267,438	84,26
267,979	74,14
268,519	81,73
269,059	69,96
269,6	74,78
270,14	71,12
270,68	76,23
271,219	83,04
271,759	80,79
272,298	72,4
272,838	76,49
273,377	86,49
273,916	78,99
274,455	72,31
274,994	89,86
275,533	71,1
276,072	74,47
276,61	79,39
277,149	75
277,687	81,78
278,225	71,19
278,763	67,94
279,301	86,53
279,839	79,51
280,377	74,69
280,914	78,24
281,452	85,77
281,989	77,69
282,526	71,67
283,064	73,95
283,601	85,83
284,137	80
284,674	79,5
285,211	76,86
285,747	75,59
286,284	78,88
286,82	81,85
287,356	78,22
287,892	74,9
288,428	68,67
288,964	80,91
289,5	81,86
290,035	77,18
290,571	79,38
291,106	82,35
291,641	79,04
292,176	76,4
292,711	82,33
293,246	74,33
293,781	76,96
294,315	79,53
294,85	66,53
295,384	73,11
295,918	75,6
296,453	78,54
296,987	75
297,52	81
298,054	81,9
298,588	74,8
299,121	76,58
299,655	78,3
300,188	77,54
300,721	83,48
301,254	86,1
301,787	79,39
302,32	74,36
302,853	85,96
303,385	74,9
303,918	75,11
304,45	79,48
304,982	75,6
305,514	75,61
306,046	76,99
306,578	74,69
307,11	73,48
307,641	73,95
308,173	80,43
308,704	82,11
309,236	84,35
309,767	72,92
310,298	79,6
310,829	70,93
311,359	82,3
311,89	80,38
312,421	68,16
312,951	84,52
313,481	82,46
314,012	77,91
314,542	74,32
315,072	78,11
315,601	83,87
316,131	79,83
316,661	70,66
317,19	69,39
317,72	70,34
318,249	76,61
318,778	82,3
319,307	84,27
319,836	77,2
320,365	85,96
320,893	76,38
321,422	75,34
321,95	83,04
322,479	72,69
323,007	66,53
323,535	76,23
324,063	77,43
324,591	74,71
325,118	72,29
325,646	69,83
326,173	84,82
326,701	75,3
327,228	75,51
327,755	83,81
328,282	82,73
328,809	79,39
329,336	81,28
329,862	77,01
330,389	74,89
330,915	65,12
331,441	91,14
331,968	66,53
332,494	77,33
333,02	72,38
333,545	76,92
334,071	75,63
334,597	72,73
335,122	77,48
335,648	72
336,173	77,97
336,698	73,39
337,223	85,45
337,748	78,04
338,272	73,39
338,797	72,11
339,322	77,78
339,846	71,89
340,37	74,67
340,894	81,43
341,419	79,84
341,942	73,64
342,466	70,35
342,99	71,48
343,514	81,38
344,037	68,42
344,56	73,31
345,084	83,05
345,607	75,85
346,13	81,45
346,653	71,22
347,175	73,31
347,698	79,49
348,221	72,47
348,743	83,77
349,265	70,61
349,787	65,51
350,309	67,52
350,831	69,37
351,353	73,88
351,875	73,99
352,397	64,41
352,918	79,68
353,439	68,13
353,961	73,78
354,482	68,46
355,003	62,78
355,524	68,58
356,044	68,36
356,565	68,06
357,086	64,61
357,606	56,33
358,126	68,56
358,646	57,24
359,167	71,43
359,687	66,01
360,206	72,2
360,726	64,98
361,246	65,33
361,765	62,78
362,285	64,43
362,804	60,67
363,323	65,17
363,842	71,29
364,361	58,2
364,88	60,96
365,398	64,35
365,917	56,8
366,435	60,06
366,954	62,61
367,472	61,86
367,99	60,34
368,508	63,64
369,026	58,07
369,544	62,9
370,061	54,42
370,579	66,02
371,096	59,95
371,613	54,42
372,131	54,31
372,648	59,39
373,165	55,67
373,681	55,76
374,198	57,97
374,715	56,96
375,231	54,57
375,747	53,58
376,264	52,18
376,78	54,03
377,296	45
377,812	52,62
378,327	54,23
378,843	54,68
379,359	50,66
379,874	50,1
380,389	51,6
380,905	53,93
381,42	48,57
381,935	50,65
382,449	50,98
382,964	50,09
383,479	49,06
383,993	51,4
384,508	46,35
385,022	45,76
385,536	48,14
386,05	46,75
386,564	44,04
387,078	47,12
387,592	43,61
388,105	45,86
388,619	42,16
389,132	43,93
389,645	40,55
390,158	45,67
390,671	44,2
391,184	41,58
391,697	41,82
392,21	39,24
392,722	39,97
393,235	39,42
393,747	39,89
394,259	38,37
394,771	39,94
395,283	37,38
395,795	39,73
396,307	39,87
396,818	35,07
397,33	37,27
397,841	33,94
398,353	35,35
398,864	33,09
399,375	34,87
399,886	30,29
400,397	36,25
400,907	30,43
401,418	32,68
401,928	31,14
402,439	30,56
402,949	29,97
403,459	26,74
403,969	27,7
404,479	29,76
404,989	27,31
405,498	26,65
406,008	28,58
406,517	25,17
407,027	24,66
407,536	26,63
408,045	22,74
408,554	22,3
409,063	22,12
409,572	21,64
410,08	21,16
410,589	19,56
411,097	19,55
411,606	18,96
412,114	15,97
412,622	16,13
413,13	16,63
413,638	16,35
414,145	16,97
414,653	14,69
415,16	16,01
415,668	16,78
416,175	13,48
416,682	14,41
417,189	13,31
417,696	14,42
418,203	13,29
418,71	12,5
419,216	12,85
419,723	13,11
420,229	11,83
420,735	12,02
421,242	11,71
421,748	12,3
422,254	12,13
422,759	11,22
423,265	11,7
423,771	10,49
424,276	11,78
424,781	10,98
425,287	11,39
425,792	11,19
426,297	10,71
426,802	10,82
427,306	11,21
427,811	11,4
428,316	11,01
428,82	10,27
429,324	10,81
429,829	10,61
430,333	10,31
430,837	10,39
431,34	9,92
431,844	9,79
432,348	10,42
432,851	10,19
433,355	9,67
433,858	10,05
434,361	10,38
434,864	9,77
435,367	10,22
435,87	9,38
436,373	9,84
436,876	10,66
437,378	9,82
437,88	9,33
438,383	9,7
438,885	9,72
439,387	9,36
439,889	9,6
440,391	9,27
440,892	9,7
441,394	9,05
441,896	9,41
442,397	9,41
442,898	9,44
443,399	9,17
443,9	9,2
444,401	8,92
444,902	8,91
445,403	9,24
445,903	8,97
446,404	9,58
446,904	9,3
447,405	9,23
447,905	9,27
448,405	9,39
448,905	9,59
449,404	8,96
449,904	9,12
450,404	8,75
450,903	9,19
451,403	8,69
451,902	9,22
452,401	9,48
452,9	9,08
453,399	9,28
453,898	8,67
454,396	9,36
454,895	9,02
455,393	9,34
455,892	9,6
456,39	9,13
456,888	9,34
457,386	9,17
457,884	9,05
458,382	10,3
458,879	9,51
459,377	9,36
459,874	8,92
460,372	9,57
460,869	9,12
461,366	9,3
461,863	9,04
462,36	9,14
462,857	9,03
463,353	9,62
463,85	9,17
464,346	9,1
464,843	8,91
465,339	9,19
465,835	9,13
466,331	8,79
466,827	8,7
467,323	9,29
467,818	9,22
468,314	9,28
468,809	9
469,305	8,85
469,8	8,96
470,295	8,92
470,79	8,86
471,285	9,38
471,78	8,89
472,274	8,61
472,769	8,92
473,263	8,97
473,758	8,93
474,252	8,77
474,746	8,88
475,24	9,07
475,734	9,35
476,228	8,9
476,721	8,87
477,215	8,97
477,708	8,87
478,202	8,77
478,695	8,78
479,188	9,04
479,681	8,72
480,174	8,85
480,667	8,53
481,159	9,08
481,652	9,17
482,144	9,15
482,637	8,5
483,129	8,63
483,621	8,97
484,113	8,6
484,605	9,04
485,097	9,04
485,588	9,22
486,08	9,49
486,571	8,45
487,063	9,38
487,554	8,68
488,045	8,62
488,536	9,1
489,027	9,25
489,518	8,81
490,008	8,89
490,499	9,52
490,989	8,82
491,48	9,29
491,97	9,44
492,46	9,16
492,95	8,86
493,44	9,54
493,93	9,37
494,419	9,57
494,909	9,5
495,398	9,58
495,888	9,78
496,377	9,65
496,866	9,09
497,355	10,25
497,844	9,51
498,333	9,67
498,821	9,7
499,31	9,94
499,798	10,14
500,287	10,2
500,775	9,85
501,263	10,44
501,751	9,86
502,239	10,6
502,727	10,58
503,215	11,22
503,702	10,8
504,19	11,07
504,677	11
505,164	11,34
505,651	11,27
506,139	11,85
506,625	11,33
507,112	11,9
507,599	11,84
508,086	12,38
508,572	12,53
509,058	12,05
509,545	12,91
510,031	13,22
510,517	13,59
511,003	12,86
511,489	13,93
511,974	13,66
512,46	14,16
512,946	14,26
513,431	14,66
513,916	15,14
514,401	15,32
514,887	15,44
515,371	16
515,856	16,17
516,341	16,4
516,826	17,11
517,31	16,98
517,795	17,89
518,279	17,58
518,763	18,37
519,247	18,58
519,731	18,59
520,215	19,16
520,699	19,13
521,182	19,88
521,666	19,86
522,149	20,37
522,633	21,53
523,116	21,79
523,599	21,79
524,082	21,99
524,565	22,57
525,048	22,96
525,53	22,88
526,013	23,34
526,495	23,83
526,978	24,52
527,46	24,26
527,942	24,86
528,424	25,31
528,906	25,84
529,388	25,48
529,87	25,58
530,351	25,23
530,833	26,3
531,314	26,22
531,795	26,51
532,277	26,74
532,758	26,74
533,238	27,49
533,719	27,23
534,2	27,26
534,681	27,15
535,161	28,02
535,642	27,52
536,122	28,05
536,602	28,5
537,082	28,06
537,562	28,14
538,042	28,52
538,522	28,12
539,001	28,61
539,481	28,55
539,96	28,76
540,44	28,92
540,919	28,69
541,398	28,37
541,877	28,63
542,356	29,23
542,835	28,62
543,313	28,92
543,792	28,97
544,27	29,48
544,749	29,13
545,227	29,63
545,705	29,22
546,183	29,55
546,661	29,68
547,139	29,6
547,616	29,54
548,094	29,77
548,571	29,34
549,049	29,77
549,526	30,03
550,003	29,49
550,48	29,94
550,957	29,75
551,434	29,51
551,911	29,67
552,387	29,71
552,864	29,78
553,34	29,91
553,817	29,51
554,293	29,96
554,769	29,65
555,245	30,22
555,721	30,19
556,197	29,22
556,672	30,14
557,148	29,23
557,623	29,62
558,099	29,48
558,574	29,88
559,049	29,32
559,524	29,48
559,999	29,09
560,474	28,99
560,948	29,2
561,423	28,69
561,897	28,65
562,372	28,49
562,846	28,57
563,32	28,64
563,794	28,59
564,268	28,52
564,742	28,31
565,216	27,72
565,69	27,42
566,163	27,69
566,636	27,3
567,11	27,38
567,583	27,2
568,056	26,72
568,529	26,4
569,002	26,21
569,475	26,21
569,947	25,78
570,42	26,08
570,892	25,46
571,365	25,56
571,837	25,48
572,309	24,94
572,781	24,38
573,253	24,8
573,725	24,4
574,197	24,13
574,668	24,3
575,14	24,03
575,611	23,5
576,082	23,2
576,554	23,41
577,025	22,95
577,496	22,94
577,967	22,84
578,437	22,48
578,908	22,06
579,379	22,55
579,849	22,11
580,319	22,02
580,79	21,61
581,26	21,19
581,73	21,26
582,2	21,64
582,669	21,25
583,139	21,14
583,609	21,3
584,078	21,31
584,548	20,95
585,017	20,75
585,486	20,54
585,955	20,34
586,424	20,5
586,893	20,01
587,362	20,13
587,83	19,51
588,299	19,94
588,767	19,89
589,236	19,55
589,704	19,97
590,172	19,56
590,64	19,35
591,108	19,36
591,576	19,44
592,043	19,41
592,511	19,28
592,978	19,28
593,446	19,3
593,913	19,3
594,38	19,04
594,847	19,08
595,314	18,97
595,781	19,26
596,248	18,77
596,715	19,17
597,181	18,86
597,647	18,71
598,114	18,6
598,58	18,7
599,046	18,95
599,512	18,48
599,978	18,52
600,444	18,79
600,91	18,56
601,375	18,54
601,841	18,33
602,306	18,26
602,771	18,12
603,236	18,27
603,702	18,21
604,167	17,86
604,631	18,07
605,096	17,97
605,561	18,02
606,025	17,4
606,49	17,63
606,954	17,42
607,418	17,62
607,882	17,27
608,347	17,28
608,81	17,23
609,274	17,21
609,738	17,08
610,202	16,73
610,665	16,74
611,128	16,39
611,592	16,25
612,055	16,35
612,518	16,24
612,981	16,14
613,444	15,99
613,907	15,93
614,369	16,03
614,832	15,77
615,294	15,43
615,757	15,46
616,219	15,54
616,681	15,28
617,143	15,39
617,605	15,09
618,067	15,19
618,529	15,18
618,99	14,94
619,452	14,89
619,913	14,8
620,375	15,02
620,836	14,69
621,297	14,56
621,758	14,57
622,219	14,25
622,68	14,3
623,14	14,11
623,601	14,5
624,061	14,15
624,522	14,2
624,982	14,06
625,442	14,02
625,902	13,93
626,362	14,11
626,822	14,04
627,282	13,94
627,742	14,08
628,201	14,1
628,661	13,87
629,12	13,93
629,579	13,83
630,038	13,86
630,497	14,03
630,956	14,05
631,415	13,89
631,874	13,81
632,332	13,64
632,791	13,78
633,249	13,66
633,708	13,52
634,166	13,64
634,624	13,52
635,082	13,58
635,54	13,36
635,998	13,29
636,455	13,16
636,913	13,13
637,37	13,04
637,828	13,01
638,285	12,91
638,742	12,78
639,199	12,51
639,656	12,51
640,113	12,4
640,57	12,19
641,027	12,37
641,483	12,23
641,94	12,14
642,396	11,95
642,852	11,87
643,309	11,69
643,765	11,53
644,221	11,38
644,676	11,29
645,132	11,3
645,588	11,37
646,043	11,09
646,499	10,89
646,954	10,77
647,409	10,77
647,864	10,58
648,319	10,59
648,774	10,39
649,229	10,16
649,684	10,19
650,139	10,07
650,593	9,99
651,047	10,05
651,502	9,88
651,956	9,72
652,41	9,73
652,864	9,77
653,318	9,7
653,772	9,5
654,225	9,54
654,679	9,5
655,133	9,72
655,586	9,4
656,039	9,39
656,492	9,27
656,946	9,28
657,399	9,29
657,851	9,21
658,304	9,12
658,757	8,87
659,209	8,77
659,662	8,84
660,114	8,68
660,567	8,54
661,019	8,61
661,471	8,42
661,923	8,24
662,375	8,33
662,826	8,17
663,278	8,12
663,73	8,19
664,181	8,26
664,632	8,06
665,084	8,03
665,535	7,91
665,986	8,11
666,437	7,92
666,888	7,88
667,338	7,95
667,789	7,93
668,24	8
668,69	7,88
669,14	7,79
669,591	7,96
670,041	7,73
670,491	8,08
670,941	7,89
671,391	7,99
671,84	8,13
672,29	7,96
672,74	7,94
673,189	8,03
673,638	8,06
674,088	8,34
674,537	8,27
674,986	8,29
675,435	8,29
675,883	8,42
676,332	8,44
676,781	8,46
677,229	8,61
677,678	8,78
678,126	8,68
678,574	9,01
679,022	9,03
679,47	9,04
679,918	9,07
680,366	9,21
680,814	9,25
681,261	9,44
681,709	9,64
682,156	9,74
682,604	9,79
683,051	9,77
683,498	9,9
683,945	10,01
684,392	10,08
684,839	10,38
685,286	10,4
685,732	10,66
686,179	10,56
686,625	10,64
687,071	10,95
687,518	11,1
687,964	11,31
688,41	11,42
688,856	11,6
689,301	11,93
689,747	12,31
690,193	12,62
690,638	13,02
691,084	13,18
691,529	13,72
691,974	14
692,419	14,46
692,864	14,85
693,309	15,87
693,754	16,14
694,199	16,68
694,643	17,18
695,088	17,57
695,532	18,6
695,977	18,83
696,421	19,83
696,865	20,29
697,309	20,9
697,753	21,86
698,197	22,48
698,64	23,28
699,084	23,9
699,527	24,89
699,971	25,01
700,414	26,29
700,857	26,25
701,3	27,3
701,743	27,81
702,186	28,38
702,629	29,3
703,072	29,94
703,515	30,35
703,957	30,97
704,399	31,92
704,842	32,6
705,284	33,24
705,726	34,06
706,168	34,58
706,61	35,12
707,052	35,56
707,494	36,66
707,935	36,83
708,377	37,59
708,818	37,75
709,26	38,47
709,701	39,12
710,142	39,77
710,583	40,56
711,024	41
711,465	41,29
711,905	42,04
712,346	42,23
712,787	42,72
713,227	43,82
713,667	43,99
714,108	44,22
714,548	45,66
714,988	45,81
715,428	45,82
715,868	46,44
716,307	46,9
716,747	47,83
717,186	48,15
717,626	48,56
718,065	48,95
718,504	49,45
718,944	49,72
719,383	49,85
719,822	50,66
720,261	51
720,699	51,34
721,138	51,88
721,576	52,6
722,015	52,73
722,453	53,06
722,892	53,85
723,33	53,46
723,768	53,59
724,206	54,72
724,644	54,66
725,081	54,35
725,519	55,41
725,957	55,27
726,394	56,03
726,832	55,94
727,269	56,17
727,706	56,96
728,143	57,14
728,58	57,44
729,017	57,66
729,454	57,57
729,89	57,7
730,327	58,35
730,764	58,63
731,2	58,65
731,636	58,82
732,072	59,08
732,509	58,88
732,945	59,2
733,38	59,05
733,816	59,3
734,252	59,73
734,688	59,67
735,123	59,86
735,559	59,74
735,994	60,06
736,429	60,04
736,864	60,47
737,299	60,41
737,734	60,49
738,169	60,61
738,604	60,48
739,038	60,57
739,473	61,28
739,907	60,72
740,342	61,33
740,776	60,83
741,21	61,09
741,644	61,33
742,078	60,84
742,512	61,52
742,946	61,53
743,379	61,49
743,813	61,68
744,246	61,34
744,68	61,13
745,113	61,3
745,546	61,19
745,979	61,51
746,412	61,53
746,845	61,18
747,278	61,26
747,711	61,38
748,143	61,95
748,576	61,84
749,008	61,34
749,441	61,52
749,873	61,45
750,305	61,28
750,737	61,41
751,169	61,58
751,601	61,18
752,032	61,33
752,464	61,83
752,896	61,53
753,327	61,61
753,758	61,43
754,19	61,51
754,621	61,48
755,052	61,27
755,483	61,36
755,914	61,07
756,344	61,51
756,775	61,07
757,206	61,2
757,636	61,19
758,066	60,82
758,497	61,01
758,927	60,81
759,357	61,57
759,787	61,4
760,217	61,09
760,647	60,74
761,076	60,56
761,506	60,5
761,935	60,96
762,365	60,78
762,794	60,83
763,223	60,37
763,653	60,97
764,082	60,7
764,51	60,57
764,939	60,58
765,368	60,75
765,797	60,95
766,225	60,71
766,654	60,41
767,082	60,47
767,51	60,29
767,938	60,13
768,367	60,44
768,795	60,71
769,222	60,17
769,65	60,21
770,078	60,41
770,505	60,45
770,933	60,08
771,36	60,23
771,788	60,38
772,215	60,23
772,642	60,08
773,069	59,93
773,496	60,36
773,923	59,84
774,349	60,02
774,776	59,89
775,203	60,11
775,629	59,92
776,055	60,23
776,482	60,14
776,908	60,23
777,334	59,55
777,76	60,08
778,186	59,68
778,611	60,06
779,037	59,59
779,463	60,06
779,888	59,87
780,314	59,84
780,739	59,94
781,164	59,68
781,589	59,7
782,014	59,32
782,439	59,72
782,864	59,54
783,289	59,88
783,713	59,34
784,138	59,95
784,562	59,84
784,987	59,42
785,411	59,27
785,835	59,68
786,259	60,19
786,683	59,83
787,107	59,8
787,531	59,54
787,954	59,55
788,378	59,83
788,802	59,33
789,225	59,55
789,648	59,53
790,071	59,49
790,495	59,82
790,918	59,72
791,34	59,78
791,763	59,3
792,186	59,51
792,609	59,66
793,031	59,33
793,454	59,46
793,876	59,58
794,298	59,64
794,721	59,75
795,143	58,86
795,565	59,41
795,986	58,92
796,408	59,32
796,83	59,23
797,252	59,13
797,673	59,19
798,094	59,56
798,516	59,34
798,937	59,25
799,358	59,77
799,779	59,91
800,2	59,62
800,621	59,33
801,042	59,87
801,462	58,7
801,883	59,12
802,303	58,83
802,724	59,47
803,144	59,65
803,564	59,52
803,984	59,29
804,404	59,09
804,824	59,31
805,244	59,54
805,664	59,01
806,084	58,81
806,503	59,23
806,923	58,75
807,342	59,48
807,761	59,19
808,18	59,41
808,599	59,39
809,018	59,04
809,437	59,08
809,856	58,8
810,275	59,24
810,693	59,29
811,112	58,79
811,53	59,31
811,949	59,25
812,367	59,32
812,785	59,25
813,203	59,13
813,621	59,25
814,039	59,01
814,457	59,42
814,874	58,98
815,292	59,18
815,709	58,55
816,127	58,94
816,544	58,43
816,961	59,02
817,378	59,2
817,795	59,41
818,212	58,83
818,629	58,7
819,046	59,02
819,462	59,2
819,879	59,17
820,295	58,96
820,712	58,81
821,128	59,49
821,544	59,23
821,96	59,17
822,376	59,67
822,792	59,09
823,208	58,93
823,624	59,35
824,039	59,33
824,455	59,22
824,87	59,17
825,286	58,79
825,701	58,5
826,116	58,88
826,531	59,14
826,946	59,11
827,361	58,82
827,776	59,18
828,19	59,28
828,605	58,21
829,02	58,95
829,434	58,72
829,848	59,22
830,263	59,14
830,677	58,94
831,091	58,78
831,505	58,94
831,919	58,97
832,332	58,85
832,746	58,83
833,16	58,74
833,573	58,92
833,987	58,24
834,4	58,85
834,813	58,12
835,226	58,48
835,639	58,43
836,052	58,94
836,465	58,78
836,878	59,14
837,29	58,91
837,703	58,84
838,116	58,86
838,528	58,43
838,94	58,1
839,352	59,04
839,765	58,91
