Data from G_2_Relative__7__00142.txt Node

Date: Tue Jan 30 10:10:03 CET 2024
User: diatiterra
Spectrometer: HDX00911
Trigger mode: 0
Integration Time (sec): 6,000000E-3
Scans to average: 2
Nonlinearity correction enabled: false
Boxcar width: 0
Storing dark spectrum: false
XAxis mode: Wavelengths
Number of Pixels in Spectrum: 2068
>>>>>Begin Spectral Data<<<<<
194,468	88,95
195,025	100
195,581	99,24
196,138	82,8
196,694	93,03
197,251	79,3
197,807	73,75
198,363	69,67
198,919	81,7
199,474	84,32
200,03	72,05
200,586	74,45
201,141	81,51
201,696	72,69
202,251	91,04
202,806	77,87
203,361	82,11
203,916	75,1
204,471	81,68
205,025	74,9
205,58	81,57
206,134	74,9
206,688	75,97
207,242	93,69
207,796	81,36
208,35	84,93
208,904	75,81
209,457	82,95
210,011	78,17
210,564	77,93
211,117	86,38
211,67	68,42
212,223	72,91
212,776	87,71
213,329	73,42
213,881	81,82
214,434	79,92
214,986	75,89
215,538	73,62
216,09	67,87
216,642	74,79
217,194	95,22
217,746	76,1
218,297	84,03
218,849	72,62
219,4	76,62
219,951	83,63
220,502	76,26
221,053	80,51
221,604	78,74
222,155	79,24
222,705	72,77
223,256	73,41
223,806	73,33
224,356	78,92
224,906	85,02
225,456	75,21
226,006	78,57
226,556	88,05
227,106	84,23
227,655	80,47
228,204	88,69
228,754	81,43
229,303	90,99
229,852	87,34
230,401	85,2
230,949	70,57
231,498	76,79
232,047	80,74
232,595	83,53
233,143	79,39
233,691	78,45
234,239	74,43
234,787	78,03
235,335	81,82
235,883	91,89
236,43	79,24
236,978	81,3
237,525	83,83
238,072	81,94
238,619	61,88
239,166	78,02
239,713	71,73
240,26	72,18
240,806	78,45
241,353	83,76
241,899	73,25
242,445	79,08
242,991	70,9
243,537	73,16
244,083	76,02
244,629	70,48
245,174	79,57
245,72	77,61
246,265	82,81
246,81	87,56
247,355	67,88
247,9	79,17
248,445	69,44
248,99	76,17
249,534	73,21
250,079	86,57
250,623	76,11
251,168	86,12
251,712	71,18
252,256	78,1
252,8	80,97
253,343	78,14
253,887	81,82
254,43	78,52
254,974	78,8
255,517	80,29
256,06	75,95
256,603	82,72
257,146	77,69
257,689	83,47
258,232	75,57
258,774	79,74
259,317	81,9
259,859	81,43
260,401	85,05
260,943	76,76
261,485	87,27
262,027	86,81
262,569	86,11
263,11	86,73
263,652	73,01
264,193	83,72
264,734	93,98
265,275	74,68
265,816	71,79
266,357	66,8
266,898	81,2
267,438	80
267,979	70,69
268,519	86,06
269,059	70,36
269,6	73,01
270,14	75,43
270,68	72,54
271,219	79,13
271,759	72,05
272,298	72,4
272,838	76,49
273,377	85,59
273,916	78,21
274,455	68,85
274,994	84,33
275,533	71,86
276,072	79,15
276,61	80,7
277,149	79,17
277,687	80,08
278,225	68,72
278,763	67,18
279,301	71,43
279,839	75
280,377	70,61
280,914	77,78
281,452	76,02
281,989	76,03
282,526	75
283,064	76,25
283,601	81,67
284,137	81,78
284,674	76,99
285,211	76,42
285,747	84,25
286,284	84,05
286,82	76,21
287,356	76
287,892	75,31
288,428	72,53
288,964	78,42
289,5	72,09
290,035	75,52
290,571	65,37
291,106	73,3
291,641	73,36
292,176	74,4
292,711	76,72
293,246	71,65
293,781	72,61
294,315	79,07
294,85	69,72
295,384	85,85
295,918	73,2
296,453	72,06
296,987	69,49
297,52	85,07
298,054	75,57
298,588	76,8
299,121	75,68
299,655	75,47
300,188	64,41
300,721	73,66
301,254	76,68
301,787	85,09
302,32	73,93
302,853	82,13
303,385	77,65
303,918	78,67
304,45	77,29
304,982	77,2
305,514	66,26
306,046	78,32
306,578	77,59
307,11	73,48
307,641	76,05
308,173	82,17
308,704	83,74
309,236	78,7
309,767	70
310,298	73,6
310,829	77,52
311,359	80,09
311,89	69,62
312,421	64,49
312,951	66,95
313,481	73,46
314,012	81,01
314,542	72,07
315,072	75,54
315,601	72,18
316,131	75,97
316,661	76,83
317,19	69,39
317,72	70,34
318,249	77,98
318,778	79,84
319,307	73,79
319,836	79,2
320,365	83,83
320,893	81,89
321,422	73,09
321,95	69,57
322,479	70,28
323,007	71,71
323,535	74,34
324,063	73,15
324,591	75,86
325,118	69,7
325,646	74,14
326,173	75,45
326,701	66,53
327,228	82,45
327,755	72,38
328,282	80
328,809	78,07
329,336	90,64
329,862	77,01
330,389	78,41
330,915	72,09
331,441	82,7
331,968	67,33
332,494	78,67
333,02	78,66
333,545	73,28
334,071	72,69
334,597	81,4
335,122	81,08
335,648	73,2
336,173	75,85
336,698	74,25
337,223	78,4
337,748	68,63
338,272	81,12
338,797	78,09
339,322	77,35
339,846	75,5
340,37	75,11
340,894	78,9
341,419	75,4
341,942	71,32
342,466	62,39
342,99	63,12
343,514	76,52
344,037	73,68
344,56	67,33
345,084	72,03
345,607	65,66
346,13	72,98
346,653	71,22
347,175	74,58
347,698	76,92
348,221	80,16
348,743	83,4
349,265	80,82
349,787	72,82
350,309	71,9
350,831	70,42
351,353	66,94
351,875	67,77
352,397	69,49
352,918	76,49
353,439	78,09
353,961	74,13
354,482	78,86
355,003	63,72
355,524	68,24
356,044	72,73
356,565	73,26
357,086	66,88
357,606	62
358,126	68,23
358,646	68,28
359,167	71,1
359,687	68,32
360,206	76,36
360,726	67,82
361,246	66,56
361,765	69,58
362,285	73,15
362,804	59,15
363,323	67,57
363,842	67,33
364,361	64,4
364,88	67,27
365,398	65,26
365,917	63,61
366,435	63,09
366,954	67,17
367,472	66,97
367,99	62,89
368,508	70,3
369,026	65,72
369,544	68,41
370,061	60,05
370,579	68,23
371,096	64,92
371,613	64,88
372,131	66,58
372,648	63,96
373,165	68,6
373,681	58,9
374,198	63,8
374,715	61,08
375,231	63,46
375,747	63,46
376,264	60,92
376,78	58,53
377,296	56,9
377,812	60,6
378,327	62,21
378,843	60,67
379,359	55,51
379,874	53,85
380,389	56,16
380,905	58,17
381,42	54,69
381,935	59,91
382,449	55,86
382,964	53,5
383,479	57,2
383,993	59
384,508	52,12
385,022	53,67
385,536	51,86
386,05	51,02
386,564	49,65
387,078	55,5
387,592	49,02
388,105	50
388,619	49,27
389,132	50,08
389,645	47,47
390,158	53,54
390,671	50,07
391,184	47,65
391,697	46,51
392,21	47,09
392,722	50,07
393,235	48,76
393,747	47,05
394,259	45,19
394,771	46,5
395,283	43,39
395,795	45,73
396,307	43,18
396,818	43,42
397,33	40,91
397,841	42,56
398,353	42,06
398,864	41,94
399,375	43,21
399,886	39,9
400,397	41,1
400,907	38,61
401,418	37,95
401,928	39,98
402,439	35,97
402,949	35,94
403,459	37,94
403,969	36,49
404,479	36,3
404,989	36,39
405,498	33,77
406,008	36,18
406,517	32,88
407,027	32,23
407,536	32,93
408,045	30,55
408,554	31,62
409,063	28,98
409,572	28,87
410,08	29,45
410,589	27,15
411,097	25,82
411,606	26,27
412,114	26,3
412,622	25,07
413,13	24,73
413,638	23,62
414,145	23,59
414,653	22,99
415,16	21,75
415,668	22,25
416,175	23,13
416,682	21,39
417,189	20,4
417,696	21,2
418,203	21,03
418,71	20,38
419,216	19,97
419,723	19,63
420,229	20,41
420,735	19,53
421,242	19,29
421,748	20,3
422,254	21,79
422,759	19,35
423,265	18,28
423,771	18,95
424,276	17,79
424,781	18,52
425,287	19,21
425,792	18,26
426,297	18,34
426,802	18,14
427,306	17,88
427,811	17,81
428,316	18,59
428,82	17,75
429,324	17,69
429,829	17,42
430,333	18,16
430,837	17,42
431,34	17,99
431,844	17,8
432,348	18,21
432,851	18,26
433,355	17,13
433,858	17,58
434,361	16,91
434,864	16,76
435,367	18,07
435,87	16,94
436,373	16,5
436,876	17,85
437,378	16,59
437,88	17,18
438,383	17,06
438,885	17,94
439,387	16,77
439,889	16,66
440,391	16,48
440,892	16,59
441,394	17,2
441,896	17,11
442,397	16,6
442,898	17,08
443,399	16,52
443,9	16,47
444,401	16,51
444,902	16,01
445,403	16,64
445,903	16,13
446,404	16,87
446,904	16,78
447,405	16,31
447,905	16,89
448,405	16,49
448,905	16,81
449,404	16,52
449,904	16,46
450,404	16,7
450,903	16,88
451,403	16,51
451,902	16,37
452,401	16,16
452,9	16,51
453,399	16,85
453,898	16,52
454,396	16,21
454,895	16,37
455,393	16,89
455,892	16,94
456,39	16,64
456,888	17,44
457,386	16,25
457,884	16,1
458,382	17,2
458,879	16,72
459,377	16,7
459,874	16,35
460,372	17,04
460,869	16,13
461,366	16,56
461,863	15,76
462,36	16,47
462,857	16,45
463,353	16,87
463,85	16,38
464,346	16,53
464,843	16,32
465,339	16,7
465,835	16,89
466,331	15,41
466,827	16,92
467,323	16,16
467,818	16,08
468,314	16,36
468,809	17
469,305	16,28
469,8	16,41
470,295	16,26
470,79	16,26
471,285	16,69
471,78	16,22
472,274	16,73
472,769	15,69
473,263	16,32
473,758	17,02
474,252	16,51
474,746	15,55
475,24	16,42
475,734	16,77
476,228	16,03
476,721	16,48
477,215	16,66
477,708	16,58
478,202	16,59
478,695	16,56
479,188	16,81
479,681	16,07
480,174	16
480,667	15,96
481,159	16,34
481,652	16,44
482,144	16,52
482,637	16,75
483,129	15,78
483,621	16,38
484,113	16,23
484,605	16,45
485,097	16,32
485,588	16,75
486,08	16,44
486,571	16,69
487,063	17,01
487,554	16,69
488,045	16,08
488,536	16,57
489,027	16,67
489,518	16,79
490,008	16,25
490,499	17,08
490,989	16,08
491,48	16,77
491,97	16,74
492,46	16,84
492,95	16,62
493,44	17,13
493,93	16,75
494,419	16,92
494,909	16,72
495,398	16,97
495,888	16,9
496,377	16,95
496,866	16,97
497,355	17,26
497,844	16,89
498,333	17,39
498,821	17,24
499,31	17,19
499,798	17,56
500,287	17,98
500,775	17,67
501,263	17,99
501,751	17,64
502,239	18,27
502,727	18,12
503,215	17,97
503,702	18,13
504,19	18,25
504,677	18,44
505,164	18,01
505,651	19,18
506,139	19,04
506,625	19,31
507,112	19,65
507,599	19,28
508,086	19,62
508,572	19,36
509,058	19,89
509,545	20,15
510,031	19,97
510,517	20,21
511,003	20,02
511,489	20,8
511,974	21,02
512,46	21,65
512,946	21,72
513,431	21,53
513,916	22,02
514,401	22,22
514,887	22,25
515,371	22,64
515,856	22,74
516,341	23,53
516,826	23,85
517,31	23,84
517,795	24,49
518,279	24,46
518,763	24,75
519,247	25,35
519,731	25,23
520,215	25,45
520,699	25,96
521,182	26,99
521,666	26,25
522,149	27,92
522,633	27,59
523,116	28,17
523,599	28,32
524,082	28,41
524,565	28,69
525,048	29,14
525,53	28,88
526,013	29,95
526,495	30,2
526,978	30,48
527,46	31,05
527,942	31,29
528,424	31,28
528,906	31,76
529,388	31,27
529,87	32,39
530,351	31,78
530,833	32,4
531,314	32,81
531,795	32,87
532,277	33,02
532,758	32,94
533,238	33,77
533,719	33,69
534,2	33,55
534,681	33,75
535,161	34,01
535,642	34,29
536,122	34,44
536,602	33,53
537,082	33,71
537,562	34,55
538,042	34,53
538,522	33,98
539,001	34,32
539,481	34,45
539,96	34,17
540,44	34,3
540,919	34,93
541,398	34,28
541,877	34,88
542,356	35,22
542,835	35
543,313	34,98
543,792	34,69
544,27	35,25
544,749	34,76
545,227	35,07
545,705	35,22
546,183	35,48
546,661	35,86
547,139	35,61
547,616	35,75
548,094	35,74
548,571	35,84
549,049	35,48
549,526	35,63
550,003	36,21
550,48	36,22
550,957	35,48
551,434	35,94
551,911	36,12
552,387	35,89
552,864	35,6
553,34	35,91
553,817	35,58
554,293	36,36
554,769	35,63
555,245	36
555,721	35,95
556,197	36,04
556,672	35,4
557,148	35,74
557,623	35,66
558,099	35,9
558,574	35,32
559,049	35,26
559,524	35,89
559,999	35,03
560,474	35,61
560,948	34,91
561,423	35,18
561,897	34,74
562,372	34,59
562,846	34,43
563,32	34,52
563,794	34,61
564,268	34,37
564,742	34,72
565,216	33,93
565,69	33,9
566,163	34,4
566,636	33,57
567,11	33,54
567,583	33,49
568,056	32,42
568,529	33,06
569,002	33,09
569,475	32,33
569,947	32,23
570,42	32,67
570,892	32,05
571,365	31,78
571,837	31,74
572,309	31,4
572,781	31,38
573,253	30,92
573,725	30,75
574,197	30,79
574,668	30,29
575,14	29,67
575,611	30,36
576,082	29,47
576,554	30,16
577,025	29,59
577,496	29,12
577,967	29,42
578,437	29,28
578,908	28,94
579,379	28,73
579,849	28,54
580,319	28,97
580,79	28,12
581,26	28,28
581,73	27,96
582,2	28,23
582,669	28,06
583,139	27,98
583,609	27,92
584,078	27,52
584,548	27,46
585,017	27,58
585,486	26,89
585,955	27,2
586,424	26,62
586,893	27,34
587,362	26,63
587,83	26,9
588,299	26,84
588,767	26,53
589,236	26,6
589,704	26,5
590,172	25,93
590,64	26,48
591,108	25,94
591,576	25,96
592,043	25,66
592,511	26,05
592,978	25,99
593,446	25,95
593,913	25,49
594,38	25,75
594,847	25,25
595,314	25,5
595,781	25,46
596,248	25,38
596,715	25,31
597,181	25,42
597,647	25,39
598,114	25,17
598,58	25,66
599,046	25,3
599,512	25,16
599,978	24,73
600,444	25,41
600,91	24,98
601,375	25,32
601,841	24,86
602,306	24,79
602,771	24,38
603,236	24,41
603,702	24,55
604,167	24,61
604,631	24,66
605,096	24,6
605,561	24,57
606,025	24,15
606,49	24,07
606,954	24,09
607,418	24,44
607,882	23,98
608,347	24,23
608,81	24,02
609,274	23,86
609,738	24,01
610,202	23,95
610,665	23,68
611,128	23,56
611,592	23,58
612,055	23,11
612,518	22,93
612,981	22,94
613,444	22,78
613,907	22,77
614,369	22,63
614,832	22,75
615,294	22,47
615,757	22,61
616,219	22,54
616,681	22,06
617,143	22,42
617,605	21,93
618,067	22,06
618,529	21,99
618,99	21,85
619,452	22,08
619,913	21,62
620,375	21,84
620,836	21,58
621,297	21,78
621,758	21,59
622,219	21,68
622,68	21,54
623,14	21,49
623,601	21,4
624,061	21,32
624,522	21,35
624,982	21,48
625,442	21,19
625,902	21,38
626,362	21,23
626,822	21,1
627,282	21,19
627,742	20,94
628,201	21,16
628,661	21,46
629,12	20,9
629,579	21,2
630,038	21,09
630,497	21,21
630,956	20,8
631,415	21,33
631,874	21,16
632,332	20,91
632,791	20,75
633,249	20,6
633,708	20,78
634,166	20,85
634,624	20,75
635,082	20,49
635,54	20,42
635,998	20,56
636,455	20,27
636,913	20,08
637,37	20,19
637,828	19,93
638,285	19,92
638,742	20,21
639,199	19,72
639,656	19,7
640,113	19,58
640,57	19,29
641,027	19,59
641,483	19,02
641,94	19,01
642,396	19,19
642,852	18,86
643,309	18,84
643,765	18,54
644,221	18,55
644,676	18,52
645,132	18,53
645,588	18,35
646,043	18,24
646,499	18,14
646,954	18,24
647,409	18,23
647,864	17,73
648,319	17,73
648,774	17,31
649,229	17,63
649,684	17,61
650,139	17,38
650,593	17,32
651,047	17,25
651,502	17,18
651,956	17,24
652,41	17,18
652,864	17
653,318	17
653,772	16,94
654,225	16,92
654,679	16,95
655,133	17,05
655,586	16,68
656,039	16,99
656,492	16,68
656,946	16,63
657,399	16,45
657,851	16,28
658,304	16,5
658,757	16,14
659,209	16,48
659,662	16,3
660,114	16,25
660,567	16,1
661,019	16,02
661,471	15,99
661,923	15,99
662,375	15,86
662,826	15,86
663,278	15,82
663,73	15,67
664,181	15,68
664,632	15,71
665,084	15,7
665,535	15,58
665,986	15,69
666,437	15,55
666,888	15,66
667,338	15,67
667,789	15,72
668,24	15,63
668,69	15,73
669,14	15,81
669,591	15,69
670,041	15,5
670,491	15,7
670,941	15,6
671,391	15,78
671,84	15,75
672,29	15,77
672,74	15,74
673,189	15,97
673,638	15,95
674,088	16,13
674,537	15,98
674,986	16,17
675,435	16,14
675,883	16,13
676,332	16,28
676,781	16,48
677,229	16,81
677,678	16,76
678,126	16,57
678,574	17,06
679,022	16,93
679,47	17,12
679,918	17,25
680,366	17,47
680,814	17,34
681,261	17,59
681,709	17,41
682,156	17,46
682,604	17,69
683,051	17,97
683,498	18,22
683,945	17,98
684,392	18,18
684,839	18,6
685,286	18,37
685,732	18,67
686,179	18,44
686,625	18,75
687,071	18,98
687,518	18,8
687,964	19,15
688,41	19,53
688,856	19,5
689,301	19,81
689,747	20,13
690,193	20,19
690,638	20,63
691,084	21,07
691,529	21,54
691,974	21,7
692,419	22,18
692,864	22,59
693,309	23
693,754	23,44
694,199	23,8
694,643	24,46
695,088	24,89
695,532	25,56
695,977	26,11
696,421	26,55
696,865	27,06
697,309	27,81
697,753	28,4
698,197	29,15
698,64	29,78
699,084	30,06
699,527	30,92
699,971	31,56
700,414	32,18
700,857	32,17
701,3	32,89
701,743	33,49
702,186	34,22
702,629	34,61
703,072	35,74
703,515	35,76
703,957	36,31
704,399	36,89
704,842	37,72
705,284	37,91
705,726	38,78
706,168	39,43
706,61	39,7
707,052	39,87
707,494	40,77
707,935	40,92
708,377	41,61
708,818	42,01
709,26	42,78
709,701	43,16
710,142	44
710,583	44,16
711,024	44,6
711,465	45,03
711,905	45,33
712,346	45,73
712,787	46,13
713,227	47,24
713,667	47
714,108	47,58
714,548	48,27
714,988	48,64
715,428	49,23
715,868	49,68
716,307	49,9
716,747	50,33
717,186	50,89
717,626	51,11
718,065	51,32
718,504	51,55
718,944	52,26
719,383	52,5
719,822	53,33
720,261	53,29
720,699	53,87
721,138	54,32
721,576	54,17
722,015	54,99
722,453	54,72
722,892	55,88
723,33	55,66
723,768	56,32
724,206	56,5
724,644	56,7
725,081	56,52
725,519	57,19
725,957	57,43
726,394	57,75
726,832	58,13
727,269	57,84
727,706	58,49
728,143	58,25
728,58	58,79
729,017	59,32
729,454	58,93
729,89	59,22
730,327	59,99
730,764	59,64
731,2	60,21
731,636	60,05
732,072	60,42
732,509	60,12
732,945	60,92
733,38	60,41
733,816	60,89
734,252	60,91
734,688	60,85
735,123	61,01
735,559	61,27
735,994	61,53
736,429	60,98
736,864	61,88
737,299	61,77
737,734	61,49
738,169	61,82
738,604	61,8
739,038	61,54
739,473	62,03
739,907	62,14
740,342	62,33
740,776	62,08
741,21	62,06
741,644	62,31
742,078	62,07
742,512	62,23
742,946	62,47
743,379	62,32
743,813	62,87
744,246	62,26
744,68	62,68
745,113	62,53
745,546	62,01
745,979	62,13
746,412	62,25
746,845	62,04
747,278	62,32
747,711	62,32
748,143	62,37
748,576	62,7
749,008	62,03
749,441	62,12
749,873	61,88
750,305	62,34
750,737	62,21
751,169	62,33
751,601	61,69
752,032	62,3
752,464	62,12
752,896	61,86
753,327	62,68
753,758	62,42
754,19	61,89
754,621	62,15
755,052	62,21
755,483	61,78
755,914	61,45
756,344	61,53
756,775	61,25
757,206	62,06
757,636	61,14
758,066	60,96
758,497	61,24
758,927	61,68
759,357	61,97
759,787	61,41
760,217	61,74
760,647	61,25
761,076	61,67
761,506	61,04
761,935	61,66
762,365	60,79
762,794	60,91
763,223	60,5
763,653	61,21
764,082	61,47
764,51	61,16
764,939	61,28
765,368	61,24
765,797	61,27
766,225	60,82
766,654	60,73
767,082	60,65
767,51	61,25
767,938	60,28
768,367	61,19
768,795	60,78
769,222	60,56
769,65	60,73
770,078	60,54
770,505	60,6
770,933	60,2
771,36	60,61
771,788	60,52
772,215	60,96
772,642	60,19
773,069	60,34
773,496	60,38
773,923	60,19
774,349	60,39
774,776	60,35
775,203	60,41
775,629	60,03
776,055	60,56
776,482	60,3
776,908	60,15
777,334	59,73
777,76	60,27
778,186	60,06
778,611	60,24
779,037	59,97
779,463	60,16
779,888	59,74
780,314	59,98
780,739	59,65
781,164	59,98
781,589	60,13
782,014	59,72
782,439	59,81
782,864	59,41
783,289	59,98
783,713	59,67
784,138	60,25
784,562	59,83
784,987	59,83
785,411	59,43
785,835	59,96
786,259	60,01
786,683	59,59
787,107	60,13
787,531	59,69
787,954	59,29
788,378	59,77
788,802	59,34
789,225	59,54
789,648	59,97
790,071	59,89
790,495	59,97
790,918	59,44
791,34	59,37
791,763	59,68
792,186	59,62
792,609	59,45
793,031	59,32
793,454	59,74
793,876	59,83
794,298	59,39
794,721	59,66
795,143	59,25
795,565	59,3
795,986	59,14
796,408	59,54
796,83	59,64
797,252	59,22
797,673	59,19
798,094	59,21
798,516	59,12
798,937	59,67
799,358	59,42
799,779	59,36
800,2	59,66
800,621	58,83
801,042	59,55
801,462	59,21
801,883	58,93
802,303	58,96
802,724	59,45
803,144	59,86
803,564	59,44
803,984	59,17
804,404	59,28
804,824	59,18
805,244	59,53
805,664	59,22
806,084	59,26
806,503	58,7
806,923	59,15
807,342	59,49
807,761	59,25
808,18	58,9
808,599	59,87
809,018	59,23
809,437	59,2
809,856	59,13
810,275	59,42
810,693	59,27
811,112	59,36
811,53	59,25
811,949	59,5
812,367	59,69
812,785	58,69
813,203	58,8
813,621	59,16
814,039	59,15
814,457	59,31
814,874	58,74
815,292	59,09
815,709	58,78
816,127	59,08
816,544	58,95
816,961	59,17
817,378	59,06
817,795	58,57
818,212	58,93
818,629	58,84
819,046	58,71
819,462	59,14
819,879	59,08
820,295	58,89
820,712	58,82
821,128	58,98
821,544	59,29
821,96	58,47
822,376	59,04
822,792	58,9
823,208	58,93
823,624	58,93
824,039	58,79
824,455	59,07
824,87	58,96
825,286	58,87
825,701	58,73
826,116	58,82
826,531	58,86
826,946	58,66
827,361	59,03
827,776	58,75
828,19	58,74
828,605	58,44
829,02	58,52
829,434	58,38
829,848	59,22
830,263	59
830,677	58,62
831,091	58,63
831,505	58,34
831,919	59,17
832,332	58,79
832,746	59,15
833,16	59
833,573	58,57
833,987	58,36
834,4	58,66
