Data from G_4_Relative__4__00150.txt Node

Date: Tue Jan 30 10:10:46 CET 2024
User: diatiterra
Spectrometer: HDX00911
Trigger mode: 0
Integration Time (sec): 6,000000E-3
Scans to average: 2
Nonlinearity correction enabled: false
Boxcar width: 0
Storing dark spectrum: false
XAxis mode: Wavelengths
Number of Pixels in Spectrum: 2068
>>>>>Begin Spectral Data<<<<<
194,468	100
195,025	95,16
195,581	95,45
196,138	91,72
196,694	86,07
197,251	79,3
197,807	78,33
198,363	77,05
198,919	75,32
199,474	78,39
200,03	73,23
200,586	77,97
201,141	82,35
201,696	71,85
202,251	76,12
202,806	82,98
203,361	80,08
203,916	68,05
204,471	76,73
205,025	82,01
205,58	83,87
206,134	76,49
206,688	76,82
207,242	87,39
207,796	73,73
208,35	85,84
208,904	71,77
209,457	79,46
210,011	73,36
210,564	74,77
211,117	87,66
211,67	68,02
212,223	79,68
212,776	82,2
213,329	74,26
213,881	70,13
214,434	74,59
214,986	80,8
215,538	75,98
216,09	81,12
216,642	78,1
217,194	78,95
217,746	81,67
218,297	77,73
218,849	73
219,4	77,49
219,951	83,19
220,502	77,82
221,053	78,39
221,604	76,77
222,155	79,24
222,705	74,04
223,256	71,91
223,806	81,25
224,356	85,29
224,906	81,06
225,456	75,63
226,006	75,45
226,556	83,63
227,106	82,16
227,655	73,02
228,204	90,05
228,754	75,53
229,303	85,14
229,852	75,98
230,401	87,44
230,949	70,92
231,498	70,54
232,047	77,05
232,595	69,08
233,143	82,02
233,691	71,73
234,239	78,24
234,787	73,09
235,335	83,12
235,883	77,03
236,43	76,27
236,978	82,61
237,525	75,32
238,072	71,81
238,619	70,4
239,166	78,88
239,713	66,67
240,26	79,44
240,806	71,98
241,353	79,06
241,899	79,01
242,445	66,53
242,991	65,98
243,537	71
244,083	80,09
244,629	65,2
245,174	75,32
245,72	75,68
246,265	78,73
246,81	78,67
247,355	70,44
247,9	79,17
248,445	76,19
248,99	71,91
249,534	72,08
250,079	83,33
250,623	86,28
251,168	71,84
251,712	59,83
252,256	66,53
252,8	76,55
253,343	83,81
253,887	82,68
254,43	74,07
254,974	73,2
255,517	76,44
256,06	78,9
256,603	77,78
257,146	67,69
257,689	79,24
258,232	71,49
258,774	73,57
259,317	81,9
259,859	67,14
260,401	84,11
260,943	75,52
261,485	70,45
262,027	74,89
262,569	77,78
263,11	78,76
263,652	68,14
264,193	73,95
264,734	87,04
265,275	71,67
265,816	73,5
266,357	67,63
266,898	81,62
267,438	72,34
267,979	71,55
268,519	72,6
269,059	68,38
269,6	62,83
270,14	75
270,68	64,34
271,219	76,09
271,759	69
272,298	66
272,838	80,48
273,377	85,14
273,916	67,7
274,455	65,38
274,994	70,97
275,533	73,38
276,072	79,57
276,61	75,44
277,149	71,67
277,687	77,54
278,225	62,55
278,763	61,07
279,301	72,65
279,839	72,54
280,377	57,55
280,914	74,54
281,452	74,8
281,989	75,21
282,526	68,75
283,064	69,35
283,601	79,17
284,137	74,22
284,674	75,73
285,211	73,8
285,747	70,08
286,284	80,17
286,82	72,58
287,356	68,44
287,892	65,02
288,428	72,1
288,964	73,86
289,5	69,77
290,035	68,05
290,571	76,26
291,106	73,76
291,641	70,74
292,176	72
292,711	77,16
293,246	65,13
293,781	71,74
294,315	74,88
294,85	75,3
295,384	68,87
295,918	72
296,453	70,45
296,987	63,56
297,52	74,66
298,054	72,85
298,588	68,8
299,121	76,13
299,655	74,53
300,188	73,31
300,721	76,34
301,254	74,44
301,787	72,81
302,32	75,21
302,853	71,06
303,385	69,02
303,918	69,33
304,45	78,6
304,982	75,6
305,514	74,8
306,046	72,12
306,578	73,03
307,11	66,29
307,641	76,47
308,173	77,83
308,704	85,77
309,236	77,39
309,767	70,83
310,298	73,2
310,829	75,97
311,359	83,19
311,89	70,77
312,421	68,98
312,951	78,24
313,481	78,67
314,012	74,03
314,542	71,62
315,072	75,54
315,601	80,65
316,131	72,53
316,661	67,95
317,19	65,71
317,72	66,53
318,249	81,19
318,778	75,72
319,307	78,23
319,836	75,2
320,365	77,02
320,893	80,71
321,422	78,92
321,95	79,57
322,479	73,49
323,007	71,71
323,535	76,23
324,063	73,15
324,591	83,91
325,118	74,46
325,646	75,43
326,173	73,66
326,701	74,5
327,228	73,88
327,755	75,71
328,282	90,45
328,809	80,26
329,336	76,6
329,862	79,2
330,389	77,53
330,915	71,71
331,441	89,03
331,968	67,73
332,494	70,67
333,02	79,92
333,545	68,42
334,071	76,47
334,597	73,14
335,122	82,43
335,648	69,6
336,173	65,68
336,698	72,96
337,223	78,87
337,748	66,27
338,272	70,82
338,797	75,7
339,322	77,78
339,846	71,49
340,37	75,98
340,894	78,48
341,419	68,55
341,942	67,83
342,466	65,04
342,99	72,62
343,514	71,26
344,037	62,78
344,56	70,12
345,084	79,24
345,607	70,94
346,13	72,58
346,653	63,1
347,175	74,15
347,698	72,16
348,221	75,3
348,743	78,87
349,265	68,98
349,787	67,25
350,309	72,63
350,831	70,77
351,353	72,24
351,875	73,63
352,397	69,49
352,918	76,49
353,439	73,31
353,961	64,69
354,482	65,44
355,003	69,09
355,524	68,58
356,044	68,73
356,565	73,96
357,086	65,91
357,606	62
358,126	70,9
358,646	58,97
359,167	65,78
359,687	61,72
360,206	66,13
360,726	59,31
361,246	63,16
361,765	68,61
362,285	71,81
362,804	57,93
363,323	66,37
363,842	66,01
364,361	64,09
364,88	59,76
365,398	65,26
365,917	57,99
366,435	58,68
366,954	60,79
367,472	58,26
367,99	61,19
368,508	61,52
369,026	61,47
369,544	61,45
370,061	59,25
370,579	61,88
371,096	61,26
371,613	54,42
372,131	61,62
372,648	63,96
373,165	56,99
373,681	58,38
374,198	61,77
374,715	57,22
375,231	60,99
375,747	58,52
376,264	52,91
376,78	55,92
377,296	53,33
377,812	60,35
378,327	51,17
378,843	56,35
379,359	57,05
379,874	51,56
380,389	53,88
380,905	55,41
381,42	50,61
381,935	55,17
382,449	55,66
382,964	45,94
383,479	46,76
383,993	56,2
384,508	50
385,022	47,08
385,536	53,72
386,05	43,78
386,564	47,72
387,078	48,34
387,592	50
388,105	45,53
388,619	44,75
389,132	52,25
389,645	42,86
390,158	50,71
390,671	45,37
391,184	42,79
391,697	43,95
392,21	41,14
392,722	43,76
393,235	44,92
393,747	42,7
394,259	42,22
394,771	44,22
395,283	39,39
395,795	38,13
396,307	41,85
396,818	41,85
397,33	41,3
397,841	36,81
398,353	37,94
398,864	38,13
399,375	37,61
399,886	35,89
400,397	35,49
400,907	35,99
401,418	32,26
401,928	32,68
402,439	31,5
402,949	32,96
403,459	32,39
403,969	32,43
404,479	33,27
404,989	30,83
405,498	28,23
406,008	31,95
406,517	28,81
407,027	26,19
407,536	28,89
408,045	26,26
408,554	25,24
409,063	24,38
409,572	24,37
410,08	23,34
410,589	22,66
411,097	20,44
411,606	20,67
412,114	18,77
412,622	18,77
413,13	18,88
413,638	18,41
414,145	17,37
414,653	17,14
415,16	17,14
415,668	17,47
416,175	17,04
416,682	15,16
417,189	15,26
417,696	15,55
418,203	15,2
418,71	14,78
419,216	15,03
419,723	14,86
420,229	13,99
420,735	14,81
421,242	14,19
421,748	13,58
422,254	15,77
422,759	12,41
423,265	12,64
423,771	12,42
424,276	13,11
424,781	13,06
425,287	12,86
425,792	12,61
426,297	12
426,802	12,82
427,306	12,83
427,811	12,44
428,316	12,62
428,82	12,57
429,324	12,14
429,829	12,26
430,333	11,79
430,837	12,18
431,34	11,83
431,844	11,51
432,348	11,76
432,851	11,56
433,355	11,31
433,858	11,58
434,361	11,27
434,864	10,44
435,367	12,27
435,87	11,38
436,373	10,38
436,876	11,52
437,378	10,96
437,88	10,61
438,383	10,26
438,885	11,39
439,387	10,64
439,889	11,12
440,391	10,73
440,892	11,05
441,394	11,12
441,896	10,74
442,397	10,94
442,898	10,3
443,399	9,97
443,9	10,97
444,401	9,97
444,902	10,73
445,403	10,96
445,903	10,75
446,404	10,9
446,904	10,83
447,405	11,23
447,905	10,53
448,405	10,84
448,905	11,07
449,404	10,52
449,904	10,77
450,404	11,11
450,903	10,85
451,403	11,11
451,902	11,46
452,401	11,19
452,9	11,14
453,399	11,44
453,898	11,47
454,396	12,04
454,895	11,5
455,393	11,8
455,892	11,52
456,39	11,01
456,888	12,37
457,386	11,31
457,884	11,5
458,382	11,71
458,879	11,67
459,377	11,61
459,874	11,49
460,372	11,46
460,869	11,48
461,366	11,14
461,863	11,53
462,36	10,97
462,857	11,63
463,353	11,1
463,85	11,68
464,346	11,42
464,843	11,59
465,339	11,61
465,835	11,39
466,331	11,27
466,827	11,45
467,323	11,36
467,818	11,36
468,314	11,3
468,809	11,54
469,305	11,58
469,8	11,46
470,295	11,23
470,79	11,25
471,285	11,12
471,78	11,01
472,274	11,47
472,769	11,2
473,263	11,61
473,758	11,05
474,252	11,28
474,746	11,44
475,24	11,68
475,734	11,34
476,228	11,41
476,721	11,61
477,215	11,47
477,708	11,33
478,202	11,29
478,695	11,33
479,188	11,64
479,681	11,71
480,174	11,38
480,667	11,58
481,159	11,8
481,652	11,1
482,144	11,35
482,637	11,48
483,129	11,35
483,621	11,49
484,113	11,46
484,605	11,69
485,097	11,34
485,588	11,87
486,08	11,71
486,571	11,8
487,063	12,42
487,554	11,62
488,045	11,42
488,536	11,5
489,027	12,17
489,518	11,71
490,008	12,28
490,499	12,54
490,989	12,22
491,48	12,14
491,97	12,6
492,46	11,88
492,95	12,49
493,44	12,63
493,93	12,44
494,419	12,55
494,909	12,93
495,398	13,18
495,888	12,93
496,377	13,18
496,866	12,96
497,355	13,33
497,844	13,44
498,333	14,05
498,821	13,67
499,31	14,27
499,798	14,51
500,287	14,41
500,775	14,5
501,263	15,02
501,751	15
502,239	15,2
502,727	15,32
503,215	15,4
503,702	15,39
504,19	15,53
504,677	16,36
505,164	16,54
505,651	16,88
506,139	17,08
506,625	17,06
507,112	17,53
507,599	18,23
508,086	18,28
508,572	18,74
509,058	18,6
509,545	18,74
510,031	18,97
510,517	19,82
511,003	20,1
511,489	19,74
511,974	20,48
512,46	21,04
512,946	21,17
513,431	21,22
513,916	22,29
514,401	22,49
514,887	22,76
515,371	22,66
515,856	23,34
516,341	23,37
516,826	24,43
517,31	24,25
517,795	25,11
518,279	25,04
518,763	25,49
519,247	26,24
519,731	26,8
520,215	26,69
520,699	26,91
521,182	27,99
521,666	27,68
522,149	28,33
522,633	28,83
523,116	29,21
523,599	29,91
524,082	30,04
524,565	29,91
525,048	30,95
525,53	30,27
526,013	31,5
526,495	31,64
526,978	31,73
527,46	32,47
527,942	32,51
528,424	32,68
528,906	32,79
529,388	32,91
529,87	33,36
530,351	33,47
530,833	33,85
531,314	33,93
531,795	34,37
532,277	34,68
532,758	34,96
533,238	35,18
533,719	35,02
534,2	35,26
534,681	35,37
535,161	34,91
535,642	35,66
536,122	35,27
536,602	35,78
537,082	35,35
537,562	35,84
538,042	35,92
538,522	35,12
539,001	35,81
539,481	35,91
539,96	36,82
540,44	36,02
540,919	36,27
541,398	35,81
541,877	36,2
542,356	36,11
542,835	36,43
543,313	35,68
543,792	36,27
544,27	36,37
544,749	36,4
545,227	36,72
545,705	36,6
546,183	36,94
546,661	36,91
547,139	37,21
547,616	36,66
548,094	37,41
548,571	37,11
549,049	37,36
549,526	36,71
550,003	36,88
550,48	37,29
550,957	36,9
551,434	37,44
551,911	37,67
552,387	37,48
552,864	37,52
553,34	37,06
553,817	37,36
554,293	37,67
554,769	36,95
555,245	37,88
555,721	36,89
556,197	37,57
556,672	37,21
557,148	37,06
557,623	37,13
558,099	36,76
558,574	36,8
559,049	36,85
559,524	37,19
559,999	36,69
560,474	36,98
560,948	36,41
561,423	36,46
561,897	36,6
562,372	36,4
562,846	36,27
563,32	36,16
563,794	35,67
564,268	36,04
564,742	35,88
565,216	36,1
565,69	35,07
566,163	35,47
566,636	34,61
567,11	35,45
567,583	34,76
568,056	34,55
568,529	34,27
569,002	34,58
569,475	33,84
569,947	33,74
570,42	34,01
570,892	33,52
571,365	33,63
571,837	32,91
572,309	32,83
572,781	32,56
573,253	32,53
573,725	32,13
574,197	32,47
574,668	32
575,14	32,02
575,611	31,86
576,082	30,89
576,554	31,36
577,025	31,03
577,496	30,96
577,967	31,37
578,437	30,97
578,908	30,39
579,379	30,62
579,849	30
580,319	30,22
580,79	29,68
581,26	29,41
581,73	29,59
582,2	29,96
582,669	29,46
583,139	29,04
583,609	29,04
584,078	28,96
584,548	28,87
585,017	28,51
585,486	28,11
585,955	28,5
586,424	28,37
586,893	28,02
587,362	27,65
587,83	27,64
588,299	27,43
588,767	27,58
589,236	27,65
589,704	27,26
590,172	27,37
590,64	27,47
591,108	27,22
591,576	27,49
592,043	26,69
592,511	27,2
592,978	26,83
593,446	26,95
593,913	26,69
594,38	26,74
594,847	26,7
595,314	26,51
595,781	26,88
596,248	26,09
596,715	26,82
597,181	26,61
597,647	26,09
598,114	26,1
598,58	26,56
599,046	26,06
599,512	25,94
599,978	25,58
600,444	26,04
600,91	26,16
601,375	26,23
601,841	25,59
602,306	25,71
602,771	25,41
603,236	25,42
603,702	25,46
604,167	25,36
604,631	25,18
605,096	25,07
605,561	25,35
606,025	25,01
606,49	24,89
606,954	25,23
607,418	24,92
607,882	25,1
608,347	24,92
608,81	24,61
609,274	24,37
609,738	24,44
610,202	24,34
610,665	23,95
611,128	24,17
611,592	23,86
612,055	23,71
612,518	23,48
612,981	23,46
613,444	23,58
613,907	23,32
614,369	23,06
614,832	22,98
615,294	22,99
615,757	22,8
616,219	22,63
616,681	22,55
617,143	22,91
617,605	22,28
618,067	22,11
618,529	22,23
618,99	22,34
619,452	21,99
619,913	21,93
620,375	21,83
620,836	21,88
621,297	21,67
621,758	21,83
622,219	21,34
622,68	21,48
623,14	21,49
623,601	21,46
624,061	21,24
624,522	21,36
624,982	21,43
625,442	21,38
625,902	21,29
626,362	21,11
626,822	20,96
627,282	21,22
627,742	20,99
628,201	20,83
628,661	21,21
629,12	20,96
629,579	20,73
630,038	21
630,497	20,64
630,956	20,99
631,415	20,72
631,874	20,78
632,332	20,49
632,791	20,48
633,249	20,55
633,708	20,55
634,166	20,5
634,624	20,17
635,082	20,3
635,54	20,01
635,998	19,94
636,455	19,61
636,913	19,87
637,37	19,62
637,828	19,67
638,285	19,5
638,742	19,13
639,199	19,03
639,656	18,98
640,113	18,68
640,57	18,5
641,027	18,52
641,483	18,17
641,94	18,19
642,396	17,72
642,852	17,57
643,309	17,19
643,765	17,3
644,221	17,04
644,676	16,98
645,132	16,78
645,588	16,64
646,043	16,53
646,499	16,38
646,954	16,13
647,409	15,93
647,864	15,8
648,319	15,77
648,774	15,55
649,229	15,26
649,684	15,45
650,139	15,09
650,593	15,06
651,047	14,98
651,502	14,97
651,956	14,79
652,41	14,63
652,864	14,57
653,318	14,6
653,772	14,64
654,225	14,42
654,679	14,44
655,133	14,48
655,586	14,09
656,039	14,13
656,492	13,95
656,946	14,2
657,399	13,87
657,851	13,6
658,304	13,57
658,757	13,51
659,209	13,45
659,662	13,16
660,114	13,17
660,567	12,87
661,019	12,85
661,471	12,83
661,923	12,74
662,375	12,36
662,826	12,28
663,278	12,08
663,73	12,18
664,181	12,03
664,632	11,86
665,084	11,75
665,535	11,75
665,986	11,49
666,437	11,5
666,888	11,45
667,338	11,31
667,789	11,24
668,24	11,2
668,69	11,14
669,14	11,12
669,591	11,07
670,041	11,14
670,491	11,04
670,941	11,1
671,391	11,21
671,84	11,24
672,29	11,03
672,74	10,78
673,189	11,1
673,638	11,3
674,088	11,24
674,537	11,22
674,986	11,3
675,435	11,49
675,883	11,55
676,332	11,59
676,781	11,71
677,229	11,74
677,678	11,85
678,126	11,84
678,574	12,05
679,022	12,04
679,47	12,39
679,918	12,57
680,366	12,62
680,814	12,76
681,261	12,99
681,709	13,08
682,156	13,07
682,604	13,44
683,051	13,32
683,498	14,08
683,945	13,91
684,392	14,5
684,839	14,43
685,286	14,71
685,732	15,22
686,179	15,25
686,625	15,51
687,071	15,84
687,518	16,32
687,964	16,57
688,41	17,22
688,856	17,62
689,301	17,94
689,747	18,42
690,193	18,93
690,638	19,57
691,084	19,86
691,529	20,4
691,974	21
692,419	22,09
692,864	22,33
693,309	23,44
693,754	23,45
694,199	23,97
694,643	25,16
695,088	25,57
695,532	26,28
695,977	27
696,421	27,7
696,865	28,18
697,309	28,63
697,753	29,63
698,197	30,41
698,64	31,07
699,084	31,76
699,527	32,06
699,971	33,11
700,414	33,9
700,857	33,86
701,3	34,85
701,743	35,14
702,186	35,8
702,629	36,21
703,072	37,14
703,515	37,36
703,957	38,15
704,399	38,33
704,842	39,2
705,284	39,29
705,726	39,93
706,168	40,64
706,61	40,77
707,052	41,07
707,494	41,58
707,935	42,37
708,377	42,58
708,818	42,92
709,26	43,45
709,701	44,1
710,142	44,55
710,583	44,95
711,024	45,5
711,465	45,76
711,905	46,02
712,346	45,96
712,787	46,61
713,227	47,19
713,667	47,03
714,108	47,41
714,548	48,07
714,988	48,72
715,428	48,52
715,868	48,91
716,307	49,24
716,747	49,81
717,186	50
717,626	50,21
718,065	50,85
718,504	50,3
718,944	50,79
719,383	51,35
719,822	51,77
720,261	51,61
720,699	52,49
721,138	52,56
721,576	52,6
722,015	53,01
722,453	53,26
722,892	53,63
723,33	53,41
723,768	53,67
724,206	53,8
724,644	54,35
725,081	53,84
725,519	54,36
725,957	54,57
726,394	54,88
726,832	54,88
727,269	55,09
727,706	55,52
728,143	55,79
728,58	55,68
729,017	56,19
729,454	55,58
729,89	55,7
730,327	56,14
730,764	56,24
731,2	56,58
731,636	56,59
732,072	56,31
732,509	56,42
732,945	56,73
733,38	56,84
733,816	56,84
734,252	56,73
734,688	56,6
735,123	57,49
735,559	56,7
735,994	57,12
736,429	56,91
736,864	57,05
737,299	57,22
737,734	57,47
738,169	57,74
738,604	57,37
739,038	57,39
739,473	57,46
739,907	57,8
740,342	58,06
740,776	57,89
741,21	57,55
741,644	58,18
742,078	57,55
742,512	57,73
742,946	57,75
743,379	58,12
743,813	57,84
744,246	57,86
744,68	57,87
745,113	57,59
745,546	57,56
745,979	57,55
746,412	57,74
746,845	57,75
747,278	57,43
747,711	57,48
748,143	57,77
748,576	57,66
749,008	57,35
749,441	57,68
749,873	57,55
750,305	57,5
750,737	57,34
751,169	57,5
751,601	57,26
752,032	57,4
752,464	57,41
752,896	57,04
753,327	57,66
753,758	57,44
754,19	57,58
754,621	57,56
755,052	57,2
755,483	57,01
755,914	56,87
756,344	57,72
756,775	56,99
757,206	56,6
757,636	56,81
758,066	56,66
758,497	56,94
758,927	56,97
759,357	56,88
759,787	57,15
760,217	56,64
760,647	56,47
761,076	56,67
761,506	56,6
761,935	56,58
762,365	56,53
762,794	56,57
763,223	56,27
763,653	56,6
764,082	56,53
764,51	56,44
764,939	56,82
765,368	56,26
765,797	56,28
766,225	55,83
766,654	56,09
767,082	56
767,51	56,44
767,938	55,94
768,367	56,39
768,795	56,13
769,222	55,9
769,65	56,06
770,078	56,16
770,505	55,81
770,933	55,78
771,36	56,02
771,788	56,02
772,215	55,63
772,642	55,91
773,069	55,5
773,496	55,68
773,923	55,55
774,349	55,69
774,776	55,59
775,203	55,72
775,629	55,36
776,055	55,84
776,482	55,52
776,908	55,55
777,334	55,22
777,76	55,43
778,186	55,28
778,611	55,69
779,037	55,44
779,463	55,59
779,888	55,34
780,314	55,31
780,739	55,15
781,164	55,51
781,589	55,73
782,014	54,92
782,439	55,36
782,864	55,12
783,289	55,46
783,713	55,06
784,138	55,4
784,562	55,78
784,987	55,34
785,411	54,99
785,835	55,25
786,259	55,39
786,683	55,36
787,107	54,95
787,531	55,23
787,954	55,08
788,378	55,29
788,802	55,37
789,225	54,72
789,648	55,12
790,071	54,96
790,495	55,13
790,918	55,12
791,34	55,04
791,763	54,92
792,186	55,14
792,609	55,26
793,031	55,22
793,454	54,83
793,876	55,09
794,298	55,04
794,721	54,79
795,143	54,89
795,565	55,2
795,986	54,61
796,408	55,04
796,83	54,9
797,252	54,9
797,673	54,75
798,094	55,23
798,516	55,01
798,937	55,11
799,358	55,05
799,779	55,12
800,2	54,84
800,621	54,95
801,042	54,65
801,462	54,92
801,883	55,11
802,303	54,45
802,724	54,9
803,144	55,14
803,564	54,79
803,984	54,61
804,404	54,17
804,824	54,88
805,244	54,75
805,664	55,03
806,084	54,72
806,503	54,51
806,923	54,44
807,342	54,96
807,761	54,63
808,18	55,21
808,599	54,98
809,018	54,74
809,437	54,89
809,856	54,75
810,275	55,14
810,693	54,78
811,112	54,7
811,53	54,77
811,949	54,98
812,367	54,91
812,785	54,48
813,203	54,37
813,621	54,72
814,039	54,87
814,457	54,59
814,874	54,66
815,292	54,76
815,709	54,4
816,127	54,84
816,544	54,62
816,961	54,63
817,378	54,61
817,795	54,52
818,212	54,82
818,629	54,82
819,046	55,14
819,462	54,84
819,879	54,73
820,295	54,71
820,712	54,95
821,128	54,55
821,544	54,73
821,96	54,87
822,376	54,73
822,792	54,65
823,208	54,55
823,624	54,52
824,039	54,41
824,455	54,76
824,87	54,48
825,286	54,49
825,701	54,4
826,116	54,62
826,531	54,8
826,946	54,59
827,361	54,37
827,776	54,07
828,19	54,48
828,605	53,97
829,02	54,39
829,434	54,09
829,848	54,77
830,263	54,71
830,677	54,4
831,091	54,29
831,505	54,54
831,919	54,51
832,332	53,99
832,746	54,34
833,16	54,61
833,573	54,73
833,987	53,87
834,4	54,54
