Data from G_4_Relative__2__00148.txt Node

Date: Tue Jan 30 10:10:44 CET 2024
User: diatiterra
Spectrometer: HDX00911
Trigger mode: 0
Integration Time (sec): 6,000000E-3
Scans to average: 2
Nonlinearity correction enabled: false
Boxcar width: 0
Storing dark spectrum: false
XAxis mode: Wavelengths
Number of Pixels in Spectrum: 2068
>>>>>Begin Spectral Data<<<<<
194,468	89,5
195,025	95,16
195,581	81,82
196,138	89,81
196,694	91,54
197,251	77,53
197,807	73,75
198,363	76,64
198,919	81,7
199,474	75,42
200,03	81,5
200,586	83,26
201,141	84,45
201,696	80,25
202,251	73,13
202,806	77,45
203,361	77,24
203,916	80,91
204,471	86,14
205,025	76,57
205,58	83,41
206,134	71,31
206,688	82,4
207,242	85,14
207,796	76,69
208,35	84,93
208,904	81,85
209,457	83,72
210,011	84,28
210,564	79,73
211,117	83,4
211,67	80,97
212,223	72,91
212,776	77,97
213,329	77,22
213,881	75,32
214,434	77,87
214,986	81,25
215,538	79,53
216,09	78,71
216,642	76,03
217,194	94,74
217,746	73,31
218,297	73,11
218,849	71,1
219,4	64,94
219,951	85,4
220,502	78,21
221,053	83,05
221,604	75,2
222,155	85,17
222,705	77,87
223,256	71,54
223,806	73,33
224,356	87,25
224,906	84,14
225,456	71,85
226,006	78,12
226,556	84,07
227,106	71,37
227,655	76,28
228,204	84,16
228,754	83,97
229,303	90,54
229,852	83,41
230,401	82,06
230,949	76,95
231,498	85,71
232,047	82,38
232,595	78,71
233,143	89,47
233,691	78,8
234,239	73,66
234,787	84,3
235,335	70,56
235,883	77,93
236,43	78,81
236,978	86,52
237,525	91,49
238,072	77,09
238,619	78,03
239,166	79,31
239,713	79,32
240,26	72,98
240,806	85,34
241,353	88,03
241,899	75,31
242,445	76,99
242,991	78,28
243,537	82,68
244,083	81,9
244,629	78,85
245,174	80
245,72	80,69
246,265	74,66
246,81	84,44
247,355	81,39
247,9	78,75
248,445	69,05
248,99	70,21
249,534	78,87
250,079	85,19
250,623	96,9
251,168	81,22
251,712	72,05
252,256	81,4
252,8	87,17
253,343	79,35
253,887	85,28
254,43	80,37
254,974	76,8
255,517	86,06
256,06	78,48
256,603	76,95
257,146	71,15
257,689	82,63
258,232	79,19
258,774	86,34
259,317	81,03
259,859	78,1
260,401	86,45
260,943	76,76
261,485	80,91
262,027	81,7
262,569	79,63
263,11	74,78
263,652	76,99
264,193	80,47
264,734	82,41
265,275	79,83
265,816	73,08
266,357	80,91
266,898	82,48
267,438	85,11
267,979	80,17
268,519	83,17
269,059	66,8
269,6	80,53
270,14	88,79
270,68	80,74
271,219	77,83
271,759	87,34
272,298	78,4
272,838	76,89
273,377	88,29
273,916	76,65
274,455	75
274,994	79,26
275,533	70,72
276,072	77,45
276,61	85,09
277,149	78,75
277,687	85,17
278,225	80,66
278,763	73,28
279,301	72,65
279,839	83,2
280,377	75,92
280,914	83,33
281,452	83,74
281,989	81,82
282,526	77,92
283,064	71,26
283,601	86,67
284,137	77,78
284,674	84,1
285,211	77,29
285,747	81,5
286,284	89,66
286,82	70,97
287,356	73,78
287,892	71,19
288,428	74,68
288,964	79,67
289,5	77,21
290,035	82,16
290,571	71,98
291,106	81,45
291,641	75,55
292,176	65,2
292,711	80,6
293,246	73,18
293,781	82,61
294,315	79,07
294,85	75,3
295,384	81,13
295,918	82
296,453	77,33
296,987	75,85
297,52	72,85
298,054	75,57
298,588	71,6
299,121	68,92
299,655	83,02
300,188	72,03
300,721	81,7
301,254	74,44
301,787	76,75
302,32	76,92
302,853	87,23
303,385	73,73
303,918	76,44
304,45	79,04
304,982	77,6
305,514	73,17
306,046	78,32
306,578	68,88
307,11	69,7
307,641	71,85
308,173	76,52
308,704	78,05
309,236	79,57
309,767	69,17
310,298	72,4
310,829	76,74
311,359	85,84
311,89	73,46
312,421	75,1
312,951	71,97
313,481	84,36
314,012	67,83
314,542	69,37
315,072	76,39
315,601	69,76
316,131	77,68
316,661	79,92
317,19	66,53
317,72	69,07
318,249	79,82
318,778	76,13
319,307	72,18
319,836	73,2
320,365	80
320,893	86,22
321,422	80,72
321,95	73,91
322,479	71,49
323,007	68,92
323,535	72,83
324,063	80,54
324,591	77,39
325,118	76,62
325,646	67,24
326,173	76,79
326,701	74,1
327,228	78,78
327,755	67,62
328,282	77,27
328,809	68,42
329,336	79,15
329,862	81,39
330,389	77,53
330,915	68,99
331,441	89,03
331,968	69,72
332,494	77,33
333,02	72,8
333,545	75,71
334,071	73,11
334,597	79,75
335,122	70,27
335,648	74
336,173	75
336,698	73,82
337,223	77,46
337,748	76,86
338,272	80,69
338,797	80,48
339,322	86,32
339,846	73,09
340,37	79,04
340,894	77,64
341,419	77,42
341,942	78,68
342,466	73,45
342,99	66,92
343,514	75,71
344,037	72,18
344,56	72,51
345,084	74,58
345,607	67,17
346,13	81,85
346,653	67,53
347,175	71,19
347,698	78,75
348,221	83
348,743	82,64
349,265	82,45
349,787	69,69
350,309	72,63
350,831	70,07
351,353	80
351,875	66,3
352,397	70,51
352,918	78,09
353,439	70,92
353,961	68,18
354,482	70,81
355,003	73,5
355,524	69,93
356,044	69,09
356,565	74,31
357,086	66,56
357,606	63
358,126	68,56
358,646	63,45
359,167	67,77
359,687	68,98
360,206	70,29
360,726	67,82
361,246	69,35
361,765	68,61
362,285	66,11
362,804	57,93
363,323	66,07
363,842	71,29
364,361	66,25
364,88	69,07
365,398	63,75
365,917	69,82
366,435	66,94
366,954	63,53
367,472	64,26
367,99	66,01
368,508	64,85
369,026	64,31
369,544	67,54
370,061	63,54
370,579	70,72
371,096	63,35
371,613	62,73
372,131	61,36
372,648	64,47
373,165	62,8
373,681	61,52
374,198	65,57
374,715	57,47
375,231	60
375,747	56,79
376,264	59,47
376,78	62,56
377,296	58,1
377,812	52,87
378,327	60,56
378,843	58,99
379,359	58,15
379,874	50,94
380,389	60,5
380,905	56,69
381,42	52,24
381,935	58,62
382,449	56,05
382,964	52,74
383,479	56,16
383,993	57,6
384,508	45,19
385,022	51,6
385,536	49,63
386,05	51,76
386,564	45,44
387,078	53,58
387,592	49,18
388,105	48,84
388,619	44,59
389,132	50,58
389,645	45,62
390,158	43,78
390,671	47,28
391,184	48,56
391,697	42,67
392,21	45,6
392,722	44,32
393,235	42,72
393,747	44,94
394,259	45,78
394,771	42,65
395,283	38,72
395,795	41,6
396,307	41,46
396,818	40,55
397,33	40,91
397,841	38,77
398,353	38,19
398,864	39,61
399,375	36,49
399,886	35,04
400,397	35,92
400,907	35,68
401,418	35,47
401,928	37
402,439	34,51
402,949	32,44
403,459	32,39
403,969	33,3
404,479	31,37
404,989	30,65
405,498	29,82
406,008	30,14
406,517	29,49
407,027	28,61
407,536	26,88
408,045	26,19
408,554	24,94
409,063	23,96
409,572	23,48
410,08	23,67
410,589	22,97
411,097	20,98
411,606	22,14
412,114	19,17
412,622	20,01
413,13	20,06
413,638	17,9
414,145	18,22
414,653	17,09
415,16	17,23
415,668	17,2
416,175	16,53
416,682	15,92
417,189	15,42
417,696	15,51
418,203	15,54
418,71	14,15
419,216	15,14
419,723	13,81
420,229	13,84
420,735	14,21
421,242	14,37
421,748	13,65
422,254	14,48
422,759	13,13
423,265	12,14
423,771	12,59
424,276	12,32
424,781	13,73
425,287	13,14
425,792	11,41
426,297	12,13
426,802	11,75
427,306	12,26
427,811	11,51
428,316	12,05
428,82	12,08
429,324	11,64
429,829	12,2
430,333	11,68
430,837	11,51
431,34	12
431,844	11,62
432,348	11,76
432,851	11,13
433,355	11,34
433,858	11,56
434,361	11,76
434,864	10,59
435,367	11,68
435,87	10,7
436,373	10,65
436,876	11,09
437,378	10,63
437,88	10,45
438,383	11,02
438,885	11,16
439,387	10,17
439,889	10,6
440,391	10,73
440,892	10,97
441,394	10,9
441,896	10,86
442,397	10,84
442,898	10,38
443,399	9,97
443,9	10,39
444,401	10,13
444,902	10,23
445,403	9,97
445,903	11,15
446,404	10,76
446,904	10,83
447,405	10,46
447,905	10,34
448,405	10,17
448,905	10,93
449,404	10,74
449,904	10,41
450,404	10,91
450,903	10,5
451,403	10,3
451,902	11,18
452,401	10,56
452,9	10,8
453,399	10,14
453,898	10,89
454,396	11,06
454,895	10,91
455,393	10,83
455,892	11,25
456,39	10,31
456,888	11,34
457,386	11,17
457,884	10,89
458,382	11
458,879	10,72
459,377	11,24
459,874	11,16
460,372	10,98
460,869	10,94
461,366	11,14
461,863	10,79
462,36	10,85
462,857	10,53
463,353	10,51
463,85	11,11
464,346	10,55
464,843	10,5
465,339	10,51
465,835	10,38
466,331	10,51
466,827	10,78
467,323	10,93
467,818	10,61
468,314	10,43
468,809	10,35
469,305	10,92
469,8	11,05
470,295	10,6
470,79	10,79
471,285	11,09
471,78	10,65
472,274	10,79
472,769	10,8
473,263	10,55
473,758	11,14
474,252	11,2
474,746	10,51
475,24	10,99
475,734	10,68
476,228	10,34
476,721	10,58
477,215	10,54
477,708	10,57
478,202	10,51
478,695	10,4
479,188	10,73
479,681	10,97
480,174	10,44
480,667	10,57
481,159	10,8
481,652	11,1
482,144	11,22
482,637	11,14
483,129	10,5
483,621	11,38
484,113	10,95
484,605	10,66
485,097	10,85
485,588	10,99
486,08	10,95
486,571	10,94
487,063	11,47
487,554	10,83
488,045	11,38
488,536	11,3
489,027	11,25
489,518	10,85
490,008	11,22
490,499	11,64
490,989	11,43
491,48	11,05
491,97	11,46
492,46	11,6
492,95	11,2
493,44	11,53
493,93	11,44
494,419	11,75
494,909	11,82
495,398	12,01
495,888	12,17
496,377	11,95
496,866	12,13
497,355	12,2
497,844	12,36
498,333	12,92
498,821	12,44
499,31	12,44
499,798	13,2
500,287	13,32
500,775	13,14
501,263	13,54
501,751	13,57
502,239	13,77
502,727	13,85
503,215	14,39
503,702	13,95
504,19	14,43
504,677	15,08
505,164	15,01
505,651	14,97
506,139	15,59
506,625	15,09
507,112	15,63
507,599	16
508,086	16,9
508,572	16,48
509,058	17,06
509,545	17,16
510,031	17,21
510,517	17,81
511,003	18,02
511,489	18,67
511,974	18,87
512,46	19,33
512,946	18,96
513,431	19,31
513,916	20,12
514,401	20,37
514,887	20,21
515,371	21,35
515,856	21,63
516,341	22,14
516,826	22,35
517,31	22,72
517,795	23
518,279	23,32
518,763	23,63
519,247	24,02
519,731	24,92
520,215	24,98
520,699	25,44
521,182	25,89
521,666	26,21
522,149	26,56
522,633	27,17
523,116	27,17
523,599	27,78
524,082	28,61
524,565	28,82
525,048	29
525,53	29,53
526,013	29,8
526,495	30,06
526,978	30,38
527,46	30,59
527,942	31,43
528,424	31,81
528,906	31,52
529,388	31,82
529,87	32,47
530,351	32,06
530,833	32,6
531,314	32,94
531,795	33,66
532,277	33,2
532,758	33,82
533,238	34,39
533,719	33,7
534,2	34,28
534,681	34,43
535,161	34,28
535,642	34,26
536,122	35,04
536,602	34,46
537,082	34,54
537,562	35,08
538,042	34,91
538,522	35,01
539,001	34,62
539,481	35,28
539,96	35,49
540,44	34,98
540,919	35,27
541,398	34,83
541,877	35,2
542,356	36,12
542,835	35,46
543,313	35,46
543,792	35,91
544,27	35,59
544,749	35,83
545,227	36,08
545,705	35,4
546,183	36,49
546,661	36,32
547,139	35,85
547,616	36,57
548,094	36,59
548,571	36,12
549,049	36,51
549,526	37,34
550,003	36,56
550,48	36,23
550,957	35,8
551,434	35,53
551,911	36,64
552,387	36,84
552,864	37,03
553,34	36,7
553,817	36,36
554,293	36,63
554,769	36,36
555,245	36,7
555,721	36,76
556,197	36,33
556,672	36,54
557,148	36,38
557,623	36,37
558,099	36,66
558,574	36,98
559,049	36,09
559,524	36,57
559,999	35,62
560,474	36,25
560,948	35,72
561,423	35,52
561,897	35,33
562,372	35,61
562,846	35,37
563,32	35,18
563,794	35,07
564,268	34,81
564,742	35,31
565,216	34,89
565,69	34,51
566,163	34,57
566,636	34,67
567,11	34,24
567,583	33,77
568,056	33,26
568,529	33,16
569,002	32,95
569,475	33,49
569,947	32,24
570,42	32,73
570,892	32,02
571,365	31,93
571,837	32,35
572,309	31,73
572,781	31,73
573,253	31,97
573,725	30,86
574,197	30,21
574,668	30,58
575,14	30,48
575,611	30,14
576,082	29,9
576,554	29,62
577,025	29,47
577,496	29,26
577,967	28,98
578,437	28,81
578,908	29,28
579,379	28,12
579,849	28,12
580,319	28,33
580,79	27,88
581,26	27,92
581,73	27,62
582,2	27,77
582,669	27,22
583,139	27,39
583,609	26,97
584,078	27,25
584,548	27,13
585,017	27
585,486	26,4
585,955	26,5
586,424	26,49
586,893	26,19
587,362	26,11
587,83	26,07
588,299	25,74
588,767	25,85
589,236	26,32
589,704	25,32
590,172	25,64
590,64	25,41
591,108	25,44
591,576	25,39
592,043	24,79
592,511	24,97
592,978	24,8
593,446	24,81
593,913	24,43
594,38	25,17
594,847	24,72
595,314	24,83
595,781	24,89
596,248	24,49
596,715	24,82
597,181	24,28
597,647	24,53
598,114	24,49
598,58	24,24
599,046	24,4
599,512	23,99
599,978	23,99
600,444	24,04
600,91	23,67
601,375	23,92
601,841	23,67
602,306	23,65
602,771	23,67
603,236	23,78
603,702	23,66
604,167	23,34
604,631	23,32
605,096	23,13
605,561	23,3
606,025	23,1
606,49	22,73
606,954	23,26
607,418	22,85
607,882	22,57
608,347	22,74
608,81	22,66
609,274	22,66
609,738	22,42
610,202	22,31
610,665	22,17
611,128	22,04
611,592	21,98
612,055	21,62
612,518	21,84
612,981	21,6
613,444	21,31
613,907	21,2
614,369	21,14
614,832	20,83
615,294	20,7
615,757	20,81
616,219	20,87
616,681	20,8
617,143	20,37
617,605	20,35
618,067	20,07
618,529	20,3
618,99	19,74
619,452	20,03
619,913	20,16
620,375	19,91
620,836	19,74
621,297	19,58
621,758	19,66
622,219	19,49
622,68	19,31
623,14	19,23
623,601	19,4
624,061	19,33
624,522	19,2
624,982	19,04
625,442	18,84
625,902	19,04
626,362	19,03
626,822	19,06
627,282	18,97
627,742	18,85
628,201	18,99
628,661	19,15
629,12	18,86
629,579	18,89
630,038	18,92
630,497	18,72
630,956	18,62
631,415	18,47
631,874	18,63
632,332	18,84
632,791	18,52
633,249	18,67
633,708	18,15
634,166	18,03
634,624	18,16
635,082	18,3
635,54	18,27
635,998	17,87
636,455	17,89
636,913	17,7
637,37	17,42
637,828	17,24
638,285	17,09
638,742	17,15
639,199	17,09
639,656	16,67
640,113	16,42
640,57	16,39
641,027	16,37
641,483	16,27
641,94	16,13
642,396	15,93
642,852	16,03
643,309	15,48
643,765	15,37
644,221	15,27
644,676	14,77
645,132	14,97
645,588	14,5
646,043	14,69
646,499	14,44
646,954	14,16
647,409	14,16
647,864	13,89
648,319	13,78
648,774	13,4
649,229	13,56
649,684	13,61
650,139	13,21
650,593	13,06
651,047	13,38
651,502	12,94
651,956	12,89
652,41	13,05
652,864	12,97
653,318	12,94
653,772	12,76
654,225	12,73
654,679	12,65
655,133	12,62
655,586	12,59
656,039	12,4
656,492	12,63
656,946	12,46
657,399	12,17
657,851	12,1
658,304	12,06
658,757	11,78
659,209	12
659,662	11,61
660,114	11,63
660,567	11,52
661,019	11,36
661,471	11,36
661,923	11,15
662,375	10,98
662,826	11,1
663,278	10,9
663,73	10,84
664,181	10,77
664,632	10,74
665,084	10,65
665,535	10,55
665,986	10,69
666,437	10,51
666,888	10,4
667,338	10,33
667,789	10,23
668,24	10,37
668,69	10,41
669,14	10,15
669,591	10,31
670,041	10,1
670,491	10,21
670,941	10,37
671,391	10,33
671,84	10,41
672,29	10,43
672,74	10,58
673,189	10,54
673,638	10,42
674,088	10,8
674,537	10,85
674,986	10,79
675,435	11,01
675,883	10,93
676,332	11,05
676,781	11,15
677,229	11,18
677,678	11,52
678,126	11,53
678,574	11,76
679,022	11,89
679,47	11,93
679,918	11,98
680,366	12,34
680,814	12,35
681,261	12,43
681,709	12,65
682,156	12,67
682,604	12,78
683,051	13,23
683,498	13,4
683,945	13,46
684,392	13,58
684,839	13,97
685,286	13,87
685,732	14,13
686,179	14,46
686,625	14,48
687,071	15,13
687,518	15,31
687,964	15,48
688,41	15,85
688,856	16,29
689,301	16,72
689,747	16,95
690,193	17,24
690,638	17,92
691,084	18,29
691,529	19
691,974	19,65
692,419	19,97
692,864	20,44
693,309	21,34
693,754	21,75
694,199	22,52
694,643	22,87
695,088	23,77
695,532	24,26
695,977	24,96
696,421	25,61
696,865	26,4
697,309	27,03
697,753	28,04
698,197	28,7
698,64	29,29
699,084	29,87
699,527	30,74
699,971	31,61
700,414	32,21
700,857	32,54
701,3	33,16
701,743	33,44
702,186	34,52
702,629	34,98
703,072	36,13
703,515	36,68
703,957	37,03
704,399	37,4
704,842	38,3
705,284	38,68
705,726	39,34
706,168	39,84
706,61	40,57
707,052	40,67
707,494	41,58
707,935	42,13
708,377	42,3
708,818	42,94
709,26	43,5
709,701	44,15
710,142	45,04
710,583	44,7
711,024	45,55
711,465	46,15
711,905	46,92
712,346	47
712,787	47,23
713,227	48,22
713,667	48,02
714,108	48,81
714,548	49,69
714,988	49,88
715,428	49,9
715,868	50,69
716,307	51,16
716,747	51,28
717,186	52,14
717,626	52,01
718,065	52,32
718,504	53,07
718,944	53,08
719,383	53,61
719,822	54,17
720,261	54,36
720,699	54,87
721,138	55,45
721,576	55,12
722,015	55,84
722,453	56,2
722,892	57,19
723,33	56,52
723,768	56,66
724,206	57,33
724,644	57,49
725,081	57,24
725,519	58,03
725,957	57,54
726,394	58,51
726,832	58,34
727,269	58,61
727,706	59,27
728,143	59,54
728,58	59,65
729,017	60,02
729,454	59,65
729,89	59,82
730,327	60,33
730,764	60,08
731,2	60,78
731,636	60,68
732,072	61,09
732,509	60,6
732,945	61,35
733,38	61,3
733,816	61,6
734,252	61,45
734,688	61,04
735,123	61,65
735,559	61,45
735,994	61,63
736,429	61,96
736,864	62,2
737,299	62,14
737,734	62,3
738,169	62,84
738,604	61,97
739,038	62,18
739,473	62,6
739,907	62,58
740,342	62,63
740,776	62,55
741,21	62,46
741,644	62,88
742,078	62,93
742,512	62,81
742,946	62,77
743,379	63,2
743,813	63,18
744,246	62,81
744,68	63,23
745,113	62,77
745,546	62,47
745,979	62,63
746,412	62,78
746,845	62,2
747,278	62,38
747,711	62,79
748,143	63,18
748,576	63,01
749,008	62,46
749,441	62,72
749,873	62,73
750,305	62,52
750,737	62,42
751,169	62,29
751,601	62,48
752,032	62,43
752,464	62,24
752,896	62,38
753,327	62,67
753,758	62,49
754,19	61,88
754,621	62,22
755,052	62,19
755,483	62,14
755,914	61,71
756,344	61,96
756,775	61,91
757,206	61,75
757,636	61,47
758,066	61,71
758,497	62,03
758,927	62,16
759,357	62,21
759,787	61,97
760,217	61,37
760,647	61,1
761,076	61,51
761,506	61,2
761,935	61,57
762,365	61,53
762,794	61,57
763,223	61,24
763,653	61,31
764,082	61,45
764,51	61,31
764,939	61,05
765,368	61,28
765,797	61,4
766,225	60,6
766,654	60,72
767,082	60,83
767,51	61,13
767,938	60,65
768,367	60,93
768,795	60,92
769,222	60,72
769,65	60,65
770,078	60,71
770,505	60,74
770,933	60,91
771,36	60,06
771,788	60,81
772,215	60,75
772,642	60,62
773,069	60,18
773,496	60,54
773,923	60,29
774,349	60,3
774,776	60,23
775,203	60,59
775,629	60,22
776,055	60,32
776,482	60,16
776,908	60,68
777,334	60,05
777,76	60,49
778,186	60,03
778,611	60,25
779,037	60,05
779,463	59,87
779,888	59,49
780,314	59,75
780,739	59,9
781,164	60,06
781,589	60,14
782,014	59,65
782,439	59,75
782,864	59,99
783,289	60,11
783,713	59,77
784,138	60
784,562	59,46
784,987	59,67
785,411	59,76
785,835	60,31
786,259	59,79
786,683	59,86
787,107	59,91
787,531	59,83
787,954	59,69
788,378	59,81
788,802	59,58
789,225	59,45
789,648	59,74
790,071	59,89
790,495	59,45
790,918	59,58
791,34	59,13
791,763	59,56
792,186	59,96
792,609	59,63
793,031	59,52
793,454	59,06
793,876	59,55
794,298	59,7
794,721	59,76
795,143	59,51
795,565	59,31
795,986	59,18
796,408	59,43
796,83	59,57
797,252	59,08
797,673	59,18
798,094	59,82
798,516	59,22
798,937	59,57
799,358	59,77
799,779	60,06
800,2	59,24
800,621	59,25
801,042	59,34
801,462	59,01
801,883	59,33
802,303	59,21
802,724	59,67
803,144	59,58
803,564	59,33
803,984	59,22
804,404	59,32
804,824	59,62
805,244	59,69
805,664	59,27
806,084	59,28
806,503	59,18
806,923	59
807,342	59,46
807,761	59,16
808,18	59,26
808,599	59,3
809,018	59,32
809,437	59,1
809,856	59,16
810,275	59,21
810,693	59,35
811,112	59,15
811,53	59,36
811,949	59,24
812,367	59,19
812,785	58,99
813,203	59,03
813,621	59,38
814,039	59,24
814,457	59,09
814,874	58,81
815,292	58,88
815,709	59,03
816,127	59,26
816,544	58,54
816,961	59,33
817,378	59,19
817,795	58,72
818,212	59,28
818,629	58,81
819,046	59,19
819,462	59,22
819,879	59,51
820,295	59,43
820,712	59,35
821,128	59,28
821,544	58,87
821,96	59,18
822,376	59,41
822,792	59,18
823,208	58,77
823,624	58,74
824,039	58,99
824,455	58,83
824,87	58,73
825,286	59,27
825,701	59,07
826,116	59,27
826,531	58,98
826,946	59,01
827,361	58,87
827,776	58,83
828,19	59,22
828,605	58,31
829,02	58,82
829,434	58,62
829,848	59,06
830,263	58,89
830,677	58,71
831,091	58,9
831,505	59,26
831,919	59,09
832,332	58,8
832,746	58,51
833,16	58,47
833,573	58,8
833,987	58,36
834,4	58,09
834,813	58,53
