Data from G_4_Relative__8__00154.txt Node

Date: Tue Jan 30 10:11:15 CET 2024
User: diatiterra
Spectrometer: HDX00911
Trigger mode: 0
Integration Time (sec): 6,000000E-3
Scans to average: 2
Nonlinearity correction enabled: false
Boxcar width: 0
Storing dark spectrum: false
XAxis mode: Wavelengths
Number of Pixels in Spectrum: 2068
>>>>>Begin Spectral Data<<<<<
194,468	102,76
195,025	112,9
195,581	109,09
196,138	94,9
196,694	92,54
197,251	85,46
197,807	96,67
198,363	81,15
198,919	94,47
199,474	89,83
200,03	86,61
200,586	94,27
201,141	81,93
201,696	87,82
202,251	93,53
202,806	91,06
203,361	97,56
203,916	87,55
204,471	91,58
205,025	93,31
205,58	90,78
206,134	84,06
206,688	96,57
207,242	90,99
207,796	91,1
208,35	94,52
208,904	86,69
209,457	95,35
210,011	94,32
210,564	95,95
211,117	95,74
211,67	93,52
212,223	91,63
212,776	96,19
213,329	92,41
213,881	93,51
214,434	85,66
214,986	95,98
215,538	95,67
216,09	85,94
216,642	86,78
217,194	105,26
217,746	94,82
218,297	83,61
218,849	88,21
219,4	92,64
219,951	101,77
220,502	89,88
221,053	99,58
221,604	94,49
222,155	92,37
222,705	85,11
223,256	83,15
223,806	97,08
224,356	100,49
224,906	100,88
225,456	87,82
226,006	91,96
226,556	99,12
227,106	95,44
227,655	97,67
228,204	105,43
228,754	90,72
229,303	103,6
229,852	92,14
230,401	97,31
230,949	86,52
231,498	96,43
232,047	88,52
232,595	82,33
233,143	103,95
233,691	85,16
234,239	93,13
234,787	94,62
235,335	85,28
235,883	97,75
236,43	94,07
236,978	90,87
237,525	91,49
238,072	82,38
238,619	79,37
239,166	93,97
239,713	90,3
240,26	87,9
240,806	91,81
241,353	93,59
241,899	95,47
242,445	87,87
242,991	97,95
243,537	89,18
244,083	90,05
244,629	96,04
245,174	88,09
245,72	85,71
246,265	105,88
246,81	100,89
247,355	90,88
247,9	88,75
248,445	86,11
248,99	83,4
249,534	83,77
250,079	93,06
250,623	101,33
251,168	93,06
251,712	82,53
252,256	83,06
252,8	95,13
253,343	78,54
253,887	101,73
254,43	85,19
254,974	82
255,517	92,79
256,06	83,12
256,603	93
257,146	84,23
257,689	93,22
258,232	91,4
258,774	88,99
259,317	93,97
259,859	99,52
260,401	92,06
260,943	87,97
261,485	92,73
262,027	83,4
262,569	98,61
263,11	91,15
263,652	84,07
264,193	88,84
264,734	97,69
265,275	85,84
265,816	85,9
266,357	92,53
266,898	88,46
267,438	94,04
267,979	94,4
268,519	96,15
269,059	81,03
269,6	87,17
270,14	84,91
270,68	90,57
271,219	95,65
271,759	99,56
272,298	86
272,838	86,45
273,377	90,99
273,916	88,72
274,455	81,92
274,994	81,11
275,533	79,47
276,072	89,79
276,61	89,04
277,149	84,58
277,687	99,58
278,225	85,19
278,763	83,59
279,301	88,16
279,839	87,7
280,377	87,76
280,914	84,26
281,452	89,02
281,989	95,87
282,526	83,75
283,064	85,44
283,601	96,67
284,137	87,11
284,674	93,31
285,211	93,01
285,747	91,34
286,284	92,67
286,82	89,11
287,356	87,11
287,892	78,6
288,428	89,7
288,964	90,87
289,5	93,02
290,035	85,06
290,571	82,88
291,106	85,97
291,641	87,77
292,176	85,6
292,711	84,48
293,246	89,27
293,781	81,74
294,315	87,91
294,85	84,06
295,384	97,64
295,918	94,4
296,453	83,81
296,987	90,25
297,52	90,5
298,054	90,5
298,588	86
299,121	85,59
299,655	92,45
300,188	80,08
300,721	88,84
301,254	84,3
301,787	92,54
302,32	88,03
302,853	91,49
303,385	79,22
303,918	82,22
304,45	87,34
304,982	88
305,514	82,52
306,046	90,27
306,578	79,25
307,11	78,79
307,641	84,03
308,173	85,65
308,704	88,21
309,236	93,48
309,767	82,92
310,298	84
310,829	83,33
311,359	84,51
311,89	82,69
312,421	80
312,951	85,77
313,481	92,89
314,012	85,66
314,542	86,94
315,072	91,42
315,601	89,11
316,131	87,12
316,661	84,94
317,19	75,1
317,72	83,9
318,249	91,28
318,778	92,59
319,307	82,26
319,836	80,8
320,365	94,04
320,893	89,37
321,422	87,44
321,95	89,57
322,479	77,11
323,007	87,25
323,535	86,79
324,063	83,66
324,591	86,97
325,118	77,06
325,646	81,9
326,173	93,75
326,701	81,67
327,228	87,35
327,755	91,43
328,282	91,82
328,809	88,16
329,336	86,38
329,862	87,96
330,389	89,43
330,915	84,11
331,441	100,42
331,968	81,27
332,494	92
333,02	87,45
333,545	86,64
334,071	87,39
334,597	88,84
335,122	84,68
335,648	91,2
336,173	94,92
336,698	87,12
337,223	92,96
337,748	85,1
338,272	89,7
338,797	83,67
339,322	88,46
339,846	85,54
340,37	86,46
340,894	91,98
341,419	84,27
341,942	85,27
342,466	74,78
342,99	80,61
343,514	85,43
344,037	80,45
344,56	80,88
345,084	86,86
345,607	74,34
346,13	78,63
346,653	71,22
347,175	90,25
347,698	92,67
348,221	88,66
348,743	88,68
349,265	90,61
349,787	80,84
350,309	83,94
350,831	81,34
351,353	88,98
351,875	89,38
352,397	74,92
352,918	93,63
353,439	92,83
353,961	81,47
354,482	79,19
355,003	78,23
355,524	82,43
356,044	80,36
356,565	81,6
357,086	76,62
357,606	76,33
358,126	80,27
358,646	73,79
359,167	77,41
359,687	85,48
360,206	81,47
360,726	81,7
361,246	78,02
361,765	77,02
362,285	77,85
362,804	70,12
363,323	78,08
363,842	81,19
364,361	81,73
364,88	74,47
365,398	72,21
365,917	68,64
366,435	69,97
366,954	78,72
367,472	80,18
367,99	74,5
368,508	80,3
369,026	73,65
369,544	83,77
370,061	69,97
370,579	77,62
371,096	75,13
371,613	71,05
372,131	64,75
372,648	72,84
373,165	75,73
373,681	70,42
374,198	70,13
374,715	69,33
375,231	77,28
375,747	72,84
376,264	70,63
376,78	71,33
377,296	69,29
377,812	69,83
378,327	70,19
378,843	65,71
379,359	73,79
379,874	65,9
380,389	68,49
380,905	70,7
381,42	62,65
381,935	70,91
382,449	67,38
382,964	68,43
383,479	65,14
383,993	70
384,508	64,62
385,022	67,42
385,536	67,1
386,05	64,38
386,564	58,95
387,078	67,54
387,592	59,84
388,105	64,4
388,619	57,19
389,132	62,9
389,645	61,6
390,158	64,57
390,671	61,53
391,184	62,97
391,697	55,62
392,21	59,54
392,722	61,01
393,235	56,87
393,747	59,13
394,259	57,48
394,771	56,78
395,283	53,94
395,795	57,33
396,307	57,22
396,818	57,76
397,33	57,79
397,841	57,57
398,353	54,58
398,864	53,87
399,375	53,42
399,886	53,89
400,397	52,54
400,907	52,47
401,418	50,67
401,928	52,52
402,439	53,53
402,949	47,58
403,459	52,88
403,969	52,03
404,479	52,23
404,989	49,26
405,498	48,99
406,008	49,22
406,517	48,22
407,027	48,27
407,536	45,92
408,045	48,39
408,554	43,51
409,063	43,25
409,572	44,1
410,08	41,22
410,589	44,3
411,097	42,98
411,606	41,52
412,114	39,53
412,622	39,63
413,13	38,79
413,638	40,48
414,145	39,46
414,653	40,63
415,16	38,28
415,668	40,18
416,175	39,2
416,682	38,02
417,189	37,35
417,696	37,88
418,203	39,78
418,71	36,03
419,216	39,16
419,723	37,24
420,229	36,16
420,735	38,33
421,242	35,99
421,748	37,08
422,254	37,8
422,759	36,8
423,265	35,41
423,771	35,2
424,276	35,87
424,781	34,46
425,287	34,63
425,792	34,43
426,297	34,9
426,802	33,69
427,306	36,66
427,811	35,12
428,316	36,2
428,82	34,69
429,324	35,03
429,829	34,41
430,333	34,29
430,837	35,93
431,34	34,4
431,844	33,86
432,348	35,05
432,851	33,85
433,355	34,69
433,858	34,57
434,361	34,18
434,864	34,7
435,367	34,41
435,87	33,86
436,373	33,37
436,876	34,13
437,378	32,83
437,88	33,19
438,383	33,42
438,885	35,33
439,387	33,15
439,889	32,24
440,391	34,31
440,892	34,34
441,394	33,54
441,896	33,56
442,397	33,29
442,898	33,28
443,399	34,07
443,9	34,53
444,401	33,44
444,902	33,47
445,403	34,89
445,903	35,41
446,404	33,69
446,904	33,7
447,405	33,32
447,905	33,95
448,405	33,67
448,905	34,73
449,404	33,57
449,904	34,39
450,404	33,97
450,903	35,08
451,403	33,68
451,902	33,67
452,401	33,86
452,9	34,35
453,399	33,87
453,898	34,24
454,396	33,85
454,895	33,84
455,393	33,12
455,892	34,6
456,39	34,27
456,888	34,05
457,386	32,69
457,884	33,39
458,382	33,17
458,879	33,82
459,377	34,02
459,874	33,43
460,372	33,28
460,869	33,93
461,366	34,04
461,863	35,09
462,36	33,17
462,857	33,17
463,353	33,67
463,85	33,95
464,346	33,41
464,843	33,78
465,339	33,55
465,835	33,87
466,331	33,25
466,827	33,23
467,323	33,55
467,818	34,1
468,314	33,37
468,809	33,68
469,305	33,65
469,8	34,35
470,295	34,6
470,79	34,05
471,285	34,13
471,78	32,8
472,274	33,76
472,769	33,01
473,263	33,2
473,758	33,75
474,252	33,24
474,746	33,44
475,24	33,93
475,734	33,26
476,228	33,25
476,721	34,02
477,215	33,82
477,708	32,89
478,202	33,95
478,695	33,94
479,188	33,8
479,681	33,5
480,174	33,39
480,667	33,69
481,159	34,58
481,652	32,91
482,144	33,39
482,637	33,92
483,129	33,71
483,621	33,92
484,113	33,19
484,605	33,5
485,097	33,61
485,588	34,65
486,08	34,3
486,571	33,72
487,063	33,92
487,554	33,61
488,045	33,85
488,536	33,65
489,027	34,05
489,518	34,08
490,008	34,15
490,499	34,42
490,989	34,02
491,48	33,96
491,97	34,6
492,46	34,53
492,95	34,11
493,44	34,13
493,93	34,62
494,419	34,25
494,909	34,71
495,398	34,47
495,888	34,21
496,377	34,43
496,866	35,08
497,355	34,15
497,844	34,45
498,333	34,45
498,821	34,31
499,31	34,73
499,798	34,68
500,287	35,61
500,775	34,96
501,263	34,4
501,751	34,52
502,239	35,46
502,727	35,97
503,215	36,19
503,702	35,37
504,19	36,13
504,677	36,42
505,164	36,14
505,651	36,51
506,139	36,98
506,625	37,38
507,112	36,88
507,599	37,52
508,086	38,09
508,572	38,05
509,058	37,86
509,545	38,29
510,031	38,49
510,517	38,52
511,003	38,37
511,489	38,57
511,974	38,81
512,46	40,09
512,946	39,44
513,431	39,07
513,916	40,34
514,401	40,61
514,887	40,47
515,371	40,3
515,856	41,61
516,341	41,34
516,826	41,7
517,31	41,67
517,795	42,88
518,279	42,16
518,763	42,76
519,247	42,71
519,731	43,04
520,215	43,52
520,699	43,89
521,182	43,83
521,666	43,91
522,149	44,92
522,633	44,5
523,116	45,88
523,599	45,7
524,082	45,84
524,565	46,85
525,048	46,97
525,53	46,77
526,013	47,25
526,495	46,93
526,978	47,13
527,46	48,09
527,942	48,86
528,424	49,11
528,906	48,94
529,388	48,72
529,87	48,59
530,351	47,52
530,833	48,9
531,314	49,44
531,795	50,11
532,277	49,93
532,758	49,86
533,238	50,82
533,719	50,83
534,2	49,66
534,681	50,43
535,161	51,1
535,642	50,18
536,122	51,09
536,602	50,57
537,082	50,25
537,562	51,41
538,042	50,34
538,522	50,66
539,001	51,11
539,481	51,37
539,96	51,27
540,44	50,74
540,919	51,31
541,398	51,32
541,877	51,23
542,356	52,48
542,835	51,14
543,313	50,88
543,792	51,2
544,27	52,28
544,749	51,93
545,227	51,57
545,705	51,55
546,183	52,59
546,661	52,2
547,139	51,51
547,616	51,6
548,094	52,58
548,571	51,83
549,049	52,51
549,526	52,48
550,003	52,21
550,48	52,16
550,957	52,21
551,434	51,89
551,911	52,28
552,387	52,23
552,864	52,54
553,34	52,71
553,817	52,01
554,293	52,71
554,769	52,46
555,245	52,54
555,721	52,62
556,197	52,17
556,672	51,62
557,148	52,67
557,623	52,33
558,099	51,65
558,574	52,11
559,049	51,87
559,524	51,6
559,999	51,2
560,474	51,77
560,948	51,32
561,423	51,44
561,897	51,72
562,372	51,04
562,846	50,9
563,32	51,38
563,794	51,78
564,268	51,19
564,742	51,65
565,216	50,04
565,69	50,09
566,163	51,03
566,636	50,08
567,11	51,12
567,583	50,49
568,056	49,59
568,529	49,75
569,002	49,81
569,475	49,76
569,947	49,09
570,42	49,06
570,892	49,22
571,365	49,34
571,837	48,81
572,309	48,82
572,781	47,89
573,253	48,49
573,725	48,22
574,197	48,32
574,668	48,26
575,14	47,39
575,611	47,69
576,082	47,15
576,554	48,13
577,025	46,78
577,496	46,99
577,967	47,33
578,437	46,95
578,908	47,05
579,379	45,86
579,849	46,3
580,319	46,31
580,79	45,82
581,26	45,89
581,73	45,26
582,2	46,02
582,669	45,77
583,139	45,63
583,609	45,23
584,078	45,38
584,548	45,25
585,017	44,83
585,486	44,69
585,955	44,91
586,424	44,88
586,893	45,24
587,362	44,12
587,83	43,89
588,299	44,81
588,767	44,46
589,236	44,3
589,704	44,35
590,172	44,17
590,64	43,87
591,108	44,11
591,576	43,81
592,043	43,72
592,511	43,79
592,978	43,97
593,446	43,49
593,913	43,2
594,38	43,99
594,847	43,64
595,314	43,59
595,781	43,56
596,248	43,42
596,715	44,05
597,181	43,12
597,647	44,07
598,114	43,78
598,58	43,45
599,046	43,53
599,512	42,97
599,978	42,87
600,444	43,61
600,91	43,24
601,375	43,46
601,841	42,91
602,306	43,1
602,771	43,08
603,236	43,34
603,702	42,74
604,167	42,13
604,631	42,72
605,096	42,64
605,561	42,87
606,025	42,14
606,49	41,89
606,954	42,03
607,418	42,43
607,882	41,82
608,347	42,75
608,81	41,97
609,274	41,76
609,738	41,72
610,202	41,62
610,665	42,07
611,128	41,35
611,592	41,36
612,055	41,28
612,518	41,15
612,981	41,18
613,444	41,27
613,907	41,08
614,369	40,98
614,832	40,93
615,294	41,01
615,757	40,76
616,219	40,76
616,681	40,57
617,143	40,11
617,605	40,05
618,067	40,16
618,529	40,39
618,99	39,89
619,452	40,3
619,913	40,22
620,375	39,77
620,836	39,78
621,297	39,68
621,758	39,52
622,219	39,58
622,68	39,16
623,14	39,86
623,601	39,89
624,061	39,31
624,522	39,47
624,982	39,86
625,442	39,6
625,902	39,21
626,362	39,87
626,822	39,52
627,282	39,28
627,742	39,37
628,201	39,31
628,661	39,54
629,12	39,1
629,579	39,29
630,038	39,36
630,497	39
630,956	39,02
631,415	39,27
631,874	39,18
632,332	39,2
632,791	38,91
633,249	38,86
633,708	39,43
634,166	38,63
634,624	38,91
635,082	38,79
635,54	39,2
635,998	38,96
636,455	38,76
636,913	38,53
637,37	38,69
637,828	38,49
638,285	38,09
638,742	38,55
639,199	38,07
639,656	38,13
640,113	37,98
640,57	37,55
641,027	37,89
641,483	37,81
641,94	37,46
642,396	37,38
642,852	37,12
643,309	37,08
643,765	37,01
644,221	37,07
644,676	36,98
645,132	36,83
645,588	36,8
646,043	36,94
646,499	36,62
646,954	36,73
647,409	36,12
647,864	35,9
648,319	35,93
648,774	35,69
649,229	35,83
649,684	35,85
650,139	35,71
650,593	35,69
651,047	35,2
651,502	35,2
651,956	35,02
652,41	35,4
652,864	35,33
653,318	35,17
653,772	35,52
654,225	35,34
654,679	35,33
655,133	35,1
655,586	34,82
656,039	34,85
656,492	34,75
656,946	34,75
657,399	34,65
657,851	34,66
658,304	34,49
658,757	34,25
659,209	34,72
659,662	34,17
660,114	34,04
660,567	34,04
661,019	34
661,471	33,92
661,923	34,01
662,375	33,61
662,826	33,82
663,278	33,39
663,73	33,52
664,181	33,61
664,632	33,68
665,084	33,49
665,535	33,19
665,986	33,43
666,437	33,51
666,888	33,23
667,338	33,26
667,789	32,75
668,24	33,04
668,69	33,12
669,14	32,9
669,591	33,16
670,041	33,18
670,491	33,25
670,941	33,27
671,391	33,04
671,84	33,62
672,29	33,33
672,74	33,03
673,189	32,95
673,638	33,06
674,088	33,44
674,537	33,33
674,986	33,37
675,435	33,44
675,883	33,6
676,332	33,25
676,781	33,73
677,229	33,5
677,678	33,91
678,126	33,39
678,574	33,87
679,022	33,95
679,47	34,14
679,918	34,07
680,366	34,38
680,814	34,21
681,261	34,22
681,709	34,46
682,156	34,25
682,604	34,6
683,051	34,93
683,498	34,9
683,945	35,21
684,392	34,99
684,839	35,37
685,286	35,31
685,732	35,81
686,179	35,25
686,625	35,48
687,071	36,17
687,518	36,06
687,964	36,18
688,41	36,8
688,856	36,84
689,301	37,29
689,747	37,07
690,193	37,93
690,638	38,1
691,084	38,31
691,529	39,09
691,974	39,2
692,419	39,46
692,864	39,85
693,309	40,72
693,754	40,9
694,199	40,93
694,643	41,56
695,088	42,13
695,532	42,69
695,977	43,39
696,421	43,94
696,865	44,15
697,309	44,75
697,753	45,17
698,197	46,37
698,64	47,02
699,084	47,3
699,527	47,75
699,971	48,29
700,414	49,4
700,857	48,69
701,3	49,89
701,743	50,07
702,186	51,1
702,629	51,03
703,072	51,95
703,515	52,48
703,957	52,94
704,399	52,73
704,842	53,87
705,284	54,28
705,726	54,99
706,168	55,52
706,61	55,65
707,052	55,87
707,494	56,49
707,935	56,99
708,377	57,23
708,818	57,37
709,26	58,56
709,701	58,88
710,142	59,26
710,583	59,57
711,024	60,13
711,465	60,87
711,905	61,12
712,346	60,69
712,787	61,16
713,227	61,93
713,667	61,96
714,108	62,63
714,548	63,37
714,988	63,73
715,428	63,92
715,868	64,44
716,307	64,59
716,747	64,9
717,186	65,51
717,626	65,61
718,065	66,47
718,504	66,62
718,944	66,17
719,383	67,11
719,822	67,44
720,261	67,46
720,699	68,21
721,138	68,45
721,576	68,52
722,015	68,68
722,453	68,91
722,892	69,88
723,33	69,56
723,768	70,04
724,206	69,82
724,644	70,09
725,081	70,05
725,519	70,97
725,957	70,79
726,394	71,28
726,832	71,43
727,269	71,87
727,706	71,91
728,143	72,52
728,58	72,24
729,017	72,62
729,454	72,4
729,89	72,66
730,327	73,41
730,764	73,48
731,2	73,54
731,636	73,61
732,072	73,53
732,509	73,17
732,945	73,85
733,38	74,49
733,816	73,98
734,252	74,5
734,688	74,25
735,123	74,71
735,559	74,22
735,994	74,76
736,429	74,53
736,864	74,91
737,299	75,2
737,734	74,46
738,169	75,57
738,604	74,75
739,038	74,82
739,473	75,01
739,907	75,35
740,342	75,66
740,776	75,89
741,21	75,36
741,644	75,94
742,078	75,85
742,512	76,28
742,946	75,82
743,379	75,83
743,813	75,87
744,246	75,8
744,68	75,4
745,113	76,63
745,546	75,4
745,979	75,99
746,412	76,23
746,845	76,01
747,278	75,94
747,711	76,25
748,143	76,36
748,576	76,39
749,008	75,31
749,441	75,66
749,873	75,3
750,305	75,92
750,737	75,53
751,169	76,12
751,601	75,81
752,032	76,07
752,464	76,26
752,896	75,57
753,327	76,67
753,758	76,19
754,19	75,93
754,621	75,76
755,052	75,68
755,483	76,01
755,914	75,14
756,344	75,71
756,775	75,67
757,206	75,42
757,636	75,41
758,066	74,94
758,497	75,22
758,927	75,27
759,357	76,14
759,787	75,6
760,217	75,77
760,647	74,73
761,076	75,87
761,506	75,08
761,935	75,51
762,365	75,37
762,794	75
763,223	74,74
763,653	75,88
764,082	75,43
764,51	74,64
764,939	75,74
765,368	75,14
765,797	75,78
766,225	74,83
766,654	74,76
767,082	75,21
767,51	75,25
767,938	74,48
768,367	75,49
768,795	75,11
769,222	74,83
769,65	74,8
770,078	74,83
770,505	74,64
770,933	74,74
771,36	74,54
771,788	74,85
772,215	75,2
772,642	74,32
773,069	74,36
773,496	74,86
773,923	74,72
774,349	75,16
774,776	74,84
775,203	75,08
775,629	74,83
776,055	74,27
776,482	74,82
776,908	74,38
777,334	74,61
777,76	75,03
778,186	74,34
778,611	74,78
779,037	74,54
779,463	74,44
779,888	74,21
780,314	74,21
780,739	74,28
781,164	74,44
781,589	74,11
782,014	74,03
782,439	74,24
782,864	73,8
783,289	74,29
783,713	74,26
784,138	74,79
784,562	74,58
784,987	74,79
785,411	74,12
785,835	74,58
786,259	74,5
786,683	74,71
787,107	74,46
787,531	73,78
787,954	74,3
788,378	74,49
788,802	74,42
789,225	73,78
789,648	74,27
790,071	74,3
790,495	74,07
790,918	74,44
791,34	73,74
791,763	73,66
792,186	74,27
792,609	73,93
793,031	74,34
793,454	73,68
793,876	74,02
794,298	74,59
794,721	74,5
795,143	73,76
795,565	74,14
795,986	73,98
796,408	74,39
796,83	74,13
797,252	73,53
797,673	73,25
798,094	74,43
798,516	74,11
798,937	74,06
799,358	74,19
799,779	74,19
800,2	73,8
800,621	73,58
801,042	74,17
801,462	73,8
801,883	73,44
802,303	73,69
802,724	74,52
803,144	73,91
803,564	73,87
803,984	74,16
804,404	73,63
804,824	74,15
805,244	74,15
805,664	73,52
806,084	73,52
806,503	73,47
806,923	73,55
807,342	74,28
807,761	73,68
808,18	73,99
808,599	74,07
809,018	74,25
809,437	74,18
809,856	73,98
810,275	74,28
810,693	74,03
811,112	74,05
811,53	73,85
811,949	73,88
812,367	73,74
812,785	73,47
813,203	73,24
813,621	73,62
814,039	73,84
814,457	74,06
814,874	73,45
815,292	73,47
815,709	73,25
816,127	73,5
816,544	73,51
816,961	73,67
817,378	73,37
817,795	73,65
818,212	73,57
818,629	73,89
819,046	73,74
819,462	73,84
819,879	73,95
820,295	73,63
820,712	73,74
821,128	73,93
821,544	73,72
821,96	73,46
822,376	73,83
822,792	73,45
823,208	73,62
823,624	73,2
824,039	73,63
824,455	73,95
824,87	73,46
825,286	73,55
825,701	73,03
826,116	73,61
826,531	73,6
826,946	73,61
827,361	74,2
827,776	73,53
828,19	73,81
828,605	73,49
829,02	73,45
829,434	73,2
829,848	73,65
830,263	73,23
830,677	73,78
831,091	73,82
831,505	73,78
831,919	73,56
832,332	73,4
832,746	73,4
833,16	73,07
833,573	73,39
