Data from G_6_Relative__1__00157.txt Node

Date: Tue Jan 30 10:11:36 CET 2024
User: diatiterra
Spectrometer: HDX00911
Trigger mode: 0
Integration Time (sec): 6,000000E-3
Scans to average: 2
Nonlinearity correction enabled: false
Boxcar width: 0
Storing dark spectrum: false
XAxis mode: Wavelengths
Number of Pixels in Spectrum: 2068
>>>>>Begin Spectral Data<<<<<
194,468	86,19
195,025	91,13
195,581	84,85
196,138	74,52
196,694	72,14
197,251	65,2
197,807	60
198,363	63,93
198,919	64,26
199,474	63,56
200,03	59,45
200,586	59,47
201,141	66,39
201,696	64,29
202,251	59,7
202,806	65,11
203,361	64,63
203,916	60,17
204,471	61,39
205,025	61,92
205,58	61,29
206,134	63,75
206,688	63,52
207,242	70,72
207,796	60,17
208,35	72,6
208,904	60,48
209,457	64,73
210,011	63,76
210,564	63,51
211,117	69,79
211,67	58,3
212,223	59,76
212,776	70,76
213,329	62,45
213,881	61,04
214,434	61,07
214,986	62,05
215,538	68,5
216,09	62,25
216,642	57,85
217,194	76,08
217,746	60,16
218,297	60,5
218,849	69,96
219,4	59,31
219,951	65,04
220,502	66,15
221,053	64,83
221,604	64,17
222,155	59,32
222,705	60,43
223,256	58,05
223,806	62,5
224,356	70,59
224,906	67,4
225,456	52,52
226,006	60,71
226,556	61,06
227,106	68,46
227,655	64,19
228,204	66,52
228,754	64,98
229,303	62,61
229,852	63,76
230,401	69,51
230,949	54,61
231,498	63,84
232,047	67,21
232,595	61,85
233,143	69,74
233,691	59,36
234,239	61,07
234,787	66,82
235,335	63,64
235,883	65,32
236,43	63,14
236,978	62,61
237,525	67,23
238,072	64,76
238,619	52,02
239,166	64,22
239,713	64,56
240,26	62,5
240,806	65,95
241,353	64,53
241,899	64,61
242,445	64,44
242,991	69,67
243,537	60,61
244,083	61,99
244,629	58,59
245,174	64,26
245,72	64,48
246,265	65,16
246,81	70,67
247,355	63,5
247,9	65,83
248,445	58,33
248,99	61,28
249,534	58,11
250,079	67,59
250,623	73,01
251,168	68,98
251,712	54,15
252,256	59,92
252,8	73,45
253,343	61,94
253,887	63,2
254,43	60,37
254,974	64
255,517	62,02
256,06	59,92
256,603	65,84
257,146	65
257,689	61,02
258,232	65,61
258,774	53,3
259,317	65,09
259,859	66,19
260,401	68,22
260,943	63,07
261,485	61,36
262,027	62,55
262,569	66,2
263,11	60,62
263,652	63,27
264,193	65,58
264,734	61,57
265,275	64,38
265,816	59,4
266,357	53,11
266,898	67,52
267,438	69,36
267,979	62,07
268,519	64,9
269,059	50,99
269,6	65,49
270,14	61,21
270,68	61,48
271,219	61,74
271,759	61,14
272,298	62,4
272,838	62,15
273,377	69,82
273,916	62,65
274,455	56,15
274,994	58,53
275,533	64,64
276,072	62,55
276,61	72,37
277,149	58,75
277,687	70,76
278,225	60,08
278,763	59,92
279,301	66,94
279,839	62,7
280,377	53,06
280,914	61,11
281,452	63,41
281,989	67,77
282,526	52,08
283,064	60,15
283,601	64,17
284,137	60,44
284,674	56,9
285,211	62,88
285,747	62,2
286,284	65,09
286,82	61,29
287,356	48,89
287,892	49,38
288,428	57,08
288,964	57,68
289,5	54,42
290,035	57,26
290,571	52,14
291,106	57,92
291,641	58,52
292,176	53,6
292,711	64,66
293,246	54,79
293,781	61,74
294,315	61,86
294,85	61,75
295,384	55,66
295,918	57,2
296,453	59,92
296,987	62,71
297,52	63,8
298,054	58,82
298,588	52,4
299,121	55,86
299,655	57,08
300,188	62,71
300,721	57,14
301,254	56,5
301,787	63,16
302,32	59,4
302,853	66,38
303,385	52,55
303,918	60,89
304,45	62,45
304,982	58,8
305,514	60,16
306,046	60,62
306,578	60,58
307,11	62,12
307,641	61,76
308,173	62,61
308,704	69,92
309,236	66,96
309,767	56,25
310,298	55,2
310,829	60,08
311,359	69,03
311,89	60
312,421	54,69
312,951	59,83
313,481	63,51
314,012	59,3
314,542	58,11
315,072	55,36
315,601	60,89
316,131	59,23
316,661	59,85
317,19	52,65
317,72	60,59
318,249	58,72
318,778	64,61
319,307	61,29
319,836	65,6
320,365	63,83
320,893	64,17
321,422	58,74
321,95	67,83
322,479	56,63
323,007	63,35
323,535	61,51
324,063	60,7
324,591	60,15
325,118	54,11
325,646	64,22
326,173	70,09
326,701	59,36
327,228	60,82
327,755	64,76
328,282	70,91
328,809	58,77
329,336	71,06
329,862	70,07
330,389	64,32
330,915	59,69
331,441	64,98
331,968	50,2
332,494	67,11
333,02	54,81
333,545	57,09
334,071	62,61
334,597	57,44
335,122	61,71
335,648	61,6
336,173	58,05
336,698	61,8
337,223	65,73
337,748	58,82
338,272	56,22
338,797	65,34
339,322	56,84
339,846	57,83
340,37	62,88
340,894	58,23
341,419	58,87
341,942	59,69
342,466	53,54
342,99	54,75
343,514	60,73
344,037	55,64
344,56	57,37
345,084	59,32
345,607	60
346,13	54,03
346,653	52,4
347,175	61,02
347,698	54,58
348,221	63,56
348,743	62,26
349,265	57,96
349,787	57,84
350,309	54,38
350,831	50,35
351,353	59,59
351,875	55,31
352,397	56,27
352,918	63,75
353,439	50,6
353,961	56,99
354,482	56,71
355,003	49,84
355,524	52,36
356,044	56
356,565	49,31
357,086	54,55
357,606	47,33
358,126	52,84
358,646	50,34
359,167	51,5
359,687	46,86
360,206	51,76
360,726	48,58
361,246	48,3
361,765	48,54
362,285	46,98
362,804	41,77
363,323	50,15
363,842	51,16
364,361	49,54
364,88	46,25
365,398	45,02
365,917	40,83
366,435	47,11
366,954	44,98
367,472	42,04
367,99	43,63
368,508	49,09
369,026	46,74
369,544	44,64
370,061	42,9
370,579	41,44
371,096	43,46
371,613	39,95
372,131	43,08
372,648	39,85
373,165	45,65
373,681	36,13
374,198	41,27
374,715	34,54
375,231	36,3
375,747	32,59
376,264	34,95
376,78	38,86
377,296	35,24
377,812	32,17
378,327	39,2
378,843	36,93
379,359	31,72
379,874	31,81
380,389	31,05
380,905	39,92
381,42	34,08
381,935	37,93
382,449	35,35
382,964	28,54
383,479	34,24
383,993	34,6
384,508	30,77
385,022	33,33
385,536	26,02
386,05	30,61
386,564	27,72
387,078	32,98
387,592	29,34
388,105	27,15
388,619	26,01
389,132	28,62
389,645	27,8
390,158	26,61
390,671	29,07
391,184	27,92
391,697	26,03
392,21	25,3
392,722	26,09
393,235	26,37
393,747	26,26
394,259	23,7
394,771	24,54
395,283	22,56
395,795	24,53
396,307	23,31
396,818	23,86
397,33	23,38
397,841	23,24
398,353	19,48
398,864	22,26
399,375	21,79
399,886	20,07
400,397	20,93
400,907	20,36
401,418	18,41
401,928	16,96
402,439	16,63
402,949	18,02
403,459	19,07
403,969	17,28
404,479	18,1
404,989	18,8
405,498	16,62
406,008	18,57
406,517	17,63
407,027	13,7
407,536	14,37
408,045	12,33
408,554	13,43
409,063	12,37
409,572	12,29
410,08	10,87
410,589	11,01
411,097	11,12
411,606	10,6
412,114	9,07
412,622	9,16
413,13	9,71
413,638	8,56
414,145	10,14
414,653	7,85
415,16	8,52
415,668	8,92
416,175	7,8
416,682	7,16
417,189	6,63
417,696	7,82
418,203	6,62
418,71	7,49
419,216	7,16
419,723	6,56
420,229	7,2
420,735	6,52
421,242	6,12
421,748	6,26
422,254	7,28
422,759	5,85
423,265	4,8
423,771	5,33
424,276	5,44
424,781	5,9
425,287	5,19
425,792	5,07
426,297	5,6
426,802	5,5
427,306	5,26
427,811	5,45
428,316	5,79
428,82	5,35
429,324	4,86
429,829	5,77
430,333	5,33
430,837	5,45
431,34	4,9
431,844	5,07
432,348	5,36
432,851	5,02
433,355	5,09
433,858	5,18
434,361	4,97
434,864	4,52
435,367	5,51
435,87	4,73
436,373	4,74
436,876	5,09
437,378	4,26
437,88	3,86
438,383	4,76
438,885	4,24
439,387	4,17
439,889	4,5
440,391	4,29
440,892	4,82
441,394	4,65
441,896	4,68
442,397	4,74
442,898	4,48
443,399	4,27
443,9	4,27
444,401	4,7
444,902	4,57
445,403	4,22
445,903	4,96
446,404	4,65
446,904	4,47
447,405	4,35
447,905	4,25
448,405	4,38
448,905	4,61
449,404	4,4
449,904	4,06
450,404	4,44
450,903	4,48
451,403	4,32
451,902	4,55
452,401	4,45
452,9	4,38
453,399	4,8
453,898	4,13
454,396	4,43
454,895	4,41
455,393	4,54
455,892	4,62
456,39	4,22
456,888	4,96
457,386	4,46
457,884	4,24
458,382	4,6
458,879	4,95
459,377	4,75
459,874	4,46
460,372	4,68
460,869	4,42
461,366	4,29
461,863	4,15
462,36	4,4
462,857	4,2
463,353	4,32
463,85	4,39
464,346	4,42
464,843	4,6
465,339	4,67
465,835	3,95
466,331	4,22
466,827	4,06
467,323	3,94
467,818	3,9
468,314	4,22
468,809	4,23
469,305	4,12
469,8	4,31
470,295	4,58
470,79	4,22
471,285	4,1
471,78	3,87
472,274	4,29
472,769	3,95
473,263	4,05
473,758	4,3
474,252	4,12
474,746	3,63
475,24	4,08
475,734	4,28
476,228	4,23
476,721	4,26
477,215	4
477,708	4,2
478,202	3,94
478,695	4,05
479,188	4,26
479,681	4,25
480,174	3,94
480,667	4,02
481,159	4,1
481,652	3,77
482,144	4,29
482,637	4,05
483,129	3,88
483,621	4,45
484,113	4,13
484,605	3,78
485,097	3,95
485,588	4,15
486,08	3,97
486,571	4,1
487,063	4,4
487,554	4,06
488,045	4,39
488,536	4,3
489,027	4,42
489,518	4,31
490,008	4,34
490,499	4,31
490,989	4,29
491,48	4,29
491,97	4,5
492,46	4,41
492,95	4,66
493,44	4,3
493,93	4,36
494,419	4,9
494,909	4,61
495,398	4,55
495,888	4,62
496,377	5,03
496,866	5,07
497,355	4,82
497,844	4,83
498,333	4,97
498,821	5,22
499,31	5,56
499,798	5,48
500,287	5,34
500,775	5,61
501,263	5,65
501,751	5,59
502,239	5,95
502,727	6,18
503,215	6,11
503,702	6,23
504,19	6,4
504,677	6,33
505,164	6,72
505,651	6,63
506,139	7,25
506,625	6,8
507,112	7,36
507,599	7,6
508,086	7,76
508,572	7,41
509,058	7,79
509,545	8,06
510,031	7,93
510,517	8,42
511,003	8,46
511,489	8,77
511,974	9,19
512,46	9,32
512,946	9,56
513,431	9,34
513,916	9,75
514,401	10,35
514,887	10,07
515,371	10,91
515,856	10,64
516,341	11,12
516,826	11,21
517,31	11,69
517,795	12,02
518,279	12,12
518,763	12,16
519,247	12,21
519,731	12,7
520,215	12,47
520,699	12,78
521,182	13,64
521,666	13,88
522,149	14,02
522,633	14,26
523,116	14,45
523,599	14,76
524,082	14,77
524,565	15,47
525,048	14,8
525,53	15,13
526,013	15,64
526,495	15,65
526,978	15,83
527,46	15,94
527,942	16,45
528,424	16,76
528,906	16,49
529,388	16,89
529,87	17,4
530,351	17,17
530,833	17,53
531,314	17,39
531,795	17,48
532,277	17,61
532,758	17,8
533,238	17,96
533,719	17,65
534,2	18,12
534,681	17,89
535,161	18,6
535,642	18,2
536,122	18,3
536,602	18,3
537,082	18,07
537,562	18,63
538,042	18,54
538,522	18,37
539,001	18,62
539,481	18,31
539,96	18,48
540,44	18,58
540,919	19,1
541,398	18,68
541,877	18,89
542,356	19,31
542,835	18,65
543,313	18,77
543,792	19,03
544,27	19,35
544,749	19,15
545,227	19,06
545,705	19,37
546,183	19,4
546,661	19,54
547,139	19,41
547,616	19
548,094	19,48
548,571	19,7
549,049	19,52
549,526	19,32
550,003	19,59
550,48	19,28
550,957	19,35
551,434	18,89
551,911	19,43
552,387	19,3
552,864	19,65
553,34	19,4
553,817	19,19
554,293	19,51
554,769	19,41
555,245	19,45
555,721	19,6
556,197	19,42
556,672	19,65
557,148	19,32
557,623	19,58
558,099	19,33
558,574	19,24
559,049	19,29
559,524	19,07
559,999	19,03
560,474	19,1
560,948	19,11
561,423	18,64
561,897	18,75
562,372	19,2
562,846	18,6
563,32	18,93
563,794	18,63
564,268	18,95
564,742	18,83
565,216	18,47
565,69	18,22
566,163	18,31
566,636	18,05
567,11	18,18
567,583	18,13
568,056	17,56
568,529	17,36
569,002	17,49
569,475	17,1
569,947	17,24
570,42	16,9
570,892	16,74
571,365	16,79
571,837	16,64
572,309	16,71
572,781	16,59
573,253	16,3
573,725	16,07
574,197	15,95
574,668	15,89
575,14	15,78
575,611	15,77
576,082	15,45
576,554	15,39
577,025	15,26
577,496	15,26
577,967	15,42
578,437	14,95
578,908	15,05
579,379	14,73
579,849	14,87
580,319	14,72
580,79	14,25
581,26	14,46
581,73	14,29
582,2	14,34
582,669	14,22
583,139	13,92
583,609	14,13
584,078	14,07
584,548	13,86
585,017	13,75
585,486	13,42
585,955	13,66
586,424	13,44
586,893	13,31
587,362	13,43
587,83	13,25
588,299	13,11
588,767	13,26
589,236	13,05
589,704	13,12
590,172	12,78
590,64	12,69
591,108	12,68
591,576	13,04
592,043	12,73
592,511	12,64
592,978	12,76
593,446	12,69
593,913	12,6
594,38	12,65
594,847	12,57
595,314	12,65
595,781	12,43
596,248	12,56
596,715	12,31
597,181	12,54
597,647	12,28
598,114	12,21
598,58	12,29
599,046	12,45
599,512	12,15
599,978	12,12
600,444	12,38
600,91	12,17
601,375	12,36
601,841	12,08
602,306	12,05
602,771	11,99
603,236	11,93
603,702	11,98
604,167	11,53
604,631	11,91
605,096	11,74
605,561	11,75
606,025	11,66
606,49	11,51
606,954	11,73
607,418	11,3
607,882	11,51
608,347	11,35
608,81	11,29
609,274	11,11
609,738	11,02
610,202	11,07
610,665	10,98
611,128	10,78
611,592	10,58
612,055	10,74
612,518	10,62
612,981	10,47
613,444	10,46
613,907	10,35
614,369	10,26
614,832	10,34
615,294	10,38
615,757	10,08
616,219	10,08
616,681	9,92
617,143	10,03
617,605	9,79
618,067	9,75
618,529	9,53
618,99	9,65
619,452	9,55
619,913	9,6
620,375	9,75
620,836	9,39
621,297	9,44
621,758	9,55
622,219	9,3
622,68	9,36
623,14	9,19
623,601	9,33
624,061	9,2
624,522	9,26
624,982	9,22
625,442	9,37
625,902	9,11
626,362	9,13
626,822	9,2
627,282	9,2
627,742	9,05
628,201	8,91
628,661	9,2
629,12	9,1
629,579	8,95
630,038	8,98
630,497	9,02
630,956	8,92
631,415	8,85
631,874	8,92
632,332	8,81
632,791	8,82
633,249	8,83
633,708	9,01
634,166	8,7
634,624	8,76
635,082	8,63
635,54	8,58
635,998	8,4
636,455	8,51
636,913	8,19
637,37	8,33
637,828	8,21
638,285	7,97
638,742	8,13
639,199	7,88
639,656	7,76
640,113	7,74
640,57	7,56
641,027	7,54
641,483	7,49
641,94	7,23
642,396	7,19
642,852	7,05
643,309	6,95
643,765	6,8
644,221	6,81
644,676	6,5
645,132	6,67
645,588	6,5
646,043	6,35
646,499	6,31
646,954	6,23
647,409	6,19
647,864	5,93
648,319	6,01
648,774	5,73
649,229	5,76
649,684	5,77
650,139	5,69
650,593	5,57
651,047	5,52
651,502	5,56
651,956	5,52
652,41	5,42
652,864	5,4
653,318	5,27
653,772	5,3
654,225	5,17
654,679	5,2
655,133	5,24
655,586	5,05
656,039	5,13
656,492	5,06
656,946	4,94
657,399	4,85
657,851	4,79
658,304	4,76
658,757	4,77
659,209	4,82
659,662	4,64
660,114	4,53
660,567	4,51
661,019	4,55
661,471	4,43
661,923	4,31
662,375	4,31
662,826	4,17
663,278	4,14
663,73	4,09
664,181	4,07
664,632	3,91
665,084	3,89
665,535	4,02
665,986	3,82
666,437	3,82
666,888	3,85
667,338	3,78
667,789	3,74
668,24	3,73
668,69	3,73
669,14	3,77
669,591	3,83
670,041	3,7
670,491	3,74
670,941	3,77
671,391	3,81
671,84	3,86
672,29	3,95
672,74	3,85
673,189	3,99
673,638	3,99
674,088	4,2
674,537	4,14
674,986	4,16
675,435	4,23
675,883	4,27
676,332	4,55
676,781	4,49
677,229	4,56
677,678	4,61
678,126	4,76
678,574	4,69
679,022	4,8
679,47	5,03
679,918	5,17
680,366	5,27
680,814	5,31
681,261	5,42
681,709	5,63
682,156	5,53
682,604	5,73
683,051	5,85
683,498	6,17
683,945	6,1
684,392	6,35
684,839	6,28
685,286	6,59
685,732	6,7
686,179	6,61
686,625	6,93
687,071	7,27
687,518	7,18
687,964	7,4
688,41	7,68
688,856	7,85
689,301	8,03
689,747	8,38
690,193	8,71
690,638	9
691,084	9,37
691,529	9,7
691,974	9,99
692,419	10,38
692,864	10,69
693,309	11,2
693,754	11,49
694,199	11,84
694,643	12,15
695,088	12,69
695,532	13,14
695,977	13,81
696,421	14,13
696,865	14,46
697,309	14,8
697,753	15,11
698,197	15,79
698,64	16,05
699,084	16,53
699,527	17,03
699,971	17,31
700,414	17,61
700,857	17,9
701,3	18,34
701,743	18,77
702,186	19,1
702,629	19,34
703,072	19,78
703,515	20,01
703,957	20,24
704,399	20,89
704,842	20,83
705,284	21,33
705,726	21,73
706,168	22
706,61	22,32
707,052	22,54
707,494	22,71
707,935	23,18
708,377	23,44
708,818	23,61
709,26	23,79
709,701	23,9
710,142	24,27
710,583	24,38
711,024	24,95
711,465	25,16
711,905	25,23
712,346	25,28
712,787	25,42
713,227	25,91
713,667	26,07
714,108	26,29
714,548	26,82
714,988	26,84
715,428	26,81
715,868	26,97
716,307	27,34
716,747	27,45
717,186	27,86
717,626	27,82
718,065	28,02
718,504	28,01
718,944	28,21
719,383	28,39
719,822	28,95
720,261	28,68
720,699	28,78
721,138	29,21
721,576	29,08
722,015	29,37
722,453	29,61
722,892	29,83
723,33	29,69
723,768	29,86
724,206	29,76
724,644	30,03
725,081	29,88
725,519	30,08
725,957	29,89
726,394	30,53
726,832	30,52
727,269	30,61
727,706	30,81
728,143	31,02
728,58	30,9
729,017	31,34
729,454	30,77
729,89	31,04
730,327	31,48
730,764	31
731,2	31,26
731,636	31,28
732,072	31,22
732,509	31,24
732,945	31,38
733,38	31,59
733,816	31,42
734,252	31,57
734,688	31,29
735,123	31,77
735,559	31,68
735,994	31,71
736,429	31,62
736,864	31,63
737,299	31,84
737,734	31,76
738,169	31,94
738,604	31,84
739,038	31,67
739,473	31,8
739,907	32,09
740,342	32,02
740,776	32,17
741,21	32,17
741,644	32,02
742,078	31,68
742,512	32,1
742,946	31,99
743,379	31,72
743,813	31,98
744,246	32,17
744,68	32,07
745,113	32,04
745,546	31,85
745,979	31,86
746,412	32,04
746,845	31,85
747,278	31,97
747,711	31,82
748,143	31,95
748,576	31,83
749,008	31,45
749,441	31,76
749,873	31,84
750,305	31,83
750,737	31,67
751,169	31,75
751,601	31,97
752,032	31,71
752,464	31,93
752,896	31,63
753,327	31,92
753,758	31,64
754,19	31,42
754,621	31,57
755,052	31,41
755,483	31,7
755,914	31,27
756,344	31,47
756,775	31,36
757,206	31,21
757,636	31,12
758,066	31,4
758,497	31,27
758,927	31,09
759,357	31,72
759,787	31,18
760,217	31,36
760,647	31,22
761,076	30,94
761,506	30,99
761,935	31,44
762,365	31,11
762,794	30,99
763,223	30,72
763,653	30,96
764,082	31,08
764,51	31,05
764,939	31,37
765,368	30,96
765,797	31,29
766,225	30,8
766,654	30,55
767,082	30,52
767,51	30,92
767,938	30,6
768,367	30,99
768,795	31,07
769,222	30,81
769,65	30,97
770,078	30,69
770,505	30,77
770,933	30,63
771,36	30,45
771,788	30,68
772,215	30,74
772,642	30,37
773,069	30,34
773,496	30,87
773,923	30,76
774,349	30,56
774,776	30,79
775,203	30,56
775,629	30,93
776,055	30,22
776,482	30,44
776,908	30,76
777,334	30,5
777,76	30,43
778,186	30,35
778,611	30,6
779,037	30,53
779,463	30,88
779,888	30,21
780,314	30,25
780,739	30,54
781,164	30,5
781,589	30,47
782,014	30,16
782,439	30,22
782,864	30,39
783,289	30,25
783,713	30,02
784,138	30,38
784,562	30,49
784,987	30,43
785,411	30,17
785,835	30,19
786,259	30,41
786,683	30,42
787,107	30,42
787,531	30,06
787,954	30,35
788,378	30,28
788,802	29,95
789,225	30,23
789,648	30,4
790,071	30,05
790,495	30,08
790,918	30,38
791,34	30,16
791,763	29,97
792,186	30,23
792,609	30,27
793,031	30,01
793,454	30,38
793,876	30,11
794,298	30,26
794,721	29,99
795,143	29,88
795,565	30,28
795,986	29,98
796,408	30,17
796,83	30,06
797,252	29,99
797,673	30,12
798,094	30,23
798,516	30,12
798,937	30,11
799,358	30,26
799,779	29,84
800,2	29,9
800,621	29,76
801,042	30,12
801,462	30,33
801,883	30,07
802,303	30,03
802,724	29,96
803,144	30,01
803,564	30,06
803,984	30,12
804,404	29,96
804,824	30,12
805,244	30,28
805,664	29,99
806,084	29,94
806,503	30,06
806,923	29,99
807,342	29,94
807,761	29,86
808,18	30
808,599	29,93
809,018	30,03
809,437	30,27
809,856	29,82
810,275	30,14
810,693	29,87
811,112	29,92
811,53	30,04
811,949	30,36
812,367	30,21
812,785	29,95
813,203	29,89
813,621	30,15
814,039	30,1
814,457	29,96
814,874	29,85
815,292	30,11
815,709	29,72
816,127	29,68
816,544	29,75
816,961	29,97
817,378	30,1
817,795	29,84
818,212	29,97
818,629	30,08
819,046	29,8
819,462	29,79
819,879	30,08
820,295	30
820,712	29,9
821,128	29,84
821,544	29,87
821,96	29,71
822,376	30,33
822,792	29,95
823,208	29,68
823,624	29,87
824,039	29,84
824,455	29,96
824,87	29,88
825,286	30
825,701	29,59
826,116	29,61
826,531	29,79
826,946	29,61
827,361	29,91
827,776	29,84
828,19	29,95
828,605	29,56
829,02	30
829,434	29,34
829,848	29,81
830,263	29,92
830,677	29,91
831,091	29,71
831,505	29,85
831,919	29,7
832,332	29,79
832,746	30,16
833,16	29,78
833,573	29,75
833,987	29,77
834,4	29,81
834,813	29,28
835,226	29,7
835,639	29,93
836,052	29,92
836,465	29,81
836,878	29,92
837,29	29,85
837,703	29,81
838,116	29,83
838,528	29,72
838,94	29,63
839,352	29,61
839,765	29,92
840,177	29,68
840,589	29,59
841	29,43
841,412	29,81
841,824	29,94
842,235	29,53
842,647	29,52
843,058	29,87
843,47	29,75
843,881	29,94
844,292	29,66
844,703	29,38
845,114	29,23
