Data from H_1_Relative__3__00169.txt Node

Date: Tue Jan 30 10:13:07 CET 2024
User: diatiterra
Spectrometer: HDX00911
Trigger mode: 0
Integration Time (sec): 6,000000E-3
Scans to average: 2
Nonlinearity correction enabled: false
Boxcar width: 0
Storing dark spectrum: false
XAxis mode: Wavelengths
Number of Pixels in Spectrum: 2068
>>>>>Begin Spectral Data<<<<<
194,468	96,13
195,025	102,42
195,581	81,06
196,138	91,08
196,694	91,04
197,251	84,58
197,807	79,58
198,363	76,23
198,919	78,3
199,474	84,75
200,03	81,89
200,586	87,22
201,141	76,89
201,696	76,89
202,251	83,08
202,806	82,55
203,361	85,37
203,916	79,25
204,471	75,74
205,025	84,94
205,58	79,72
206,134	78,88
206,688	84,12
207,242	90,99
207,796	78,81
208,35	89,95
208,904	80,65
209,457	84,11
210,011	86,9
210,564	83,78
211,117	88,09
211,67	83,81
212,223	76,1
212,776	88,14
213,329	76,79
213,881	89,18
214,434	83,61
214,986	80,8
215,538	79,53
216,09	79,12
216,642	83,88
217,194	93,78
217,746	79,28
218,297	86,13
218,849	80,23
219,4	79,65
219,951	79,2
220,502	77,43
221,053	91,1
221,604	82,28
222,155	76,27
222,705	74,47
223,256	82,4
223,806	86,67
224,356	84,31
224,906	89,87
225,456	81,51
226,006	83,04
226,556	80,53
227,106	84,65
227,655	81,4
228,204	91,4
228,754	84,39
229,303	89,64
229,852	91,7
230,401	84,3
230,949	78,01
231,498	81,7
232,047	84,43
232,595	81,12
233,143	82,46
233,691	80,57
234,239	80,92
234,787	88,79
235,335	83,12
235,883	87,39
236,43	78,81
236,978	86,09
237,525	83,83
238,072	79,3
238,619	73,09
239,166	84,05
239,713	76,79
240,26	75,4
240,806	74,57
241,353	85,04
241,899	81,07
242,445	74,06
242,991	71,31
243,537	92,21
244,083	82,35
244,629	80,62
245,174	81,28
245,72	72,2
246,265	88,24
246,81	82,67
247,355	84,67
247,9	81,67
248,445	82,54
248,99	69,79
249,534	73,58
250,079	88,89
250,623	85,4
251,168	86,12
251,712	69,87
252,256	74,38
252,8	76,55
253,343	80,97
253,887	88,74
254,43	71,48
254,974	78
255,517	81,25
256,06	71,73
256,603	77,78
257,146	78,85
257,689	77,97
258,232	81
258,774	77,09
259,317	81,03
259,859	88,57
260,401	77,57
260,943	80,91
261,485	78,64
262,027	74,89
262,569	79,17
263,11	81,86
263,652	76,99
264,193	75,35
264,734	88,89
265,275	81,97
265,816	79,49
266,357	78,01
266,898	85,04
267,438	78,3
267,979	84,05
268,519	85,1
269,059	68,77
269,6	78,76
270,14	70,26
270,68	77,87
271,219	76,52
271,759	66,38
272,298	79,2
272,838	74,9
273,377	83,33
273,916	77,43
274,455	70,77
274,994	85,25
275,533	72,62
276,072	84,68
276,61	81,58
277,149	74,17
277,687	88,98
278,225	72,43
278,763	72,52
279,301	71,84
279,839	78,69
280,377	73,47
280,914	67,13
281,452	80,89
281,989	79,34
282,526	76,25
283,064	75,1
283,601	78,75
284,137	65,78
284,674	77,41
285,211	78,6
285,747	81,89
286,284	86,21
286,82	70,97
287,356	77,78
287,892	71,19
288,428	73,82
288,964	78,84
289,5	79,07
290,035	77,18
290,571	77,43
291,106	79,64
291,641	69,87
292,176	76
292,711	71,55
293,246	72,41
293,781	67,83
294,315	75,35
294,85	70,92
295,384	84,43
295,918	71,6
296,453	74,49
296,987	71,61
297,52	66,06
298,054	71,95
298,588	70,4
299,121	73,87
299,655	73,11
300,188	77,12
300,721	75,89
301,254	75,78
301,787	70,61
302,32	78,21
302,853	88,94
303,385	69,02
303,918	70,22
304,45	73,36
304,982	75,2
305,514	69,11
306,046	74,78
306,578	70,95
307,11	79,17
307,641	73,11
308,173	83,91
308,704	84,96
309,236	77,83
309,767	75
310,298	78
310,829	71,32
311,359	84,96
311,89	65,38
312,421	65,31
312,951	76,15
313,481	80,57
314,012	74,42
314,542	69,37
315,072	69,53
315,601	81,05
316,131	85,41
316,661	79,15
317,19	63,67
317,72	70,76
318,249	78,44
318,778	85,19
319,307	72,98
319,836	80
320,365	82,55
320,893	81,1
321,422	78,48
321,95	78,7
322,479	73,49
323,007	70,12
323,535	76,6
324,063	75,49
324,591	69,73
325,118	66,23
325,646	77,16
326,173	77,23
326,701	73,71
327,228	75,1
327,755	67,62
328,282	90,45
328,809	77,63
329,336	86,81
329,862	80,29
330,389	74,89
330,915	70,16
331,441	81,43
331,968	66,93
332,494	76
333,02	75,73
333,545	75,3
334,071	68,49
334,597	70,25
335,122	74,32
335,648	73,2
336,173	84,32
336,698	75,54
337,223	77
337,748	80
338,272	78,11
338,797	75,3
339,322	73,93
339,846	76,71
340,37	72,05
340,894	78,9
341,419	79,03
341,942	75,58
342,466	69,91
342,99	65,78
343,514	82,59
344,037	67,29
344,56	77,69
345,084	78,81
345,607	70,94
346,13	80,65
346,653	67,16
347,175	75,85
347,698	72,53
348,221	74,9
348,743	86,79
349,265	80
349,787	71,08
350,309	73,36
350,831	67,61
351,353	75,51
351,875	77,66
352,397	67,46
352,918	78,88
353,439	74,9
353,961	71,33
354,482	74,5
355,003	69,4
355,524	73,65
356,044	76
356,565	76,39
357,086	70,45
357,606	65,33
358,126	73,91
358,646	71,03
359,167	71,43
359,687	73,6
360,206	72,84
360,726	74,76
361,246	68,73
361,765	69,9
362,285	67,79
362,804	62,8
363,323	69,97
363,842	70,63
364,361	70,28
364,88	62,16
365,398	70,39
365,917	63,91
366,435	60,06
366,954	71,12
367,472	69,97
367,99	62,32
368,508	74,24
369,026	70,25
369,544	71,59
370,061	67,02
370,579	68,23
371,096	64,92
371,613	64,61
372,131	68,15
372,648	71,57
373,165	67,28
373,681	63,35
374,198	66,33
374,715	58,76
375,231	66,67
375,747	65,19
376,264	58,74
376,78	63,03
377,296	61,9
377,812	65,59
378,327	62,68
378,843	62,59
379,359	63,44
379,874	56,55
380,389	66,21
380,905	66,03
381,42	57,96
381,935	67,24
382,449	59,57
382,964	57,66
383,479	62,21
383,993	63,2
384,508	58,65
385,022	59,13
385,536	61,15
386,05	56,59
386,564	55,79
387,078	60,91
387,592	53,44
388,105	56,13
388,619	53,8
389,132	55,74
389,645	50,69
390,158	51,34
390,671	53,89
391,184	52,2
391,697	54,34
392,21	49,8
392,722	50,35
393,235	52,75
393,747	51,97
394,259	51,7
394,771	49,64
395,283	49,67
395,795	48,4
396,307	47,02
396,818	43,81
397,33	47,79
397,841	42,95
398,353	46,06
398,864	44,28
399,375	45,7
399,886	43,92
400,397	43,15
400,907	43,23
401,418	40,12
401,928	38,95
402,439	40,02
402,949	38,72
403,459	39,66
403,969	36,78
404,479	39,05
404,989	34,17
405,498	34,65
406,008	37,05
406,517	35,25
407,027	33,2
407,536	33,09
408,045	31,85
408,554	30,67
409,063	29,82
409,572	28,53
410,08	28,62
410,589	26,01
411,097	26
411,606	26,38
412,114	22,48
412,622	25,18
413,13	23,28
413,638	22,43
414,145	22,59
414,653	20,14
415,16	20,48
415,668	21,66
416,175	20,27
416,682	18,94
417,189	19,15
417,696	20,15
418,203	19,74
418,71	18,35
419,216	18,3
419,723	17,03
420,229	17,57
420,735	17,49
421,242	17,02
421,748	17,21
422,254	18,23
422,759	15,92
423,265	15,46
423,771	15,28
424,276	15,88
424,781	15,65
425,287	15,42
425,792	15,12
426,297	14,9
426,802	14,15
427,306	15,28
427,811	15,23
428,316	14,99
428,82	14,84
429,324	14,53
429,829	15,14
430,333	14,6
430,837	14,33
431,34	14,5
431,844	14,04
432,348	14,81
432,851	14,6
433,355	13,46
433,858	14,49
434,361	13,74
434,864	14,71
435,367	14,37
435,87	14,59
436,373	13,86
436,876	14,35
437,378	13,39
437,88	13,83
438,383	14,33
438,885	13,45
439,387	13,35
439,889	13,6
440,391	13,43
440,892	14,13
441,394	13,12
441,896	13,35
442,397	13,82
442,898	13,8
443,399	13,03
443,9	13,74
444,401	13,72
444,902	13,56
445,403	13,69
445,903	14,05
446,404	14,01
446,904	13,94
447,405	13,94
447,905	13,89
448,405	13,81
448,905	14,01
449,404	12,84
449,904	14,27
450,404	13,89
450,903	13,78
451,403	13,69
451,902	14,63
452,401	14
452,9	14,17
453,399	14,96
453,898	14,39
454,396	13,91
454,895	14,34
455,393	14,44
455,892	14,68
456,39	15,15
456,888	15,22
457,386	14,46
457,884	14,5
458,382	14,41
458,879	14,34
459,377	14,79
459,874	14,76
460,372	14,18
460,869	14,61
461,366	14,36
461,863	14,82
462,36	14,36
462,857	14,18
463,353	13,88
463,85	14,37
464,346	14,34
464,843	13,98
465,339	14,95
465,835	14,08
466,331	13,93
466,827	14,71
467,323	14,33
467,818	14
468,314	14,62
468,809	14,56
469,305	14,41
469,8	14,71
470,295	14,59
470,79	14,16
471,285	14,57
471,78	13,67
472,274	14,45
472,769	14,5
473,263	14,41
473,758	14,64
474,252	14,53
474,746	13,68
475,24	14,41
475,734	14,13
476,228	14,24
476,721	14,42
477,215	14,27
477,708	14,34
478,202	13,96
478,695	15,06
479,188	14,33
479,681	14,59
480,174	14,22
480,667	14,68
481,159	14,74
481,652	14,6
482,144	15,04
482,637	14,82
483,129	14,44
483,621	15,27
484,113	14,6
484,605	14,37
485,097	14,46
485,588	15,06
486,08	15,2
486,571	14,75
487,063	15,14
487,554	15,29
488,045	15,22
488,536	14,67
489,027	15,63
489,518	14,97
490,008	14,85
490,499	15,37
490,989	15,03
491,48	15,15
491,97	15,18
492,46	15,4
492,95	15,45
493,44	16,09
493,93	15,85
494,419	15,72
494,909	16,01
495,398	16,25
495,888	16,47
496,377	17,05
496,866	16,65
497,355	16,56
497,844	16,55
498,333	16,92
498,821	17,16
499,31	17,44
499,798	17,66
500,287	17,85
500,775	17,37
501,263	17,78
501,751	17,78
502,239	18,25
502,727	19,03
503,215	18,53
503,702	18,84
504,19	19,19
504,677	19,56
505,164	19,7
505,651	19,93
506,139	20,42
506,625	20,43
507,112	20,56
507,599	21,63
508,086	21,32
508,572	21,78
509,058	21,89
509,545	22,13
510,031	21,78
510,517	22,87
511,003	23,17
511,489	23,55
511,974	24,16
512,46	24,63
512,946	24,68
513,431	24,68
513,916	25,41
514,401	25,82
514,887	25,83
515,371	26,66
515,856	27,16
516,341	27,56
516,826	26,97
517,31	27,83
517,795	29,43
518,279	28,68
518,763	29,64
519,247	29,3
519,731	30,16
520,215	30,5
520,699	30,74
521,182	31,28
521,666	30,82
522,149	32,52
522,633	32,28
523,116	32,37
523,599	32,87
524,082	33,48
524,565	33,8
525,048	33,93
525,53	34,7
526,013	35,28
526,495	34,48
526,978	35,41
527,46	35,44
527,942	37,09
528,424	36,45
528,906	36,51
529,388	36,91
529,87	36,77
530,351	37,58
530,833	37,88
531,314	38,18
531,795	38,71
532,277	37,74
532,758	38,76
533,238	38,9
533,719	38,45
534,2	38,88
534,681	38,94
535,161	39,51
535,642	38,85
536,122	39,93
536,602	39,2
537,082	39,48
537,562	39,91
538,042	39,4
538,522	39,2
539,001	39,33
539,481	40,48
539,96	39,99
540,44	39,74
540,919	40,21
541,398	40,46
541,877	40,25
542,356	40,99
542,835	39,72
543,313	40,09
543,792	40,22
544,27	40,79
544,749	40,23
545,227	40,46
545,705	40,65
546,183	40,31
546,661	41,06
547,139	40,68
547,616	40,31
548,094	40,9
548,571	40,63
549,049	41,32
549,526	41,21
550,003	41,39
550,48	40,83
550,957	40,96
551,434	41,04
551,911	41,39
552,387	40,98
552,864	41,32
553,34	41,29
553,817	41,45
554,293	41,36
554,769	41,32
555,245	41,41
555,721	41,67
556,197	41,1
556,672	40,92
557,148	41,1
557,623	41,2
558,099	41,4
558,574	40,74
559,049	41,42
559,524	40,9
559,999	39,98
560,474	40,6
560,948	40,53
561,423	40,01
561,897	40,17
562,372	40
562,846	39,92
563,32	40,37
563,794	39,83
564,268	39,86
564,742	40,42
565,216	39,25
565,69	39,43
566,163	39,61
566,636	38,88
567,11	39,3
567,583	39,41
568,056	37,99
568,529	38,44
569,002	37,83
569,475	38,05
569,947	37,31
570,42	37,97
570,892	37,74
571,365	37,55
571,837	37,44
572,309	37,17
572,781	36,6
573,253	36,52
573,725	36,05
574,197	35,66
574,668	35,74
575,14	35,4
575,611	35,76
576,082	34,79
576,554	35,19
577,025	34,6
577,496	34,98
577,967	34,79
578,437	34,28
578,908	33,97
579,379	33,64
579,849	33,5
580,319	33,98
580,79	33,29
581,26	33
581,73	33,25
582,2	32,89
582,669	33,36
583,139	32,89
583,609	32,8
584,078	32,3
584,548	32,58
585,017	32,07
585,486	31,95
585,955	31,84
586,424	31,95
586,893	31,99
587,362	31,98
587,83	31,07
588,299	31
588,767	31,89
589,236	31,19
589,704	31,09
590,172	31,1
590,64	30,49
591,108	30,68
591,576	30,94
592,043	30,46
592,511	30,44
592,978	30,46
593,446	30,27
593,913	30,38
594,38	30,28
594,847	30,15
595,314	30,14
595,781	30,08
596,248	29,87
596,715	29,39
597,181	29,94
597,647	29,93
598,114	30,05
598,58	29,6
599,046	29,98
599,512	29,11
599,978	29,41
600,444	30,29
600,91	29,36
601,375	29,45
601,841	29,28
602,306	29,06
602,771	29,4
603,236	29,14
603,702	29,14
604,167	28,77
604,631	28,97
605,096	28,45
605,561	28,78
606,025	28,57
606,49	28,25
606,954	28,33
607,418	28,44
607,882	28,18
608,347	28,44
608,81	28,2
609,274	28,02
609,738	28,01
610,202	27,61
610,665	27,47
611,128	27,31
611,592	27,24
612,055	27,05
612,518	27,17
612,981	26,9
613,444	26,68
613,907	26,89
614,369	26,54
614,832	26,51
615,294	26,53
615,757	26,06
616,219	26,08
616,681	26,25
617,143	25,79
617,605	25,51
618,067	25,65
618,529	25,63
618,99	25,53
619,452	25,21
619,913	25,08
620,375	24,97
620,836	24,86
621,297	25
621,758	24,43
622,219	24,77
622,68	24,6
623,14	24,36
623,601	24,57
624,061	24,45
624,522	24,3
624,982	24,17
625,442	24,36
625,902	24,24
626,362	24,58
626,822	24,19
627,282	24,2
627,742	24,16
628,201	24,16
628,661	24,33
629,12	23,82
629,579	24,15
630,038	23,98
630,497	23,86
630,956	23,85
631,415	23,85
631,874	23,98
632,332	23,81
632,791	23,73
633,249	23,51
633,708	23,52
634,166	23,35
634,624	23,26
635,082	23,1
635,54	23,21
635,998	23,16
636,455	22,86
636,913	22,81
637,37	22,49
637,828	22,4
638,285	22,01
638,742	22,34
639,199	22,13
639,656	21,55
640,113	21,75
640,57	21,44
641,027	21,55
641,483	21,14
641,94	20,87
642,396	20,86
642,852	20,63
643,309	20,59
643,765	20,37
644,221	19,98
644,676	19,83
645,132	19,62
645,588	19,4
646,043	19,45
646,499	19,18
646,954	19,19
647,409	18,99
647,864	18,46
648,319	18,61
648,774	18,26
649,229	18
649,684	18,27
650,139	18,11
650,593	17,94
651,047	17,72
651,502	17,71
651,956	17,4
652,41	17,25
652,864	17,3
653,318	17,35
653,772	17,34
654,225	17,42
654,679	17,23
655,133	17,11
655,586	17,06
656,039	16,88
656,492	16,98
656,946	17,02
657,399	16,5
657,851	16,39
658,304	16,41
658,757	16,1
659,209	16,19
659,662	15,97
660,114	16,07
660,567	15,73
661,019	15,69
661,471	15,43
661,923	15,38
662,375	15,12
662,826	14,77
663,278	14,67
663,73	14,63
664,181	14,67
664,632	14,41
665,084	14,35
665,535	14,27
665,986	14,06
666,437	14,06
666,888	14,18
667,338	13,94
667,789	13,83
668,24	13,96
668,69	13,76
669,14	13,86
669,591	13,88
670,041	13,76
670,491	13,75
670,941	13,78
671,391	13,72
671,84	13,68
672,29	13,8
672,74	13,49
673,189	13,86
673,638	14,03
674,088	14,02
674,537	13,94
674,986	14,19
675,435	13,97
675,883	14,39
676,332	14,47
676,781	14,36
677,229	14,42
677,678	14,74
678,126	14,55
678,574	14,84
679,022	14,9
679,47	15
679,918	15,17
680,366	15,33
680,814	15,48
681,261	15,62
681,709	15,74
682,156	16,01
682,604	15,92
683,051	16,55
683,498	16,56
683,945	16,76
684,392	16,94
684,839	17,28
685,286	17,4
685,732	17,71
686,179	17,96
686,625	18,13
687,071	18,77
687,518	18,95
687,964	19,34
688,41	19,67
688,856	20,21
689,301	20,66
689,747	21,15
690,193	21,89
690,638	22,46
691,084	22,65
691,529	23,22
691,974	24,23
692,419	24,85
692,864	25,28
693,309	26,21
693,754	26,65
694,199	27,28
694,643	28,28
695,088	28,29
695,532	29,48
695,977	30,19
696,421	31,21
696,865	31,71
697,309	32,26
697,753	32,92
698,197	33,74
698,64	34,38
699,084	35,29
699,527	35,84
699,971	36,33
700,414	37,22
700,857	37,42
701,3	38,25
701,743	38,69
702,186	39,43
702,629	39,9
703,072	40,67
703,515	40,99
703,957	41,51
704,399	41,54
704,842	42,81
705,284	42,86
705,726	43,87
706,168	44,14
706,61	44,21
707,052	44,95
707,494	45,18
707,935	46
708,377	46,54
708,818	46,46
709,26	47,45
709,701	47,54
710,142	48,15
710,583	48,74
711,024	48,79
711,465	49,43
711,905	49,41
712,346	49,66
712,787	49,9
713,227	50,43
713,667	50,69
714,108	50,42
714,548	51,77
714,988	51,87
715,428	51,83
715,868	52,03
716,307	52,44
716,747	52,74
717,186	53,32
717,626	53,67
718,065	53,92
718,504	54,28
718,944	54,05
719,383	54,33
719,822	54,73
720,261	54,7
720,699	55,06
721,138	55,51
721,576	55,47
722,015	55,98
722,453	55,6
722,892	56,74
723,33	56,39
723,768	56,37
724,206	56,76
724,644	56,67
725,081	56,63
725,519	57,19
725,957	57,27
726,394	57,04
726,832	57,61
727,269	57,79
727,706	57,57
728,143	57,82
728,58	58,31
729,017	58,58
729,454	58,28
729,89	58,5
730,327	58,85
730,764	58,7
731,2	58,9
731,636	59,04
732,072	58,66
732,509	58,88
732,945	59,46
733,38	59,26
733,816	58,71
734,252	59,52
734,688	59,44
735,123	59,3
735,559	59,27
735,994	59,02
736,429	59,22
736,864	59,74
737,299	59,5
737,734	59,53
738,169	59,76
738,604	59,78
739,038	59,59
739,473	60,17
739,907	59,9
740,342	59,94
740,776	59,71
741,21	59,16
741,644	59,91
742,078	59,8
742,512	59,64
742,946	59,77
743,379	59,73
743,813	59,61
744,246	60,19
744,68	59,57
745,113	59,7
745,546	59,52
745,979	59,15
746,412	59,76
746,845	59,44
747,278	59,75
747,711	59,13
748,143	59,7
748,576	59,34
749,008	59,03
749,441	59,3
749,873	59,07
750,305	59,73
750,737	59,24
751,169	59,06
751,601	59,27
752,032	59,41
752,464	58,91
752,896	59,15
753,327	59,78
753,758	59,42
754,19	59,24
754,621	59,25
755,052	59,01
755,483	58,88
755,914	58,62
756,344	58,93
756,775	58,79
757,206	58,62
757,636	58,24
758,066	58,57
758,497	58,56
758,927	58,54
759,357	58,81
759,787	58,46
760,217	58,83
760,647	58,51
761,076	58,04
761,506	58,67
761,935	58,19
762,365	57,98
762,794	58,38
763,223	57,72
763,653	58,32
764,082	58,12
764,51	58,24
764,939	58,33
765,368	57,91
765,797	58,99
766,225	57,81
766,654	58,06
767,082	57,71
767,51	58,24
767,938	57,56
768,367	57,73
768,795	57,71
769,222	57,4
769,65	57,57
770,078	57,59
770,505	57,49
770,933	57,44
771,36	57,49
771,788	57,51
772,215	57,98
772,642	57,8
773,069	57,32
773,496	57,31
773,923	57,26
774,349	57,05
774,776	57,63
775,203	57,79
775,629	57,11
776,055	57,57
776,482	57,53
776,908	57,37
777,334	56,96
777,76	57,79
778,186	57,09
778,611	57,28
779,037	57,07
779,463	57,49
779,888	57,19
780,314	56,94
780,739	57,16
781,164	56,92
781,589	57,19
782,014	56,56
782,439	56,99
782,864	56,84
783,289	56,98
783,713	56,96
784,138	57,25
784,562	57,31
784,987	56,63
785,411	56,89
785,835	56,85
786,259	57,02
786,683	56,83
787,107	57,04
787,531	57,62
787,954	56,77
788,378	57,21
788,802	56,62
789,225	56,78
789,648	56,92
790,071	56,98
790,495	57,12
790,918	56,74
791,34	56,39
791,763	56,65
792,186	56,51
792,609	56,94
793,031	56,53
793,454	57,01
793,876	56,34
794,298	56,77
794,721	56,71
795,143	56,61
795,565	56,67
795,986	56,49
796,408	56,39
796,83	57,02
797,252	56,55
797,673	56,04
798,094	56,81
798,516	56,76
798,937	56,6
799,358	56,48
799,779	56,92
800,2	56,51
800,621	56,41
801,042	56,63
801,462	56,24
801,883	56,22
802,303	56,3
802,724	56,16
803,144	56,35
803,564	56,17
803,984	56,55
804,404	56,27
804,824	56,55
805,244	56,67
805,664	56,52
806,084	56,3
806,503	55,95
806,923	56,48
807,342	56,6
807,761	56,09
808,18	56,92
808,599	56,57
809,018	56,09
809,437	56,49
809,856	56,49
810,275	56,92
810,693	56,36
811,112	56,46
811,53	57,06
811,949	56,16
812,367	56,54
812,785	56,43
813,203	56,58
813,621	56,53
814,039	56,5
814,457	56,56
814,874	56,22
815,292	56,47
815,709	56,18
816,127	56,3
816,544	55,64
816,961	56,17
817,378	56,2
817,795	56,3
818,212	56,1
818,629	56,22
819,046	56,55
819,462	56,65
819,879	56,5
820,295	56,58
820,712	56,47
821,128	56,6
821,544	56,44
821,96	56,16
822,376	56,5
822,792	56,06
823,208	56,39
823,624	56,16
824,039	56,38
824,455	56,34
824,87	56,07
825,286	56,19
825,701	55,56
826,116	56,35
826,531	56,48
826,946	56,24
827,361	55,75
827,776	55,99
828,19	55,92
828,605	55,82
829,02	56,15
829,434	55,61
829,848	56,32
830,263	55,94
830,677	56,18
831,091	55,76
831,505	56,34
831,919	56,12
832,332	55,73
832,746	55,58
833,16	56,19
833,573	56,11
833,987	55,27
834,4	56,16
834,813	56,18
