Data from I_2_Relative__9__00185.txt Node

Date: Tue Jan 30 10:14:34 CET 2024
User: diatiterra
Spectrometer: HDX00911
Trigger mode: 0
Integration Time (sec): 6,000000E-3
Scans to average: 2
Nonlinearity correction enabled: false
Boxcar width: 0
Storing dark spectrum: false
XAxis mode: Wavelengths
Number of Pixels in Spectrum: 2068
>>>>>Begin Spectral Data<<<<<
194,468	101,66
195,025	104,03
195,581	102,27
196,138	92,99
196,694	101
197,251	95,15
197,807	95,42
198,363	88,93
198,919	88,51
199,474	92,8
200,03	93,31
200,586	93,39
201,141	95,38
201,696	83,19
202,251	99,5
202,806	92,77
203,361	93,09
203,916	93,78
204,471	91,09
205,025	92,89
205,58	94,93
206,134	89,24
206,688	90,99
207,242	98,65
207,796	90,25
208,35	103,2
208,904	91,53
209,457	92,25
210,011	97,82
210,564	91,44
211,117	98,72
211,67	90,69
212,223	92,43
212,776	97,46
213,329	97,05
213,881	93,51
214,434	100,41
214,986	97,77
215,538	96,46
216,09	100,4
216,642	90,91
217,194	107,18
217,746	93,63
218,297	93,7
218,849	91,63
219,4	94,81
219,951	104,87
220,502	95,33
221,053	94,49
221,604	92,13
222,155	93,64
222,705	92,77
223,256	88,01
223,806	96,67
224,356	104,9
224,906	104,85
225,456	85,29
226,006	91,52
226,556	97,79
227,106	97,1
227,655	100
228,204	98,64
228,754	99,58
229,303	100,9
229,852	98,25
230,401	99,55
230,949	80,14
231,498	89,73
232,047	93,03
232,595	97,59
233,143	103,07
233,691	91,52
234,239	92,75
234,787	93,72
235,335	93,07
235,883	99,1
236,43	94,92
236,978	98,26
237,525	94,47
238,072	93,83
238,619	78,92
239,166	98,28
239,713	85,65
240,26	88,31
240,806	91,81
241,353	95,73
241,899	97,94
242,445	94,98
242,991	93,85
243,537	88,74
244,083	100
244,629	86,78
245,174	96,17
245,72	87,64
246,265	100,45
246,81	98,22
247,355	93,07
247,9	88,75
248,445	88,49
248,99	86,81
249,534	87,17
250,079	105,09
250,623	97,79
251,168	93,47
251,712	87,77
252,256	83,47
252,8	93,36
253,343	93,93
253,887	98,27
254,43	89,26
254,974	95,6
255,517	96,15
256,06	87,34
256,603	87,65
257,146	85,77
257,689	96,19
258,232	103,17
258,774	87,22
259,317	92,67
259,859	93,33
260,401	94,39
260,943	87,55
261,485	90,91
262,027	89,79
262,569	100
263,11	87,61
263,652	83,19
264,193	100
264,734	102,31
265,275	90,99
265,816	77,35
266,357	91,7
266,898	99,15
267,438	89,36
267,979	100,86
268,519	98,56
269,059	82,61
269,6	93,36
270,14	94,83
270,68	93,03
271,219	83,91
271,759	91,27
272,298	88,4
272,838	90,04
273,377	101,35
273,916	89,11
274,455	83,08
274,994	91,24
275,533	82,13
276,072	89,36
276,61	97,37
277,149	90,83
277,687	94,49
278,225	82,72
278,763	88,93
279,301	84,08
279,839	94,67
280,377	84,49
280,914	91,67
281,452	86,18
281,989	93,8
282,526	85,83
283,064	87,36
283,601	92,5
284,137	84,89
284,674	89,96
285,211	93,45
285,747	86,22
286,284	96,55
286,82	89,11
287,356	83,11
287,892	86,83
288,428	92,27
288,964	90,87
289,5	93,49
290,035	92,12
290,571	85,21
291,106	86,88
291,641	89,52
292,176	88
292,711	90,09
293,246	81,61
293,781	85,22
294,315	96,28
294,85	79,28
295,384	86,79
295,918	91,2
296,453	85,83
296,987	90,68
297,52	89,14
298,054	97,29
298,588	90,8
299,121	89,19
299,655	83,49
300,188	85,59
300,721	91,52
301,254	98,65
301,787	95,61
302,32	83,76
302,853	92,77
303,385	80,78
303,918	88,89
304,45	85,59
304,982	92
305,514	79,27
306,046	90,27
306,578	81,33
307,11	79,17
307,641	88,66
308,173	88,26
308,704	94,72
309,236	87,83
309,767	84,17
310,298	80
310,829	91,47
311,359	88,5
311,89	82,31
312,421	80,82
312,951	86,61
313,481	92,42
314,012	86,05
314,542	86,94
315,072	82,83
315,601	91,53
316,131	92,7
316,661	88,42
317,19	75,92
317,72	86,02
318,249	92,66
318,778	94,65
319,307	88,31
319,836	94,8
320,365	91,49
320,893	85,04
321,422	88,79
321,95	93,48
322,479	81,93
323,007	83,27
323,535	77,36
324,063	80,16
324,591	87,36
325,118	85,71
325,646	82,76
326,173	88,84
326,701	76,49
327,228	89,8
327,755	86,67
328,282	98,18
328,809	89,91
329,336	90,64
329,862	83,58
330,389	89,87
330,915	77,13
331,441	100,42
331,968	78,49
332,494	97,33
333,02	92,05
333,545	89,88
334,071	88,66
334,597	90,5
335,122	94,14
335,648	87,6
336,173	91,95
336,698	90,99
337,223	97,65
337,748	83,92
338,272	84,55
338,797	88,05
339,322	95,3
339,846	85,54
340,37	91,27
340,894	83,12
341,419	82,26
341,942	85,27
342,466	85,4
342,99	76,05
343,514	90,28
344,037	80,83
344,56	86,06
345,084	89,83
345,607	75,47
346,13	88,31
346,653	71,22
347,175	88,14
347,698	89,01
348,221	85,83
348,743	89,43
349,265	85,71
349,787	81,88
350,309	77,74
350,831	77,46
351,353	88,16
351,875	89,74
352,397	73,9
352,918	87,25
353,439	82,87
353,961	76,57
354,482	77,18
355,003	74,76
355,524	75,34
356,044	78,91
356,565	78,12
357,086	80,84
357,606	69
358,126	82,94
358,646	74,83
359,167	78,74
359,687	84,82
360,206	77
360,726	70,35
361,246	78,64
361,765	73,46
362,285	74,83
362,804	70,43
363,323	71,47
363,842	74,59
364,361	75,85
364,88	75,98
365,398	68,28
365,917	69,53
366,435	69,7
366,954	72,95
367,472	74,47
367,99	68,56
368,508	79,09
369,026	70,82
369,544	75,07
370,061	64,88
370,579	70,44
371,096	65,97
371,613	64,61
372,131	70,23
372,648	70,3
373,165	69,92
373,681	71,73
374,198	72,91
374,715	72,94
375,231	66,91
375,747	70,37
376,264	67,48
376,78	68,48
377,296	60,24
377,812	65,09
378,327	64,79
378,843	61,39
379,359	64,54
379,874	60,29
380,389	64,16
380,905	64,97
381,42	57,96
381,935	66,16
382,449	62,11
382,964	59,17
383,479	58,04
383,993	64
384,508	59,62
385,022	58,19
385,536	55,76
386,05	55,66
386,564	59,12
387,078	60,21
387,592	55,08
388,105	56,62
388,619	51,05
389,132	50,75
389,645	50,38
390,158	54,02
390,671	52,42
391,184	52,05
391,697	48,79
392,21	48,44
392,722	49,51
393,235	49,04
393,747	48,6
394,259	52,15
394,771	52,5
395,283	48,87
395,795	47,47
396,307	48,21
396,818	47,85
397,33	45,06
397,841	42,69
398,353	46,71
398,864	43,67
399,375	43,84
399,886	43,19
400,397	40,67
400,907	40,92
401,418	40,64
401,928	40,49
402,439	42,1
402,949	40,78
403,459	37,44
403,969	36,68
404,479	38,58
404,989	38,33
405,498	35,18
406,008	36,96
406,517	34,66
407,027	30,7
407,536	32,36
408,045	30,02
408,554	30,15
409,063	30,74
409,572	26,83
410,08	26,43
410,589	26,9
411,097	26,12
411,606	24,38
412,114	23,62
412,622	22,88
413,13	23,77
413,638	22,33
414,145	21,23
414,653	19,89
415,16	20,76
415,668	19,59
416,175	19,67
416,682	19,39
417,189	18,95
417,696	18,85
418,203	18,45
418,71	17,52
419,216	19,19
419,723	18,66
420,229	18,54
420,735	17,15
421,242	16,6
421,748	16,71
422,254	18,16
422,759	16,36
423,265	16,2
423,771	14,65
424,276	15,09
424,781	15,12
425,287	15,48
425,792	14,39
426,297	14,96
426,802	15,11
427,306	15,07
427,811	14,59
428,316	15,13
428,82	14,35
429,324	14,28
429,829	14,92
430,333	14,49
430,837	14,41
431,34	14,5
431,844	13,56
432,348	13,9
432,851	14,85
433,355	14,17
433,858	14,29
434,361	13,87
434,864	13,55
435,367	14,15
435,87	13,68
436,373	13,03
436,876	14,37
437,378	13,79
437,88	13,31
438,383	13,46
438,885	13,43
439,387	12,74
439,889	12,82
440,391	12,59
440,892	13,41
441,394	13,19
441,896	12,97
442,397	13,63
442,898	13,17
443,399	13,24
443,9	13,16
444,401	13,25
444,902	12,61
445,403	13
445,903	13,51
446,404	13,12
446,904	13,11
447,405	12,85
447,905	12,85
448,405	13,45
448,905	13,53
449,404	12,91
449,904	13,22
450,404	12,74
450,903	13,14
451,403	12,99
451,902	13,68
452,401	13,26
452,9	13,41
453,399	13,64
453,898	13,19
454,396	13,06
454,895	13,02
455,393	13,25
455,892	13,15
456,39	13,34
456,888	13,53
457,386	13,02
457,884	13,29
458,382	13,52
458,879	13,03
459,377	13,38
459,874	13,37
460,372	12,99
460,869	13,02
461,366	13,12
461,863	13,7
462,36	12,96
462,857	12,98
463,353	13,54
463,85	13,31
464,346	12,53
464,843	13,24
465,339	13,42
465,835	13,27
466,331	13,07
466,827	12,71
467,323	13,27
467,818	13,01
468,314	12,87
468,809	13,17
469,305	13,63
469,8	13,53
470,295	13,23
470,79	13,15
471,285	12,91
471,78	12,61
472,274	13,29
472,769	13,09
473,263	12,88
473,758	13,22
474,252	12,88
474,746	13,4
475,24	12,7
475,734	13,07
476,228	13,06
476,721	13
477,215	13,14
477,708	12,89
478,202	13,93
478,695	12,93
479,188	13,53
479,681	13,15
480,174	13,19
480,667	12,69
481,159	13,4
481,652	13,28
482,144	13,45
482,637	13,06
483,129	13,13
483,621	12,78
484,113	12,53
484,605	13,36
485,097	13,08
485,588	13,18
486,08	13,35
486,571	13,03
487,063	13,31
487,554	13,45
488,045	13,31
488,536	13,19
489,027	14,1
489,518	12,79
490,008	13,23
490,499	13,8
490,989	13,45
491,48	13,49
491,97	13,59
492,46	13,49
492,95	13,61
493,44	13,24
493,93	13,7
494,419	13,95
494,909	14,02
495,398	13,92
495,888	13,86
496,377	13,82
496,866	14,4
497,355	14,52
497,844	13,89
498,333	14,81
498,821	14,4
499,31	14,78
499,798	14,94
500,287	14,94
500,775	15,01
501,263	15,08
501,751	15,46
502,239	15,31
502,727	15,61
503,215	15,96
503,702	15,76
504,19	16,2
504,677	16,76
505,164	16,44
505,651	16,8
506,139	17,17
506,625	17
507,112	17,58
507,599	17,76
508,086	18,49
508,572	18,45
509,058	18,47
509,545	18,5
510,031	18,81
510,517	19,6
511,003	19,74
511,489	19,9
511,974	20,22
512,46	21,13
512,946	21,07
513,431	21,34
513,916	22,33
514,401	22,43
514,887	22,24
515,371	23,11
515,856	23,41
516,341	24,16
516,826	24,08
517,31	24,37
517,795	25,59
518,279	25,45
518,763	26
519,247	25,87
519,731	27,11
520,215	26,81
520,699	27,63
521,182	28,66
521,666	28,34
522,149	29,75
522,633	29,62
523,116	29,93
523,599	30,89
524,082	31,54
524,565	31,48
525,048	31,75
525,53	32,27
526,013	32,43
526,495	33,09
526,978	33,6
527,46	33,32
527,942	34,6
528,424	34,91
528,906	35,13
529,388	35,15
529,87	35,62
530,351	36,18
530,833	35,9
531,314	36,01
531,795	36,92
532,277	36,64
532,758	37,26
533,238	37,64
533,719	37,19
534,2	37,58
534,681	38,06
535,161	38,13
535,642	38,3
536,122	38,93
536,602	38,9
537,082	38,33
537,562	38,49
538,042	38,36
538,522	39,2
539,001	38,94
539,481	38,7
539,96	39,33
540,44	39,17
540,919	39,12
541,398	39,67
541,877	39,63
542,356	40,06
542,835	39,75
543,313	39,92
543,792	40,12
544,27	40,24
544,749	39,5
545,227	40,24
545,705	39,79
546,183	40,23
546,661	40,6
547,139	39,7
547,616	40,61
548,094	40,95
548,571	40,5
549,049	40,88
549,526	41,06
550,003	40,77
550,48	41,35
550,957	40,33
551,434	40,49
551,911	41,13
552,387	40,84
552,864	41,17
553,34	41,39
553,817	40,96
554,293	41,2
554,769	41,14
555,245	40,77
555,721	41,1
556,197	40,71
556,672	40,53
557,148	40,82
557,623	39,73
558,099	40,59
558,574	40,43
559,049	40,25
559,524	40,9
559,999	39,72
560,474	40,09
560,948	39,99
561,423	39,34
561,897	40
562,372	39,34
562,846	39,04
563,32	39,59
563,794	39,65
564,268	38,85
564,742	38,88
565,216	38,14
565,69	38,23
566,163	38,92
566,636	37,71
567,11	37,61
567,583	37,56
568,056	36,68
568,529	36,96
569,002	36,62
569,475	36,37
569,947	36,39
570,42	35,72
570,892	35,81
571,365	35,6
571,837	35,5
572,309	34,9
572,781	34,98
573,253	34,11
573,725	33,97
574,197	33,62
574,668	33,7
575,14	33,16
575,611	33,43
576,082	32,88
576,554	32,45
577,025	32,17
577,496	32,12
577,967	32,02
578,437	32,13
578,908	31,78
579,379	31,23
579,849	31,06
580,319	31,26
580,79	30,87
581,26	30,31
581,73	30,71
582,2	30,24
582,669	30,05
583,139	30,16
583,609	30,38
584,078	29,5
584,548	29,81
585,017	29,42
585,486	29,05
585,955	28,76
586,424	28,75
586,893	29,04
587,362	28,82
587,83	28,45
588,299	28,96
588,767	28,39
589,236	28,42
589,704	28,09
590,172	27,65
590,64	27,98
591,108	27,57
591,576	27,55
592,043	27,19
592,511	27,36
592,978	27,94
593,446	27,21
593,913	27,17
594,38	27,67
594,847	27,47
595,314	27,27
595,781	26,9
596,248	27,26
596,715	27,23
597,181	26,96
597,647	26,89
598,114	26,61
598,58	26,85
599,046	26,81
599,512	26,48
599,978	26,51
600,444	26,64
600,91	26,66
601,375	26,5
601,841	26,09
602,306	26,16
602,771	26,35
603,236	25,35
603,702	26,08
604,167	25,97
604,631	25,89
605,096	25,44
605,561	25,6
606,025	25,38
606,49	25,35
606,954	25,29
607,418	25,06
607,882	24,7
608,347	24,62
608,81	24,59
609,274	24,77
609,738	24,35
610,202	24,34
610,665	24
611,128	23,97
611,592	23,86
612,055	23,48
612,518	23,68
612,981	23,08
613,444	23,31
613,907	22,88
614,369	23,15
614,832	22,76
615,294	22,66
615,757	22,56
616,219	22,25
616,681	22,14
617,143	22,48
617,605	21,99
618,067	21,72
618,529	21,87
618,99	21,73
619,452	21,88
619,913	21,57
620,375	21,71
620,836	21,36
621,297	21,21
621,758	21,38
622,219	20,9
622,68	20,99
623,14	20,8
623,601	21,14
624,061	20,93
624,522	20,92
624,982	20,99
625,442	20,8
625,902	20,78
626,362	20,62
626,822	20,73
627,282	20,73
627,742	20,42
628,201	20,61
628,661	20,62
629,12	20,47
629,579	20,26
630,038	20,51
630,497	20,54
630,956	20,76
631,415	20,19
631,874	20,19
632,332	20,24
632,791	20,06
633,249	20,34
633,708	20,01
634,166	19,43
634,624	20,09
635,082	19,76
635,54	19,4
635,998	19,85
636,455	19,63
636,913	18,98
637,37	19,24
637,828	19,21
638,285	18,97
638,742	19,23
639,199	18,73
639,656	18,99
640,113	18,53
640,57	18,14
641,027	18
641,483	18,07
641,94	17,85
642,396	17,7
642,852	17,7
643,309	17,31
643,765	17,23
644,221	17,11
644,676	16,71
645,132	16,65
645,588	16,35
646,043	16,71
646,499	16,31
646,954	16,14
647,409	16,06
647,864	15,74
648,319	15,73
648,774	15,48
649,229	15,37
649,684	15,28
650,139	15,15
650,593	15,16
651,047	15,09
651,502	15,14
651,956	14,71
652,41	14,78
652,864	14,75
653,318	14,38
653,772	14,61
654,225	14,58
654,679	14,53
655,133	14,35
655,586	14,03
656,039	14,07
656,492	14,26
656,946	14,12
657,399	13,85
657,851	13,96
658,304	13,65
658,757	13,68
659,209	13,55
659,662	13,57
660,114	13,38
660,567	13,06
661,019	13,13
661,471	12,92
661,923	12,71
662,375	12,85
662,826	12,6
663,278	12,49
663,73	12,45
664,181	12,58
664,632	12,52
665,084	12,39
665,535	12,23
665,986	12,25
666,437	12,25
666,888	12,05
667,338	12,22
667,789	11,92
668,24	12,25
668,69	11,98
669,14	12,07
669,591	11,97
670,041	12,22
670,491	12,04
670,941	11,98
671,391	11,98
671,84	12,17
672,29	12,09
672,74	12
673,189	12,25
673,638	12,15
674,088	12,55
674,537	12,53
674,986	12,59
675,435	12,67
675,883	12,77
676,332	12,88
676,781	12,98
677,229	13,03
677,678	13,22
678,126	13,06
678,574	13,38
679,022	13,4
679,47	13,67
679,918	13,85
680,366	13,88
680,814	14,04
681,261	13,88
681,709	14,22
682,156	14,4
682,604	14,52
683,051	14,76
683,498	14,85
683,945	15,13
684,392	14,9
684,839	15,39
685,286	15,4
685,732	15,55
686,179	15,67
686,625	16,16
687,071	16,1
687,518	16,35
687,964	16,7
688,41	17,07
688,856	17,46
689,301	17,5
689,747	18,1
690,193	18,71
690,638	19,29
691,084	19,68
691,529	20,37
691,974	20,84
692,419	21,08
692,864	22,09
693,309	22,7
693,754	23,31
694,199	23,88
694,643	25,04
695,088	25,57
695,532	26,56
695,977	27,56
696,421	28,33
696,865	29,23
697,309	30,09
697,753	30,5
698,197	31,82
698,64	32,63
699,084	33,42
699,527	34,53
699,971	34,97
700,414	36,34
700,857	36,8
701,3	37,83
701,743	38,34
702,186	39,23
702,629	40,14
703,072	40,77
703,515	41,92
703,957	42,48
704,399	43,22
704,842	44,93
705,284	45,08
705,726	46
706,168	46,81
706,61	47,33
707,052	47,95
707,494	48,7
707,935	49,47
708,377	50,54
708,818	51,29
709,26	51,88
709,701	52,59
710,142	53,3
710,583	53,79
711,024	54,69
711,465	55,21
711,905	56,14
712,346	56,31
712,787	56,78
713,227	57,83
713,667	58,14
714,108	58,57
714,548	59,99
714,988	60,59
715,428	60,8
715,868	61,5
716,307	61,79
716,747	62,66
717,186	63,34
717,626	64,08
718,065	64,36
718,504	65,04
718,944	65,47
719,383	65,6
719,822	65,95
720,261	66,57
720,699	67,5
721,138	68,1
721,576	67,99
722,015	68,88
722,453	69,04
722,892	69,78
723,33	69,98
723,768	70,21
724,206	70,36
724,644	70,94
725,081	71,49
725,519	71,41
725,957	71,74
726,394	72,45
726,832	72,72
727,269	73,03
727,706	73,63
728,143	73,83
728,58	74,35
729,017	74,2
729,454	74,69
729,89	74,43
730,327	75,34
730,764	75,58
731,2	75,7
731,636	75,44
732,072	75,81
732,509	75,85
732,945	76,27
733,38	76,74
733,816	76,73
734,252	77,16
734,688	76,69
735,123	76,78
735,559	76,63
735,994	77,53
736,429	77,19
736,864	78,06
737,299	77,49
737,734	78,07
738,169	78,4
738,604	77,94
739,038	78,08
739,473	78,58
739,907	78,67
740,342	78,8
740,776	78,61
741,21	78,62
741,644	78,88
742,078	78,55
742,512	78,98
742,946	78,88
743,379	79,29
743,813	79,47
744,246	79,35
744,68	79,6
745,113	79,66
745,546	79,02
745,979	78,51
746,412	79,53
746,845	79,05
747,278	79,39
747,711	79,37
748,143	79,66
748,576	79,37
749,008	79,04
749,441	79,66
749,873	79,46
750,305	79,1
750,737	79,03
751,169	78,97
751,601	78,75
752,032	78,89
752,464	78,78
752,896	78,87
753,327	79,13
753,758	78,97
754,19	78,82
754,621	79,35
755,052	79,08
755,483	78,64
755,914	78,36
756,344	79,18
756,775	78,49
757,206	78,71
757,636	78,42
758,066	78,09
758,497	78,31
758,927	79,39
759,357	79,07
759,787	78,58
760,217	79,15
760,647	79,03
761,076	78,55
761,506	78,21
761,935	78,33
762,365	78,09
762,794	78,14
763,223	77,61
763,653	77,92
764,082	78,6
764,51	78,24
764,939	78,78
765,368	78,04
765,797	78,7
766,225	77,77
766,654	77,76
767,082	78,02
767,51	78,02
767,938	77,7
768,367	78,04
768,795	77,93
769,222	77,37
769,65	78,03
770,078	77,87
770,505	77,22
770,933	77,36
771,36	77,66
771,788	76,91
772,215	78,56
772,642	77,49
773,069	76,64
773,496	77,51
773,923	77,65
774,349	77,1
774,776	77,77
775,203	77,45
775,629	77,09
776,055	77,76
776,482	77,53
776,908	77,66
777,334	76,98
777,76	77,54
778,186	77
778,611	77,52
779,037	77,36
779,463	77,03
779,888	77,24
780,314	77
780,739	77,09
781,164	76,8
781,589	77,18
782,014	76,59
782,439	77,32
782,864	77,11
783,289	77,16
783,713	76,87
784,138	77,45
784,562	77,28
784,987	76,89
785,411	76,25
785,835	77,53
786,259	77,12
786,683	76,79
787,107	76,2
787,531	77,42
787,954	76,32
788,378	77,23
788,802	76,84
789,225	76,66
789,648	76,82
790,071	77,5
790,495	76,67
790,918	77,04
791,34	76,77
791,763	76,75
792,186	76,74
792,609	76,48
793,031	76,74
793,454	76,78
793,876	76,85
794,298	76,51
794,721	76,72
795,143	76,3
795,565	77,16
795,986	76,11
796,408	76,56
796,83	76,64
797,252	76,56
797,673	76,16
798,094	76,55
798,516	76,62
798,937	76,92
799,358	76,56
799,779	76,64
800,2	76,91
800,621	76,15
801,042	76,5
801,462	76,43
801,883	76,05
802,303	75,84
802,724	76,55
803,144	76,59
803,564	76,21
803,984	75,94
804,404	76,14
804,824	76,86
805,244	76,83
805,664	76,12
806,084	76,35
806,503	76,31
806,923	76,3
807,342	76,61
807,761	76,08
808,18	76,96
808,599	76,42
809,018	76,49
809,437	76,13
809,856	76,39
810,275	76,47
810,693	75,92
811,112	76,81
811,53	76,58
811,949	76,8
812,367	76,6
812,785	75,74
813,203	76,21
813,621	76,39
814,039	76,33
814,457	76,55
814,874	76
815,292	76,31
815,709	76,25
816,127	75,92
816,544	76,26
816,961	76,19
817,378	76,41
817,795	75,89
818,212	76,54
818,629	76,12
819,046	76,19
819,462	76,58
819,879	76,36
820,295	76,16
820,712	76,33
821,128	76,3
821,544	76,25
821,96	76,3
822,376	76,68
822,792	76,42
823,208	76,24
823,624	76,26
824,039	76,28
824,455	76,26
824,87	76,08
825,286	76,25
825,701	75,58
826,116	75,91
826,531	76,1
826,946	76,02
827,361	76,21
827,776	76,24
828,19	76,16
828,605	75,72
829,02	75,85
829,434	75,63
829,848	76,74
830,263	75,72
830,677	75,79
831,091	76,21
831,505	76,1
831,919	76,11
832,332	75,88
832,746	76,11
833,16	76,38
833,573	75,68
833,987	75,59
