Data from I_2_Relative__10__00186.txt Node

Date: Tue Jan 30 10:14:39 CET 2024
User: diatiterra
Spectrometer: HDX00911
Trigger mode: 0
Integration Time (sec): 6,000000E-3
Scans to average: 2
Nonlinearity correction enabled: false
Boxcar width: 0
Storing dark spectrum: false
XAxis mode: Wavelengths
Number of Pixels in Spectrum: 2068
>>>>>Begin Spectral Data<<<<<
194,468	108,84
195,025	108,06
195,581	96,21
196,138	91,08
196,694	101,99
197,251	89,87
197,807	90,83
198,363	89,75
198,919	85,53
199,474	94,07
200,03	83,46
200,586	91,19
201,141	92,02
201,696	83,61
202,251	90,55
202,806	93,62
203,361	86,18
203,916	91,29
204,471	95,05
205,025	89,96
205,58	94,93
206,134	87,25
206,688	85,41
207,242	102,25
207,796	82,2
208,35	105,94
208,904	90,73
209,457	85,66
210,011	93,89
210,564	99,55
211,117	103,4
211,67	83,81
212,223	83,67
212,776	94,07
213,329	90,72
213,881	95,24
214,434	96,31
214,986	103,57
215,538	95,28
216,09	86,35
216,642	90,08
217,194	99,04
217,746	89,24
218,297	92,02
218,849	91,25
219,4	96,54
219,951	94,69
220,502	92,61
221,053	93,22
221,604	95,28
222,155	84,32
222,705	96,6
223,256	87,27
223,806	93,75
224,356	107,35
224,906	97,36
225,456	89,92
226,006	98,66
226,556	95,58
227,106	91,29
227,655	100
228,204	102,71
228,754	90,3
229,303	100
229,852	98,69
230,401	96,86
230,949	84,04
231,498	100,89
232,047	90,57
232,595	91,97
233,143	96,49
233,691	85,51
234,239	90,46
234,787	99,1
235,335	90,04
235,883	97,75
236,43	88,14
236,978	96,96
237,525	89,79
238,072	90,31
238,619	81,61
239,166	90,52
239,713	86,5
240,26	90,32
240,806	90,09
241,353	96,58
241,899	86,83
242,445	95,82
242,991	89,75
243,537	90,04
244,083	95,02
244,629	91,19
245,174	100,43
245,72	88,42
246,265	97,74
246,81	102,67
247,355	93,07
247,9	97,08
248,445	85,32
248,99	93,19
249,534	84,15
250,079	95,37
250,623	92,92
251,168	93,47
251,712	77,73
252,256	82,64
252,8	96,02
253,343	97,98
253,887	97,84
254,43	88,52
254,974	93,2
255,517	103,37
256,06	87,76
256,603	93,83
257,146	84,62
257,689	91,53
258,232	92,31
258,774	95,15
259,317	96,98
259,859	100
260,401	95,33
260,943	92,95
261,485	90,45
262,027	82,98
262,569	96,76
263,11	94,69
263,652	88,94
264,193	95,35
264,734	95,83
265,275	91,85
265,816	83,76
266,357	85,89
266,898	98,72
267,438	97,87
267,979	88,79
268,519	98,08
269,059	79,05
269,6	94,69
270,14	87,07
270,68	85,25
271,219	89,57
271,759	83,84
272,298	82,8
272,838	90,04
273,377	104,05
273,916	89,49
274,455	86,92
274,994	94,93
275,533	88,21
276,072	88,94
276,61	94,3
277,149	82,5
277,687	104,66
278,225	77,78
278,763	74,81
279,301	84,08
279,839	87,3
280,377	81,63
280,914	84,72
281,452	86,18
281,989	85,54
282,526	83,33
283,064	80,08
283,601	94,17
284,137	91,56
284,674	82,01
285,211	84,72
285,747	85,04
286,284	95,69
286,82	89,52
287,356	84,89
287,892	81,89
288,428	81,55
288,964	87,97
289,5	84,65
290,035	94,19
290,571	82,1
291,106	94,12
291,641	80,79
292,176	80
292,711	84,05
293,246	79,31
293,781	83,48
294,315	91,63
294,85	83,27
295,384	93,4
295,918	82
296,453	83
296,987	82,63
297,52	84,62
298,054	85,07
298,588	88,4
299,121	84,68
299,655	87,74
300,188	80,51
300,721	92,41
301,254	84,3
301,787	93,42
302,32	89,74
302,853	91,91
303,385	88,24
303,918	84
304,45	89,52
304,982	78,8
305,514	82,11
306,046	87,61
306,578	89,21
307,11	85,98
307,641	85,71
308,173	98,26
308,704	93,09
309,236	85,65
309,767	84,17
310,298	78,8
310,829	81,4
311,359	97,79
311,89	84,23
312,421	80,82
312,951	87,87
313,481	88,63
314,012	82,56
314,542	81,53
315,072	82,4
315,601	82,66
316,131	84,98
316,661	91,12
317,19	80
317,72	86,44
318,249	89,91
318,778	97,94
319,307	87,5
319,836	87,2
320,365	92,77
320,893	85,43
321,422	87,89
321,95	89,13
322,479	83,53
323,007	86,85
323,535	89,81
324,063	82,49
324,591	85,06
325,118	80,52
325,646	86,64
326,173	92,41
326,701	82,07
327,228	80,82
327,755	83,33
328,282	92,73
328,809	96,05
329,336	87,66
329,862	85,04
330,389	85,46
330,915	84,88
331,441	96,62
331,968	72,51
332,494	88,89
333,02	89,54
333,545	80,16
334,071	86,97
334,597	85,54
335,122	86,94
335,648	88,4
336,173	87,29
336,698	75,11
337,223	89,67
337,748	82,75
338,272	84,12
338,797	83,27
339,322	94,44
339,846	83,53
340,37	88,65
340,894	86,08
341,419	90,32
341,942	79,84
342,466	83,19
342,99	75,67
343,514	80,57
344,037	79,7
344,56	79,68
345,084	86,02
345,607	80,75
346,13	85,08
346,653	73,43
347,175	85,17
347,698	80,95
348,221	82,19
348,743	88,68
349,265	79,18
349,787	74,56
350,309	75,91
350,831	71,48
351,353	84,08
351,875	76,19
352,397	70,85
352,918	85,26
353,439	82,87
353,961	72,73
354,482	78,86
355,003	78,23
355,524	75,68
356,044	84,73
356,565	72,57
357,086	73,05
357,606	70,33
358,126	73,58
358,646	69,66
359,167	76,41
359,687	72,94
360,206	77,64
360,726	72,56
361,246	74,61
361,765	75,08
362,285	70,81
362,804	66,46
363,323	68,47
363,842	72,94
364,361	68,42
364,88	72,97
365,398	73,41
365,917	70,12
366,435	65,01
366,954	70,21
367,472	70,57
367,99	66,57
368,508	75,45
369,026	72,24
369,544	78,26
370,061	62,2
370,579	73,76
371,096	69,11
371,613	67,83
372,131	66,84
372,648	71,07
373,165	70,18
373,681	65,45
374,198	70,63
374,715	64,95
375,231	65,19
375,747	66,42
376,264	64,08
376,78	65,17
377,296	61,19
377,812	64,09
378,327	66,9
378,843	61,87
379,359	63
379,874	61,12
380,389	57,53
380,905	62
381,42	58,78
381,935	65,73
382,449	61,33
382,964	55,2
383,479	58,46
383,993	61,6
384,508	54,62
385,022	57,63
385,536	57,81
386,05	55,1
386,564	55,44
387,078	56,02
387,592	54,43
388,105	56,79
388,619	50,73
389,132	56,07
389,645	49
390,158	57,01
390,671	53,3
391,184	50,99
391,697	47,23
392,21	47,23
392,722	49,37
393,235	45,47
393,747	49,86
394,259	45,63
394,771	47,08
395,283	46,86
395,795	47,07
396,307	43,84
396,818	44,59
397,33	45,06
397,841	41,64
398,353	40,52
398,864	38,99
399,375	43,46
399,886	41,24
400,397	40,35
400,907	41,03
401,418	40,54
401,928	38,95
402,439	36,17
402,949	35,32
403,459	35,72
403,969	34,46
404,479	35,07
404,989	34,63
405,498	32,89
406,008	34,37
406,517	31,61
407,027	31,18
407,536	32,45
408,045	27,87
408,554	26,34
409,063	27,77
409,572	26,76
410,08	25,59
410,589	24,68
411,097	24,45
411,606	22,5
412,114	20,71
412,622	20,8
413,13	22,48
413,638	20,68
414,145	20,88
414,653	19,94
415,16	19,4
415,668	19,49
416,175	18,42
416,682	18,1
417,189	16,58
417,696	17,14
418,203	17,53
418,71	16,93
419,216	17,24
419,723	17,38
420,229	15,86
420,735	16,13
421,242	15,57
421,748	15,57
422,254	17,33
422,759	14,52
423,265	14,25
423,771	14,62
424,276	13,59
424,781	14,11
425,287	14,7
425,792	13,94
426,297	14,31
426,802	13,17
427,306	13,76
427,811	13,6
428,316	14,81
428,82	14,29
429,324	13,36
429,829	13,52
430,333	13,75
430,837	13,73
431,34	13,18
431,844	12,63
432,348	13,44
432,851	12,91
433,355	12,55
433,858	13,16
434,361	13,03
434,864	12,34
435,367	12,76
435,87	12,26
436,373	12,55
436,876	13,03
437,378	12,05
437,88	12,8
438,383	12,23
438,885	12,04
439,387	12,59
439,889	11,77
440,391	12,32
440,892	12,01
441,394	11,84
441,896	12,3
442,397	12,35
442,898	11,16
443,399	12,39
443,9	11,5
444,401	11,73
444,902	10,88
445,403	11,89
445,903	12,37
446,404	11,83
446,904	12,58
447,405	11,73
447,905	11,5
448,405	12
448,905	12,22
449,404	11,84
449,904	11,42
450,404	11,62
450,903	11,74
451,403	12,05
451,902	11,36
452,401	11,39
452,9	11,93
453,399	12,1
453,898	11,84
454,396	11,52
454,895	11,66
455,393	11,58
455,892	11,51
456,39	11,39
456,888	11,73
457,386	11,83
457,884	11,79
458,382	11,35
458,879	12,59
459,377	12,3
459,874	11,65
460,372	11,4
460,869	12,05
461,366	11,75
461,863	11,71
462,36	11,98
462,857	11,49
463,353	11,81
463,85	11,59
464,346	11,47
464,843	11,78
465,339	11,53
465,835	11,81
466,331	11,37
466,827	12,13
467,323	11,5
467,818	11,94
468,314	11,99
468,809	11,16
469,305	11,28
469,8	11,97
470,295	11,67
470,79	11,33
471,285	12,14
471,78	11,39
472,274	11,4
472,769	11,42
473,263	11,5
473,758	12,45
474,252	11,61
474,746	10,63
475,24	11,53
475,734	11,33
476,228	11,26
476,721	11,99
477,215	11,57
477,708	11,85
478,202	11,81
478,695	12,19
479,188	11,61
479,681	11,77
480,174	11,6
480,667	11,39
481,159	11,58
481,652	11,78
482,144	11,7
482,637	11,51
483,129	11,69
483,621	11,52
484,113	11,24
484,605	11,23
485,097	11,81
485,588	11,92
486,08	11,71
486,571	11,66
487,063	11,97
487,554	11,34
488,045	11,59
488,536	11,71
489,027	11,72
489,518	11,44
490,008	11,37
490,499	11,99
490,989	11,27
491,48	12,15
491,97	12,12
492,46	11,33
492,95	11,49
493,44	12,15
493,93	12,18
494,419	12,5
494,909	11,68
495,398	12,37
495,888	12,04
496,377	12,19
496,866	12,72
497,355	12,58
497,844	12,65
498,333	12,6
498,821	12,59
499,31	12,27
499,798	12,85
500,287	12,62
500,775	13,23
501,263	12,65
501,751	12,96
502,239	13,47
502,727	13,71
503,215	13,53
503,702	13,99
504,19	13,92
504,677	14,59
505,164	14,16
505,651	14,26
506,139	14,93
506,625	14,59
507,112	15,25
507,599	15,49
508,086	16,15
508,572	15,9
509,058	16,4
509,545	16,81
510,031	16,28
510,517	17,05
511,003	17,2
511,489	17,77
511,974	17,93
512,46	18,21
512,946	18,05
513,431	18,01
513,916	19,27
514,401	19,77
514,887	19,5
515,371	20,13
515,856	20,58
516,341	21,01
516,826	21,09
517,31	21,46
517,795	22,05
518,279	22,25
518,763	22,78
519,247	22,96
519,731	23,61
520,215	23,67
520,699	24,46
521,182	25,21
521,666	25,54
522,149	26,35
522,633	26,61
523,116	26,55
523,599	27,14
524,082	27,86
524,565	28,22
525,048	28,54
525,53	28,64
526,013	29,49
526,495	29,99
526,978	29,85
527,46	30,31
527,942	30,94
528,424	31,36
528,906	31,81
529,388	31,8
529,87	32,32
530,351	32,42
530,833	32,71
531,314	33,33
531,795	32,85
532,277	33,22
532,758	33,4
533,238	34,56
533,719	34,32
534,2	34,27
534,681	34,79
535,161	35,3
535,642	34,92
536,122	35,04
536,602	34,89
537,082	35,1
537,562	35,27
538,042	34,99
538,522	34,7
539,001	35,32
539,481	35,32
539,96	35,73
540,44	35,43
540,919	35,46
541,398	35,99
541,877	35,88
542,356	36,61
542,835	35,84
543,313	35,38
543,792	36,3
544,27	36,71
544,749	36,34
545,227	36,35
545,705	36,16
546,183	36,29
546,661	37,64
547,139	36,5
547,616	36,89
548,094	37,46
548,571	36,75
549,049	36,73
549,526	37,52
550,003	37,1
550,48	37,54
550,957	37,59
551,434	37,1
551,911	37,28
552,387	37,43
552,864	36,85
553,34	36,94
553,817	37,1
554,293	37,27
554,769	37,15
555,245	37,47
555,721	37,26
556,197	37,17
556,672	36,6
557,148	37,02
557,623	37,17
558,099	36,67
558,574	37,04
559,049	36,36
559,524	36,3
559,999	36,11
560,474	36,59
560,948	36
561,423	36,24
561,897	36,04
562,372	35,63
562,846	35,53
563,32	35,55
563,794	35,13
564,268	35,01
564,742	35,25
565,216	34,73
565,69	34,44
566,163	34,28
566,636	34,1
567,11	33,96
567,583	33,64
568,056	32,83
568,529	33,49
569,002	32,9
569,475	32,73
569,947	32,47
570,42	32,08
570,892	31,93
571,365	31,6
571,837	31,17
572,309	31,13
572,781	30,95
573,253	31
573,725	30,39
574,197	30,21
574,668	30,16
575,14	29,52
575,611	29,58
576,082	28,88
576,554	28,92
577,025	28,81
577,496	28,57
577,967	28,66
578,437	28,01
578,908	28,2
579,379	27,88
579,849	27,12
580,319	27,77
580,79	27,08
581,26	26,8
581,73	26,69
582,2	26,94
582,669	26,59
583,139	26,13
583,609	26,27
584,078	26,04
584,548	25,85
585,017	25,96
585,486	25,45
585,955	25,63
586,424	25,24
586,893	25,55
587,362	24,96
587,83	25,04
588,299	25,1
588,767	25,31
589,236	25
589,704	24,55
590,172	24,49
590,64	24,6
591,108	24,61
591,576	24,16
592,043	23,66
592,511	24,11
592,978	24,4
593,446	23,55
593,913	23,62
594,38	24,1
594,847	23,91
595,314	23,73
595,781	23,56
596,248	23,63
596,715	23,68
597,181	23,89
597,647	23,66
598,114	23,19
598,58	23,43
599,046	23,45
599,512	22,94
599,978	23,28
600,444	23,31
600,91	22,95
601,375	22,98
601,841	22,81
602,306	22,64
602,771	22,55
603,236	22,48
603,702	22,63
604,167	22,48
604,631	22,55
605,096	22
605,561	22,23
606,025	22,05
606,49	21,59
606,954	21,84
607,418	21,53
607,882	21,57
608,347	21,4
608,81	21,63
609,274	21,11
609,738	21,09
610,202	20,88
610,665	20,94
611,128	20,76
611,592	20,47
612,055	20,65
612,518	20,53
612,981	20,23
613,444	20,32
613,907	19,9
614,369	19,89
614,832	19,66
615,294	19,38
615,757	19,54
616,219	19,37
616,681	19,15
617,143	19,27
617,605	18,99
618,067	19,04
618,529	18,83
618,99	18,45
619,452	18,61
619,913	18,68
620,375	18,59
620,836	18,11
621,297	18,19
621,758	18,22
622,219	18,1
622,68	18,26
623,14	18,18
623,601	18,33
624,061	17,95
624,522	17,75
624,982	17,82
625,442	17,78
625,902	17,59
626,362	17,78
626,822	17,72
627,282	17,74
627,742	17,59
628,201	17,51
628,661	17,41
629,12	17,42
629,579	17,65
630,038	17,73
630,497	17,47
630,956	17,57
631,415	17,38
631,874	17,33
632,332	17,49
632,791	17,38
633,249	17,31
633,708	16,84
634,166	16,92
634,624	17,03
635,082	16,92
635,54	17,06
635,998	16,83
636,455	16,78
636,913	16,49
637,37	16,26
637,828	16,39
638,285	16,13
638,742	16,2
639,199	15,79
639,656	15,73
640,113	15,83
640,57	15,51
641,027	15,59
641,483	15,32
641,94	15,33
642,396	15,1
642,852	15,14
643,309	14,82
643,765	14,6
644,221	14,44
644,676	14,34
645,132	14,07
645,588	13,9
646,043	13,75
646,499	13,74
646,954	13,61
647,409	13,53
647,864	13,19
648,319	13,18
648,774	13,12
649,229	12,84
649,684	12,88
650,139	12,7
650,593	12,66
651,047	12,46
651,502	12,65
651,956	12,54
652,41	12,5
652,864	12,19
653,318	12,36
653,772	12,12
654,225	12,32
654,679	12,14
655,133	11,96
655,586	12,06
656,039	11,82
656,492	12
656,946	11,88
657,399	11,76
657,851	11,56
658,304	11,57
658,757	11,41
659,209	11,26
659,662	11,36
660,114	11,27
660,567	11,15
661,019	10,88
661,471	11,04
661,923	10,86
662,375	10,88
662,826	10,76
663,278	10,53
663,73	10,56
664,181	10,46
664,632	10,69
665,084	10,52
665,535	10,2
665,986	10,34
666,437	10,43
666,888	10,47
667,338	10,33
667,789	10,28
668,24	10,19
668,69	10,3
669,14	10,38
669,591	10,29
670,041	10,34
670,491	10,34
670,941	10,3
671,391	10,31
671,84	10,48
672,29	10,52
672,74	10,29
673,189	10,43
673,638	10,5
674,088	10,67
674,537	10,66
674,986	10,93
675,435	10,84
675,883	11,03
676,332	11,27
676,781	11,15
677,229	11,2
677,678	11,27
678,126	11,31
678,574	11,38
679,022	11,75
679,47	11,7
679,918	11,98
680,366	11,92
680,814	12,02
681,261	12,13
681,709	12,4
682,156	12,22
682,604	12,32
683,051	12,53
683,498	12,7
683,945	12,9
684,392	12,69
684,839	13,22
685,286	13,26
685,732	13,42
686,179	13,41
686,625	13,56
687,071	14,02
687,518	13,85
687,964	14,24
688,41	14,62
688,856	14,82
689,301	15,2
689,747	15,56
690,193	15,95
690,638	16,32
691,084	16,5
691,529	17,49
691,974	17,92
692,419	18,55
692,864	18,94
693,309	19,76
693,754	20,35
694,199	20,82
694,643	21,46
695,088	22,19
695,532	23,09
695,977	23,93
696,421	24,92
696,865	25,48
697,309	26,25
697,753	27,28
698,197	28,28
698,64	29,17
699,084	29,8
699,527	30,87
699,971	31,54
700,414	32,48
700,857	33,04
701,3	34,32
701,743	34,85
702,186	35,93
702,629	36,31
703,072	37,62
703,515	38,29
703,957	39,05
704,399	39,59
704,842	40,79
705,284	41,18
705,726	42,54
706,168	43,35
706,61	43,56
707,052	44,54
707,494	45,5
707,935	46,05
708,377	47,11
708,818	47,26
709,26	48,68
709,701	48,76
710,142	49,97
710,583	50,88
711,024	51,47
711,465	52
711,905	52,55
712,346	53,21
712,787	53,72
713,227	54,81
713,667	55,15
714,108	55,83
714,548	56,75
714,988	57,63
715,428	57,55
715,868	58,26
716,307	58,78
716,747	59,51
717,186	60,51
717,626	61,12
718,065	61,87
718,504	62,01
718,944	62,1
719,383	62,9
719,822	63,56
720,261	64,12
720,699	64,53
721,138	65,09
721,576	65,47
722,015	65,71
722,453	66,15
722,892	67,39
723,33	67,21
723,768	67,81
724,206	68,25
724,644	68,63
725,081	68,8
725,519	68,95
725,957	69,5
726,394	70,09
726,832	70,47
727,269	70,53
727,706	71,62
728,143	71,74
728,58	71,95
729,017	72,45
729,454	72,08
729,89	72,29
730,327	73,23
730,764	72,92
731,2	73,9
731,636	73,73
732,072	74
732,509	73,85
732,945	74,87
733,38	74,68
733,816	74,93
734,252	75,07
734,688	74,96
735,123	75,58
735,559	75,45
735,994	75,7
736,429	75,61
736,864	76,42
737,299	76,61
737,734	75,99
738,169	77,09
738,604	76,35
739,038	76,63
739,473	77,24
739,907	76,94
740,342	77,5
740,776	77,29
741,21	76,67
741,644	77,5
742,078	77,28
742,512	77,44
742,946	77,53
743,379	77,92
743,813	77,94
744,246	77,6
744,68	77,66
745,113	78,02
745,546	77,2
745,979	77,62
746,412	77,98
746,845	77,35
747,278	77,36
747,711	77,82
748,143	78,13
748,576	77,81
749,008	77,16
749,441	77,79
749,873	77,61
750,305	77,72
750,737	77,39
751,169	77,75
751,601	77,36
752,032	77,74
752,464	77,8
752,896	77,24
753,327	77,98
753,758	77,66
754,19	78,05
754,621	77,59
755,052	77,25
755,483	77,49
755,914	77,26
756,344	77,63
756,775	77,29
757,206	77,71
757,636	77,14
758,066	76,85
758,497	77,42
758,927	77,3
759,357	77,83
759,787	77,03
760,217	77,25
760,647	77,43
761,076	76,88
761,506	77,22
761,935	77,31
762,365	77,47
762,794	77,2
763,223	76,29
763,653	76,5
764,082	77,15
764,51	76,93
764,939	77,09
765,368	76,99
765,797	77,43
766,225	76,63
766,654	76,42
767,082	76,63
767,51	76,89
767,938	76,45
768,367	77,05
768,795	76,75
769,222	76,41
769,65	76,58
770,078	76,48
770,505	76,24
770,933	76,07
771,36	76,19
771,788	76,23
772,215	76,45
772,642	76,12
773,069	75,74
773,496	76,54
773,923	76,31
774,349	75,92
774,776	75,9
775,203	76,67
775,629	76,15
776,055	76,15
776,482	76,17
776,908	76,42
777,334	75,73
777,76	76,51
778,186	75,94
778,611	76,23
779,037	75,89
779,463	76,39
779,888	75,71
780,314	75,75
780,739	75,77
781,164	76,04
781,589	76,13
782,014	75,91
782,439	75,63
782,864	75,61
783,289	75,89
783,713	75,1
784,138	76,23
784,562	75,99
784,987	75,69
785,411	75,65
785,835	75,98
786,259	76,16
786,683	75,66
787,107	75,51
787,531	75,77
787,954	75,71
788,378	76,22
788,802	75,69
789,225	75,37
789,648	75,37
790,071	75,64
790,495	75,75
790,918	75,64
791,34	74,93
791,763	75,27
792,186	75,53
792,609	75,45
793,031	74,73
793,454	75,6
793,876	76,07
794,298	75,79
794,721	75,95
795,143	74,89
795,565	75,51
795,986	75,38
796,408	75,24
796,83	75,64
797,252	75,19
797,673	75,42
798,094	75,57
798,516	75,32
798,937	75,57
799,358	75,84
799,779	75,47
800,2	75,67
800,621	75,51
801,042	75,2
801,462	74,73
801,883	74,94
802,303	74,94
802,724	75,37
803,144	75,49
803,564	75,36
803,984	75,35
804,404	74,95
804,824	75,33
805,244	75,96
805,664	75,73
806,084	75,18
806,503	75,01
806,923	75,14
807,342	75,35
807,761	74,53
808,18	75,53
808,599	75,77
809,018	75,26
809,437	75,15
809,856	75,22
810,275	75,65
810,693	75,06
811,112	75,15
811,53	75,56
811,949	75,56
812,367	75,59
812,785	74,74
813,203	75,4
813,621	75,02
814,039	75,32
814,457	75,44
814,874	75,18
815,292	74,96
815,709	74,4
816,127	75,3
816,544	74,69
816,961	74,78
817,378	74,96
817,795	74,5
818,212	75,46
818,629	75,17
819,046	75,17
819,462	75,29
819,879	75,16
820,295	75,23
820,712	75,13
821,128	75,17
821,544	74,82
821,96	75,18
822,376	75,42
822,792	75,1
823,208	75,09
823,624	75,01
824,039	74,79
824,455	75,58
824,87	75,36
825,286	74,86
825,701	74,39
826,116	74,93
826,531	75,11
826,946	74,82
827,361	75,35
827,776	74,9
828,19	75,18
828,605	74,05
829,02	75,02
829,434	74,54
829,848	75,14
830,263	74,66
830,677	74,86
831,091	74,46
831,505	74,92
831,919	75,31
832,332	74,59
832,746	75,25
833,16	74,69
833,573	74,75
833,987	74,25
