Data from I_4_Relative__2__00190.txt Node

Date: Tue Jan 30 10:15:06 CET 2024
User: diatiterra
Spectrometer: HDX00911
Trigger mode: 0
Integration Time (sec): 6,000000E-3
Scans to average: 2
Nonlinearity correction enabled: false
Boxcar width: 0
Storing dark spectrum: false
XAxis mode: Wavelengths
Number of Pixels in Spectrum: 2068
>>>>>Begin Spectral Data<<<<<
194,468	96,69
195,025	98,39
195,581	99,24
196,138	88,54
196,694	96,52
197,251	83,7
197,807	81,67
198,363	72,95
198,919	86,38
199,474	76,69
200,03	80,71
200,586	72,69
201,141	73,11
201,696	69,75
202,251	80,6
202,806	80,85
203,361	78,46
203,916	76,76
204,471	74,26
205,025	79,92
205,58	83,41
206,134	78,09
206,688	80,26
207,242	81,53
207,796	76,27
208,35	95,43
208,904	76,61
209,457	82,17
210,011	79,48
210,564	79,73
211,117	83,83
211,67	80,16
212,223	76,49
212,776	82,63
213,329	84,39
213,881	78,79
214,434	77,87
214,986	90,18
215,538	78,74
216,09	78,31
216,642	88,84
217,194	96,65
217,746	85,26
218,297	86,55
218,849	78,71
219,4	82,68
219,951	93,81
220,502	86,38
221,053	90,25
221,604	89,76
222,155	75,42
222,705	84,26
223,256	74,16
223,806	82,08
224,356	89,22
224,906	95,15
225,456	76,05
226,006	84,38
226,556	84,96
227,106	81,33
227,655	77,67
228,204	92,31
228,754	86,08
229,303	88,29
229,852	87,77
230,401	85,2
230,949	76,95
231,498	87,05
232,047	85,25
232,595	78,31
233,143	88,6
233,691	80,57
234,239	74,05
234,787	83,86
235,335	80,95
235,883	86,04
236,43	88,14
236,978	86,09
237,525	89,79
238,072	73,57
238,619	74,89
239,166	80,17
239,713	77,64
240,26	78,63
240,806	81,9
241,353	89,32
241,899	81,48
242,445	81,17
242,991	83,2
243,537	84,85
244,083	86,88
244,629	72,25
245,174	82,55
245,72	83,01
246,265	86,88
246,81	89,33
247,355	79,56
247,9	82,92
248,445	76,98
248,99	79,57
249,534	72,83
250,079	85,19
250,623	88,5
251,168	84,49
251,712	69,87
252,256	69,01
252,8	85,84
253,343	73,28
253,887	81,39
254,43	82,22
254,974	76,8
255,517	85,1
256,06	77,22
256,603	88,89
257,146	75,77
257,689	85,17
258,232	79,19
258,774	86,34
259,317	86,64
259,859	84,76
260,401	85,05
260,943	78,01
261,485	85,91
262,027	77,02
262,569	85,65
263,11	78,32
263,652	72,12
264,193	83,26
264,734	88,89
265,275	75,11
265,816	73,93
266,357	84,23
266,898	83,76
267,438	82,13
267,979	81,03
268,519	76,92
269,059	70,75
269,6	86,73
270,14	79,31
270,68	73,77
271,219	83,04
271,759	72,93
272,298	72,8
272,838	73,71
273,377	84,68
273,916	75,49
274,455	75,77
274,994	80,18
275,533	76,81
276,072	80,43
276,61	84,21
277,149	76,25
277,687	78,39
278,225	74,07
278,763	68,32
279,301	69,39
279,839	77,46
280,377	80,41
280,914	69,44
281,452	80,08
281,989	84,71
282,526	72,5
283,064	76,25
283,601	84,17
284,137	75,11
284,674	73,22
285,211	73,8
285,747	76,38
286,284	83,19
286,82	76,61
287,356	77,33
287,892	66,26
288,428	71,24
288,964	85,06
289,5	78,6
290,035	77,18
290,571	82,1
291,106	74,21
291,641	77,73
292,176	72,8
292,711	75
293,246	70,5
293,781	76,52
294,315	80,47
294,85	70,92
295,384	73,58
295,918	80,8
296,453	80,97
296,987	72,03
297,52	81,9
298,054	82,35
298,588	75,2
299,121	74,77
299,655	76,89
300,188	71,61
300,721	81,25
301,254	76,23
301,787	82,02
302,32	76,5
302,853	78,72
303,385	77,65
303,918	74,67
304,45	70,74
304,982	75,2
305,514	63,82
306,046	76,11
306,578	79,67
307,11	78,03
307,641	73,53
308,173	82,61
308,704	83,33
309,236	87,83
309,767	78,75
310,298	78
310,829	72,87
311,359	84,96
311,89	76,92
312,421	72,24
312,951	85,36
313,481	87,2
314,012	75,19
314,542	84,23
315,072	76,82
315,601	79,84
316,131	83,26
316,661	81,85
317,19	65,71
317,72	79,24
318,249	85,78
318,778	84,77
319,307	73,79
319,836	74,4
320,365	80,43
320,893	81,1
321,422	76,23
321,95	83,48
322,479	77,11
323,007	73,31
323,535	70,94
324,063	80,16
324,591	83,14
325,118	73,59
325,646	73,28
326,173	81,7
326,701	76,1
327,228	79,18
327,755	80,48
328,282	89,09
328,809	78,07
329,336	87,23
329,862	78,1
330,389	77,09
330,915	68,6
331,441	75,95
331,968	72,51
332,494	76,44
333,02	82,01
333,545	75,71
334,071	76,47
334,597	80,99
335,122	78,38
335,648	79,6
336,173	77,54
336,698	71,67
337,223	82,63
337,748	76,86
338,272	80,26
338,797	79,68
339,322	81,62
339,846	71,49
340,37	77,73
340,894	74,26
341,419	74,19
341,942	78,29
342,466	72,12
342,99	73,76
343,514	72,47
344,037	68,05
344,56	78,49
345,084	75,85
345,607	74,72
346,13	72,58
346,653	64,58
347,175	77,97
347,698	75,82
348,221	72,47
348,743	80,75
349,265	80
349,787	68,64
350,309	64,6
350,831	61,97
351,353	72,65
351,875	69,6
352,397	62,71
352,918	76,49
353,439	71,71
353,961	65,03
354,482	75,84
355,003	68,45
355,524	63,85
356,044	69,45
356,565	65,62
357,086	65,58
357,606	59
358,126	68,23
358,646	59,66
359,167	67,11
359,687	63,37
360,206	70,61
360,726	61,83
361,246	63,78
361,765	61,17
362,285	62,08
362,804	51,52
363,323	61,26
363,842	65,68
364,361	60,99
364,88	57,36
365,398	55,29
365,917	56,51
366,435	58,95
366,954	62,92
367,472	58,56
367,99	56,66
368,508	58,48
369,026	58,36
369,544	61,45
370,061	57,91
370,579	54,42
371,096	52,88
371,613	58,98
372,131	51,96
372,648	59,39
373,165	53,56
373,681	51,31
374,198	52,91
374,715	52,84
375,231	53,33
375,747	50,86
376,264	46,36
376,78	52,61
377,296	46,19
377,812	51,37
378,327	50,47
378,843	50,84
379,359	47,8
379,874	45,74
380,389	45,43
380,905	49,89
381,42	41,63
381,935	52,16
382,449	45,12
382,964	41,97
383,479	41,34
383,993	47,4
384,508	39,42
385,022	41,24
385,536	40,71
386,05	42,86
386,564	38,42
387,078	46,07
387,592	40,98
388,105	41,06
388,619	37
389,132	39,77
389,645	35,48
390,158	40,31
390,671	42,14
391,184	39,15
391,697	36,13
392,21	38,57
392,722	35,62
393,235	32,28
393,747	36,66
394,259	32,89
394,771	34,66
395,283	33,24
395,795	34,93
396,307	31,52
396,818	33,38
397,33	31,69
397,841	29,37
398,353	29,94
398,864	32,35
399,375	31,51
399,886	26,16
400,397	29,34
400,907	29,07
401,418	25,65
401,928	26,72
402,439	24,53
402,949	26,67
403,459	24,42
403,969	24,32
404,479	24,27
404,989	23,52
405,498	24,54
406,008	24,61
406,517	21,95
407,027	21,11
407,536	21,79
408,045	19,75
408,554	18,56
409,063	17,46
409,572	17,82
410,08	17,68
410,589	17,15
411,097	16,08
411,606	15,67
412,114	13,63
412,622	14,67
413,13	14,65
413,638	13,51
414,145	13,1
414,653	12,24
415,16	12,15
415,668	13,06
416,175	12,14
416,682	10,63
417,189	11,07
417,696	12,04
418,203	10,58
418,71	11,25
419,216	10,39
419,723	10,47
420,229	11,01
420,735	9,31
421,242	9,8
421,748	10,31
422,254	10,95
422,759	9,39
423,265	8,42
423,771	9,42
424,276	9,1
424,781	9,12
425,287	8,79
425,792	8,27
426,297	8,74
426,802	8,47
427,306	8,49
427,811	7,71
428,316	9,02
428,82	8,69
429,324	8,44
429,829	8,02
430,333	8,37
430,837	8,2
431,34	8,02
431,844	7,99
432,348	8,15
432,851	8,51
433,355	8
433,858	8,29
434,361	8,16
434,864	7,97
435,367	7,76
435,87	7,44
436,373	7,6
436,876	7,73
437,378	7,51
437,88	7,52
438,383	7,85
438,885	7,5
439,387	7,41
439,889	7,1
440,391	6,79
440,892	7,48
441,394	7,36
441,896	7,02
442,397	7,65
442,898	7,14
443,399	7,65
443,9	7,12
444,401	6,97
444,902	7,1
445,403	7,14
445,903	7,29
446,404	7,32
446,904	7,41
447,405	7,43
447,905	6,9
448,405	7,1
448,905	7,22
449,404	7,47
449,904	7,36
450,404	7,36
450,903	7,56
451,403	6,88
451,902	7,25
452,401	7,21
452,9	6,83
453,399	7,62
453,898	7,25
454,396	7,1
454,895	7,03
455,393	7,33
455,892	6,7
456,39	6,88
456,888	6,84
457,386	7,14
457,884	6,67
458,382	6,94
458,879	7,1
459,377	6,89
459,874	7,21
460,372	6,65
460,869	6,9
461,366	7,21
461,863	6,92
462,36	6,68
462,857	6,45
463,353	6,9
463,85	6,97
464,346	7,05
464,843	7,21
465,339	7,25
465,835	7,3
466,331	6,6
466,827	7,07
467,323	6,83
467,818	6,78
468,314	6,51
468,809	6,77
469,305	6,46
469,8	7,03
470,295	7,01
470,79	6,59
471,285	7,01
471,78	6,75
472,274	6,92
472,769	6,9
473,263	6,6
473,758	7,14
474,252	6,88
474,746	6,64
475,24	6,75
475,734	6,67
476,228	6,54
476,721	7,18
477,215	6,5
477,708	6,49
478,202	6,67
478,695	6,54
479,188	6,72
479,681	6,92
480,174	6,45
480,667	6,74
481,159	6,92
481,652	6,49
482,144	6,82
482,637	6,65
483,129	6,3
483,621	7
484,113	6,58
484,605	6,48
485,097	6,43
485,588	6,91
486,08	6,32
486,571	6,58
487,063	7,24
487,554	6,48
488,045	6,86
488,536	6,7
489,027	6,98
489,518	6,57
490,008	7,09
490,499	7,06
490,989	6,93
491,48	6,93
491,97	6,9
492,46	6,68
492,95	6,89
493,44	6,87
493,93	7,06
494,419	7,24
494,909	7,05
495,398	7,27
495,888	7,14
496,377	6,8
496,866	7,09
497,355	7,29
497,844	7,38
498,333	7,62
498,821	7,28
499,31	7,48
499,798	7,78
500,287	7,77
500,775	7,52
501,263	8,05
501,751	7,87
502,239	8,06
502,727	8,29
503,215	8,36
503,702	8,36
504,19	8,57
504,677	8,58
505,164	8,8
505,651	8,83
506,139	9,19
506,625	9,25
507,112	9,44
507,599	9,62
508,086	9,9
508,572	9,78
509,058	9,75
509,545	10,24
510,031	10,44
510,517	10,55
511,003	10,71
511,489	11,31
511,974	11,07
512,46	11,76
512,946	11,99
513,431	11,65
513,916	12,25
514,401	12,55
514,887	12,5
515,371	13,17
515,856	13,3
516,341	13,62
516,826	13,69
517,31	14,45
517,795	14,56
518,279	14,59
518,763	15,2
519,247	15,16
519,731	15,77
520,215	15,97
520,699	16,2
521,182	16,87
521,666	17,03
522,149	17,59
522,633	17,79
523,116	18,12
523,599	18,5
524,082	18,44
524,565	19,11
525,048	19,56
525,53	19,41
526,013	19,53
526,495	19,99
526,978	20,34
527,46	20,92
527,942	20,77
528,424	21,79
528,906	21,43
529,388	21,64
529,87	22,2
530,351	21,59
530,833	22,25
531,314	22,84
531,795	23,06
532,277	22,97
532,758	23,01
533,238	23,28
533,719	23,23
534,2	23,58
534,681	23,48
535,161	24,3
535,642	23,55
536,122	24,26
536,602	24,27
537,082	23,72
537,562	23,99
538,042	24,79
538,522	24,27
539,001	24,84
539,481	24,36
539,96	24,43
540,44	24,45
540,919	24,49
541,398	24,71
541,877	24,56
542,356	25,25
542,835	25,04
543,313	25,13
543,792	24,89
544,27	25,06
544,749	25,2
545,227	25
545,705	25,09
546,183	25,41
546,661	25,37
547,139	25,08
547,616	24,86
548,094	25,46
548,571	25,74
549,049	25,73
549,526	26,22
550,003	25,41
550,48	25,61
550,957	25,29
551,434	25,52
551,911	25,72
552,387	25,65
552,864	26,07
553,34	25,67
553,817	25,45
554,293	25,44
554,769	25,76
555,245	25,69
555,721	25,61
556,197	25,46
556,672	25,35
557,148	25,72
557,623	25,43
558,099	25,78
558,574	25,61
559,049	24,86
559,524	25,41
559,999	24,81
560,474	24,97
560,948	24,86
561,423	24,59
561,897	24,92
562,372	24,69
562,846	23,98
563,32	24,22
563,794	24,3
564,268	23,74
564,742	24,39
565,216	23,72
565,69	23,4
566,163	23,69
566,636	23,37
567,11	23,6
567,583	22,67
568,056	22,4
568,529	22,78
569,002	22,56
569,475	22,49
569,947	21,72
570,42	21,71
570,892	21,6
571,365	21,61
571,837	21,12
572,309	21,43
572,781	21,08
573,253	20,55
573,725	20,56
574,197	20,02
574,668	20,13
575,14	19,87
575,611	20,06
576,082	19,33
576,554	19,63
577,025	19,37
577,496	19,34
577,967	18,97
578,437	18,93
578,908	19
579,379	18,58
579,849	18,41
580,319	18,57
580,79	17,94
581,26	17,54
581,73	17,97
582,2	18
582,669	17,77
583,139	17,8
583,609	17,47
584,078	17,39
584,548	17,51
585,017	17,37
585,486	16,78
585,955	17,05
586,424	16,81
586,893	16,88
587,362	16,64
587,83	16,55
588,299	16,75
588,767	16,53
589,236	16,59
589,704	16,15
590,172	16,16
590,64	16,39
591,108	15,94
591,576	16,08
592,043	16,18
592,511	16,18
592,978	16,13
593,446	15,78
593,913	15,5
594,38	15,82
594,847	15,85
595,314	15,7
595,781	15,48
596,248	15,53
596,715	15,54
597,181	15,31
597,647	15,43
598,114	15,63
598,58	15,62
599,046	15,53
599,512	15,18
599,978	15,14
600,444	15,33
600,91	15,28
601,375	15,28
601,841	15,23
602,306	14,96
602,771	14,91
603,236	14,79
603,702	14,85
604,167	14,6
604,631	14,99
605,096	14,67
605,561	14,4
606,025	14,34
606,49	14,42
606,954	14,45
607,418	14,24
607,882	14,13
608,347	14,23
608,81	14,2
609,274	13,83
609,738	13,84
610,202	13,61
610,665	13,43
611,128	13,3
611,592	13,34
612,055	13,48
612,518	13,31
612,981	13,16
613,444	12,97
613,907	12,91
614,369	12,91
614,832	12,69
615,294	12,65
615,757	12,56
616,219	12,36
616,681	12,49
617,143	12,3
617,605	12,02
618,067	12,07
618,529	12,08
618,99	12,02
619,452	11,64
619,913	12,08
620,375	11,75
620,836	11,54
621,297	11,62
621,758	11,7
622,219	11,47
622,68	11,43
623,14	11,41
623,601	11,46
624,061	11,45
624,522	11,48
624,982	11,45
625,442	11,37
625,902	11,45
626,362	11,37
626,822	11,45
627,282	11,42
627,742	11,2
628,201	11,26
628,661	11,33
629,12	11,08
629,579	11,33
630,038	11,19
630,497	10,95
630,956	11,32
631,415	11,11
631,874	11,06
632,332	11,05
632,791	10,78
633,249	10,76
633,708	10,91
634,166	10,71
634,624	10,8
635,082	10,58
635,54	10,79
635,998	10,72
636,455	10,66
636,913	10,41
637,37	10,5
637,828	10,36
638,285	10,07
638,742	10,41
639,199	10,04
639,656	9,88
640,113	9,6
640,57	9,65
641,027	9,65
641,483	9,51
641,94	9,5
642,396	9,31
642,852	9,17
643,309	8,92
643,765	8,96
644,221	8,77
644,676	8,89
645,132	8,78
645,588	8,68
646,043	8,63
646,499	8,38
646,954	8,11
647,409	8,13
647,864	8,04
648,319	7,93
648,774	7,71
649,229	7,79
649,684	7,87
650,139	7,63
650,593	7,58
651,047	7,58
651,502	7,57
651,956	7,44
652,41	7,31
652,864	7,34
653,318	7,34
653,772	7,36
654,225	7,14
654,679	7,2
655,133	7,07
655,586	7,19
656,039	7,04
656,492	6,91
656,946	6,97
657,399	6,88
657,851	6,8
658,304	6,77
658,757	6,61
659,209	6,56
659,662	6,62
660,114	6,47
660,567	6,36
661,019	6,35
661,471	6,29
661,923	6,3
662,375	6,08
662,826	6,11
663,278	5,98
663,73	6,03
664,181	6,16
664,632	6,07
665,084	5,91
665,535	5,91
665,986	5,78
666,437	5,89
666,888	5,93
667,338	5,71
667,789	5,83
668,24	5,84
668,69	5,82
669,14	5,68
669,591	5,87
670,041	5,9
670,491	5,81
670,941	5,81
671,391	5,91
671,84	5,83
672,29	6,01
672,74	5,87
673,189	6,17
673,638	6,12
674,088	6,43
674,537	6,28
674,986	6,35
675,435	6,36
675,883	6,42
676,332	6,56
676,781	6,46
677,229	6,65
677,678	6,94
678,126	6,92
678,574	7,05
679,022	7,03
679,47	7,2
679,918	7,27
680,366	7,33
680,814	7,32
681,261	7,54
681,709	7,62
682,156	7,68
682,604	7,77
683,051	7,96
683,498	8,02
683,945	8,14
684,392	8,22
684,839	8,23
685,286	8,31
685,732	8,47
686,179	8,62
686,625	8,69
687,071	8,93
687,518	8,99
687,964	9,18
688,41	9,46
688,856	9,73
689,301	9,91
689,747	10,24
690,193	10,33
690,638	10,77
691,084	11,08
691,529	11,54
691,974	11,93
692,419	12,25
692,864	12,67
693,309	13,26
693,754	13,91
694,199	14,17
694,643	14,74
695,088	15,39
695,532	15,94
695,977	16,48
696,421	17,12
696,865	17,7
697,309	18,25
697,753	19,22
698,197	19,65
698,64	20,34
699,084	20,76
699,527	21,68
699,971	22,17
700,414	22,7
700,857	23,36
701,3	24,13
701,743	24,7
702,186	25,46
702,629	25,88
703,072	26,52
703,515	27,12
703,957	27,58
704,399	28,32
704,842	29,06
705,284	29,35
705,726	30,2
706,168	31,33
706,61	31,43
707,052	31,89
707,494	32,57
707,935	33,01
708,377	33,69
708,818	34,46
709,26	34,7
709,701	35,12
710,142	35,88
710,583	36,17
711,024	37,26
711,465	37,68
711,905	38,06
712,346	38,36
712,787	38,76
713,227	39,8
713,667	39,84
714,108	40,19
714,548	40,95
714,988	41,83
715,428	41,91
715,868	42,07
716,307	42,89
716,747	43,18
717,186	43,85
717,626	44,05
718,065	44,53
718,504	44,73
718,944	45,24
719,383	45,59
719,822	46,09
720,261	46,38
720,699	46,89
721,138	47,53
721,576	47,75
722,015	48,15
722,453	48,2
722,892	49,22
723,33	48,93
723,768	49,11
724,206	49,78
724,644	49,96
725,081	49,81
725,519	50,56
725,957	50,9
726,394	51,19
726,832	51,2
727,269	52,02
727,706	52,09
728,143	52,35
728,58	52,68
729,017	52,52
729,454	52,86
729,89	52,77
730,327	53,45
730,764	53,57
731,2	54,07
731,636	53,92
732,072	53,88
732,509	53,9
732,945	55,11
733,38	54,96
733,816	54,67
734,252	55,1
734,688	55,09
735,123	55,03
735,559	54,97
735,994	55,21
736,429	55,44
736,864	55,65
737,299	55,73
737,734	55,6
738,169	56,07
738,604	55,71
739,038	55,92
739,473	56,73
739,907	56,61
740,342	56,39
740,776	56,49
741,21	56,53
741,644	56,63
742,078	56,33
742,512	56,59
742,946	57,18
743,379	56,97
743,813	57,09
744,246	57,02
744,68	57,09
745,113	57,4
745,546	56,92
745,979	56,77
746,412	56,75
746,845	56,78
747,278	57,17
747,711	57,03
748,143	57,38
748,576	57,65
749,008	56,67
749,441	57,1
749,873	56,93
750,305	57,1
750,737	57,01
751,169	56,79
751,601	56,99
752,032	57,13
752,464	57,16
752,896	56,84
753,327	57,3
753,758	57,21
754,19	56,93
754,621	57,46
755,052	56,94
755,483	56,79
755,914	56,81
756,344	57,18
756,775	56,96
757,206	56,98
757,636	56,77
758,066	56,66
758,497	56,39
758,927	56,69
759,357	57,16
759,787	57,05
760,217	57,14
760,647	56,44
761,076	56,49
761,506	56,88
761,935	56,8
762,365	56,17
762,794	56,48
763,223	56,11
763,653	56,77
764,082	56,76
764,51	56,57
764,939	56,6
765,368	56,31
765,797	56,82
766,225	56,14
766,654	56,36
767,082	56,71
767,51	56,37
767,938	55,96
768,367	56,49
768,795	56,52
769,222	56,04
769,65	56,06
770,078	56,13
770,505	55,81
770,933	56,2
771,36	55,63
771,788	55,73
772,215	56,33
772,642	55,89
773,069	55,66
773,496	56,35
773,923	55,94
774,349	55,81
774,776	56,07
775,203	56,3
775,629	56,12
776,055	56,05
776,482	56
776,908	55,96
777,334	55,63
777,76	55,97
778,186	55,59
778,611	56
779,037	56,28
779,463	56,02
779,888	55,84
780,314	55,71
780,739	55,62
781,164	55,75
781,589	55,96
782,014	55,46
782,439	55,58
782,864	55,66
783,289	56
783,713	55,44
784,138	56,19
784,562	55,7
784,987	55,49
785,411	55,37
785,835	56,04
786,259	56,03
786,683	55,75
787,107	55,9
787,531	55,34
787,954	55,43
788,378	55,6
788,802	55,6
789,225	55,52
789,648	55,59
790,071	55,79
790,495	55,86
790,918	55,32
791,34	55,24
791,763	55,42
792,186	55,67
792,609	55,61
793,031	55,47
793,454	55,44
793,876	55,59
794,298	55,67
794,721	55,52
795,143	54,83
795,565	55,7
795,986	55,5
796,408	55,63
796,83	55,56
797,252	55,59
797,673	55,06
798,094	55,83
798,516	55,6
798,937	55,43
799,358	55,77
799,779	55,99
800,2	55,79
800,621	55,19
801,042	55,76
801,462	55,19
801,883	55,41
802,303	55,11
802,724	55,57
803,144	55,51
803,564	55,63
803,984	55,23
804,404	55,64
804,824	55,58
805,244	55,96
805,664	55,12
806,084	55,18
806,503	55,24
806,923	55,43
807,342	55,65
807,761	55,05
808,18	55,78
808,599	55,32
809,018	55,42
809,437	55,54
809,856	55,73
810,275	55,77
810,693	55,53
811,112	55,83
811,53	55,27
811,949	55,65
812,367	55,41
812,785	55,42
813,203	55,02
813,621	55,27
814,039	55,53
814,457	55,47
814,874	55,01
815,292	55,39
815,709	55,29
816,127	55,51
816,544	55,13
816,961	55,5
817,378	55,77
817,795	55,15
818,212	55,4
818,629	55,46
819,046	54,8
819,462	55,77
819,879	55,33
820,295	55,45
820,712	55,17
821,128	55,5
821,544	55,54
821,96	55,53
822,376	55,87
822,792	55,47
823,208	55,11
823,624	54,89
824,039	55,59
824,455	55,26
824,87	55,2
825,286	55,56
825,701	55,1
826,116	55,18
826,531	55,02
826,946	55,32
827,361	55,22
827,776	54,91
828,19	55,52
828,605	54,95
829,02	55,03
829,434	54,53
829,848	55,22
830,263	55,38
830,677	55,31
831,091	54,81
831,505	54,99
831,919	55,37
832,332	54,93
832,746	55,09
833,16	55,52
833,573	54,96
833,987	54,61
834,4	54,99
834,813	55,08
835,226	55,01
835,639	55,28
836,052	54,98
836,465	54,81
836,878	55,01
837,29	54,99
837,703	55
838,116	55,44
838,528	55,23
838,94	54,73
839,352	55,55
839,765	55,04
840,177	54,92
840,589	55,25
841	55,11
841,412	54,93
841,824	55,37
842,235	55,01
