Data from L_5_Relative__2__00200.txt Node

Date: Tue Jan 30 10:16:20 CET 2024
User: diatiterra
Spectrometer: HDX00911
Trigger mode: 0
Integration Time (sec): 6,000000E-3
Scans to average: 2
Nonlinearity correction enabled: false
Boxcar width: 0
Storing dark spectrum: false
XAxis mode: Wavelengths
Number of Pixels in Spectrum: 2068
>>>>>Begin Spectral Data<<<<<
194,468	99,45
195,025	104,03
195,581	92,42
196,138	83,44
196,694	86,07
197,251	75,33
197,807	78,33
198,363	73,77
198,919	80
199,474	76,27
200,03	70,87
200,586	73,13
201,141	79,83
201,696	76,05
202,251	69,65
202,806	71,06
203,361	78,46
203,916	67,22
204,471	74,26
205,025	77,41
205,58	73,73
206,134	72,91
206,688	74,68
207,242	86,94
207,796	74,15
208,35	84,93
208,904	72,98
209,457	74,81
210,011	75,11
210,564	75,23
211,117	79,57
211,67	76,11
212,223	72,91
212,776	77,12
213,329	72,15
213,881	74,03
214,434	77,05
214,986	80,36
215,538	79,13
216,09	73,9
216,642	76,86
217,194	89,47
217,746	80,08
218,297	71,85
218,849	75,29
219,4	69,26
219,951	92,04
220,502	80,16
221,053	79,24
221,604	74,41
222,155	80,93
222,705	71,49
223,256	79,03
223,806	81,25
224,356	84,31
224,906	79,3
225,456	73,11
226,006	80,8
226,556	87,61
227,106	74,69
227,655	74,88
228,204	87,78
228,754	73
229,303	76,58
229,852	80,79
230,401	76,68
230,949	66,67
231,498	79,91
232,047	79,1
232,595	71,89
233,143	84,65
233,691	72,44
234,239	79,39
234,787	82,06
235,335	76,62
235,883	76,58
236,43	70,76
236,978	86,52
237,525	78,72
238,072	74,89
238,619	65,47
239,166	77,16
239,713	74,68
240,26	78,23
240,806	74,14
241,353	77,35
241,899	74,9
242,445	73,64
242,991	75,41
243,537	74,03
244,083	76,92
244,629	66,08
245,174	75,74
245,72	72,59
246,265	84,62
246,81	73,78
247,355	77,01
247,9	75,42
248,445	71,03
248,99	66,81
249,534	66,42
250,079	84,72
250,623	70,8
251,168	74,29
251,712	72,05
252,256	68,18
252,8	79,2
253,343	72,87
253,887	79,22
254,43	71,85
254,974	75,2
255,517	72,12
256,06	66,24
256,603	80,25
257,146	73,08
257,689	77,97
258,232	72,85
258,774	74,45
259,317	78,88
259,859	78,57
260,401	74,3
260,943	70,54
261,485	70,91
262,027	76,17
262,569	70,37
263,11	76,55
263,652	69,03
264,193	73,49
264,734	80,09
265,275	74,25
265,816	66,67
266,357	76,76
266,898	82,05
267,438	76,17
267,979	68,97
268,519	70,19
269,059	62,06
269,6	77,43
270,14	70,26
270,68	74,59
271,219	68,7
271,759	70,74
272,298	67,2
272,838	70,52
273,377	82,43
273,916	62,26
274,455	66,92
274,994	68,2
275,533	71,48
276,072	71,49
276,61	82,46
277,149	72,5
277,687	80,51
278,225	67,08
278,763	58,78
279,301	72,65
279,839	74,18
280,377	59,18
280,914	71,76
281,452	68,7
281,989	75,62
282,526	65,42
283,064	65,9
283,601	71,25
284,137	67,11
284,674	74,06
285,211	75,55
285,747	71,26
286,284	81,47
286,82	71,37
287,356	62,67
287,892	67,08
288,428	72,1
288,964	75,1
289,5	73,02
290,035	64,73
290,571	73,15
291,106	76,02
291,641	77,29
292,176	72,8
292,711	73,28
293,246	72,03
293,781	65,65
294,315	75,81
294,85	64,94
295,384	73,58
295,918	69,6
296,453	66,4
296,987	70,34
297,52	61,54
298,054	73,3
298,588	68
299,121	77,48
299,655	75
300,188	65,68
300,721	72,77
301,254	67,71
301,787	75
302,32	65,81
302,853	74,04
303,385	70,59
303,918	72,44
304,45	74,24
304,982	72,8
305,514	67,07
306,046	76,11
306,578	67,63
307,11	69,32
307,641	65,55
308,173	74,35
308,704	84,15
309,236	79,13
309,767	73,75
310,298	68,8
310,829	73,26
311,359	78,32
311,89	71,15
312,421	76,33
312,951	73,64
313,481	79,62
314,012	67,83
314,542	68,47
315,072	78,97
315,601	69,76
316,131	71,24
316,661	71,04
317,19	59,59
317,72	70,34
318,249	70,18
318,778	78,19
319,307	69,76
319,836	70,8
320,365	69,79
320,893	74,41
321,422	74,89
321,95	77,83
322,479	70,68
323,007	70,92
323,535	70,57
324,063	71,21
324,591	81,23
325,118	66,23
325,646	81,47
326,173	80,36
326,701	67,73
327,228	74,69
327,755	71,9
328,282	78,64
328,809	76,32
329,336	79,15
329,862	74,82
330,389	71,37
330,915	74,03
331,441	79,32
331,968	70,12
332,494	73,33
333,02	66,53
333,545	67,21
334,071	73,53
334,597	68,18
335,122	71,62
335,648	78
336,173	72,46
336,698	70,82
337,223	73,24
337,748	73,73
338,272	72,53
338,797	70,52
339,322	78,21
339,846	73,49
340,37	76,42
340,894	69,62
341,419	69,76
341,942	75,58
342,466	63,72
342,99	69,2
343,514	72,06
344,037	63,91
344,56	68,92
345,084	66,95
345,607	73,58
346,13	67,74
346,653	57,56
347,175	79,24
347,698	68,13
348,221	74,9
348,743	69,81
349,265	72,24
349,787	68,64
350,309	64,23
350,831	62,32
351,353	67,35
351,875	67,4
352,397	60,34
352,918	71,71
353,439	68,92
353,961	63,99
354,482	65,77
355,003	60,57
355,524	67,91
356,044	63,64
356,565	67,01
357,086	58,12
357,606	53,67
358,126	64,21
358,646	56,9
359,167	62,79
359,687	60,73
360,206	63,26
360,726	59,94
361,246	54,8
361,765	55,66
362,285	62,08
362,804	54,57
363,323	61,86
363,842	65,35
364,361	56,97
364,88	62,46
365,398	54,08
365,917	52,66
366,435	51,24
366,954	58,05
367,472	54,65
367,99	50,14
368,508	60
369,026	59,77
369,544	60,87
370,061	49,87
370,579	55,8
371,096	54,71
371,613	58,18
372,131	56,4
372,648	55,58
373,165	56,73
373,681	47,64
374,198	59,24
374,715	52,06
375,231	55,8
375,747	53,09
376,264	51,46
376,78	52,13
377,296	52,14
377,812	50,37
378,327	51,41
378,843	47,24
379,359	48,68
379,874	49,06
380,389	48,17
380,905	50,11
381,42	45,71
381,935	50,86
382,449	43,75
382,964	48,39
383,479	46,97
383,993	49,6
384,508	42,5
385,022	47,08
385,536	45,35
386,05	44,16
386,564	42,28
387,078	43,28
387,592	41,15
388,105	39,57
388,619	42,81
389,132	38,27
389,645	37,33
390,158	40,16
390,671	44,2
391,184	38,54
391,697	37,84
392,21	38,29
392,722	34,78
393,235	35,03
393,747	36,8
394,259	35,11
394,771	41,08
395,283	35,25
395,795	33,2
396,307	34,97
396,818	34,29
397,33	34,55
397,841	32,38
398,353	31,48
398,864	31,86
399,375	33,37
399,886	31,14
400,397	31,18
400,907	31,16
401,418	30,2
401,928	30,22
402,439	27,03
402,949	27,5
403,459	27,45
403,969	27,22
404,479	26,82
404,989	26,3
405,498	26,21
406,008	26,08
406,517	24,66
407,027	22,4
407,536	23,97
408,045	21,21
408,554	20,76
409,063	20,64
409,572	19,39
410,08	18,91
410,589	18,54
411,097	17,15
411,606	17,67
412,114	14,2
412,622	14,84
413,13	15,5
413,638	14,6
414,145	16,27
414,653	14,64
415,16	14,36
415,668	14,53
416,175	14,45
416,682	12,49
417,189	12,19
417,696	12,17
418,203	12,66
418,71	11,29
419,216	11,68
419,723	11,87
420,229	12,01
420,735	10,97
421,242	10,97
421,748	11,2
422,254	11,16
422,759	9,59
423,265	10,23
423,771	10,09
424,276	9,77
424,781	10,29
425,287	10,17
425,792	10,08
426,297	9,3
426,802	10,82
427,306	10,38
427,811	9,28
428,316	10,61
428,82	9,84
429,324	9,39
429,829	9,29
430,333	9,54
430,837	9,44
431,34	9,76
431,844	8,76
432,348	9,47
432,851	9,83
433,355	9,11
433,858	9,77
434,361	8,63
434,864	9,3
435,367	9,46
435,87	8,88
436,373	8,88
436,876	9,22
437,378	8,57
437,88	8,87
438,383	8,92
438,885	8,71
439,387	8,53
439,889	8,52
440,391	8,43
440,892	8,5
441,394	9,07
441,896	8,54
442,397	8,47
442,898	8,67
443,399	8,56
443,9	8,43
444,401	8,43
444,902	8,17
445,403	8,33
445,903	8,41
446,404	8,86
446,904	8,28
447,405	8,3
447,905	8,67
448,405	8,86
448,905	9,09
449,404	8,19
449,904	8,16
450,404	8,74
450,903	8,48
451,403	8,76
451,902	8,7
452,401	8,47
452,9	8,72
453,399	8,8
453,898	8,52
454,396	8,62
454,895	8,59
455,393	8,62
455,892	8,84
456,39	8,19
456,888	9,24
457,386	8,6
457,884	8,49
458,382	8,58
458,879	8,91
459,377	8,71
459,874	8,8
460,372	8,9
460,869	9,13
461,366	8,7
461,863	9,01
462,36	8,52
462,857	8,49
463,353	8,92
463,85	8,64
464,346	8,62
464,843	8,63
465,339	8,73
465,835	8,63
466,331	8,05
466,827	8,24
467,323	8,53
467,818	8,56
468,314	8,84
468,809	8,17
469,305	8,49
469,8	8,67
470,295	8,82
470,79	8,55
471,285	8,64
471,78	8,35
472,274	8,36
472,769	8,61
473,263	7,85
473,758	8,54
474,252	8,27
474,746	8,04
475,24	8,7
475,734	8,37
476,228	8,16
476,721	8,82
477,215	8,57
477,708	8,16
478,202	8,42
478,695	8,84
479,188	8,54
479,681	8,57
480,174	8,21
480,667	8,7
481,159	8,81
481,652	8,34
482,144	8,34
482,637	8,11
483,129	8,32
483,621	8,75
484,113	8,47
484,605	8,65
485,097	8,69
485,588	8,67
486,08	8,4
486,571	8,65
487,063	8,57
487,554	8,68
488,045	8,32
488,536	8,57
489,027	8,88
489,518	8,44
490,008	8,78
490,499	8,88
490,989	8,69
491,48	8,94
491,97	9,17
492,46	8,54
492,95	8,86
493,44	9,06
493,93	9,14
494,419	8,88
494,909	8,8
495,398	9,08
495,888	9,09
496,377	9,43
496,866	9,89
497,355	9,09
497,844	9,46
498,333	9,72
498,821	9,72
499,31	9,82
499,798	9,67
500,287	10,16
500,775	10,08
501,263	10,18
501,751	10,17
502,239	10,51
502,727	10,5
503,215	10,61
503,702	10,82
504,19	10,91
504,677	11,48
505,164	11,18
505,651	11,51
506,139	11,8
506,625	11,96
507,112	12,35
507,599	12,44
508,086	12,78
508,572	12,72
509,058	13,16
509,545	13,34
510,031	13,07
510,517	13,72
511,003	13,48
511,489	13,99
511,974	14,44
512,46	14,88
512,946	14,83
513,431	14,88
513,916	15,5
514,401	15,73
514,887	15,86
515,371	16,13
515,856	16,62
516,341	16,94
516,826	17,18
517,31	17,82
517,795	18,48
518,279	17,92
518,763	18,75
519,247	18,59
519,731	19,23
520,215	18,96
520,699	19,58
521,182	20,29
521,666	20,36
522,149	20,87
522,633	21,48
523,116	21,62
523,599	22,05
524,082	22,44
524,565	22,91
525,048	22,95
525,53	22,51
526,013	23,65
526,495	24,09
526,978	24,2
527,46	24,27
527,942	24,63
528,424	25,13
528,906	25,43
529,388	24,78
529,87	24,98
530,351	25,38
530,833	25,83
531,314	25,97
531,795	26,2
532,277	25,97
532,758	26,22
533,238	27,45
533,719	26,69
534,2	27,5
534,681	26,95
535,161	27,32
535,642	26,82
536,122	27,03
536,602	26,92
537,082	27,47
537,562	27,16
538,042	27,64
538,522	27
539,001	27,35
539,481	27,9
539,96	27,32
540,44	27,57
540,919	27,92
541,398	27,65
541,877	28,16
542,356	28,5
542,835	27,77
543,313	27,94
543,792	27,87
544,27	28,44
544,749	27,82
545,227	28,33
545,705	28,58
546,183	28,76
546,661	28,43
547,139	28,44
547,616	28,84
548,094	28,78
548,571	28,22
549,049	28,58
549,526	29,07
550,003	28,64
550,48	28,8
550,957	28,99
551,434	28,84
551,911	29,05
552,387	29,06
552,864	29,24
553,34	29,17
553,817	28,97
554,293	29,34
554,769	28,64
555,245	28,66
555,721	28,95
556,197	28,69
556,672	28,72
557,148	28,68
557,623	28,49
558,099	28,73
558,574	28,84
559,049	28,46
559,524	28,98
559,999	28,38
560,474	28,59
560,948	28,16
561,423	28,29
561,897	28,07
562,372	28,21
562,846	27,74
563,32	27,88
563,794	28,03
564,268	27,58
564,742	27,81
565,216	27,11
565,69	27,21
566,163	27,05
566,636	26,93
567,11	27,15
567,583	26,59
568,056	25,68
568,529	26,11
569,002	26,02
569,475	26,41
569,947	25,8
570,42	25,82
570,892	25,46
571,365	25,32
571,837	24,98
572,309	25,22
572,781	24,8
573,253	24,57
573,725	24,11
574,197	24,34
574,668	24,2
575,14	23,85
575,611	23,69
576,082	23,09
576,554	23,4
577,025	23,16
577,496	23,15
577,967	22,6
578,437	22,59
578,908	22,54
579,379	22,29
579,849	21,86
580,319	22,26
580,79	22,08
581,26	21,79
581,73	21,17
582,2	21,6
582,669	21,75
583,139	21,26
583,609	21,42
584,078	21,18
584,548	21,08
585,017	21,35
585,486	20,47
585,955	20,53
586,424	20,74
586,893	20,96
587,362	20,39
587,83	20,08
588,299	20,32
588,767	20,33
589,236	20,4
589,704	20,14
590,172	19,88
590,64	19,67
591,108	19,46
591,576	19,84
592,043	19,49
592,511	19,44
592,978	19,57
593,446	19,66
593,913	19,34
594,38	19,91
594,847	19,3
595,314	19,48
595,781	19,59
596,248	19,3
596,715	19,05
597,181	19,08
597,647	19,24
598,114	18,83
598,58	19,14
599,046	19,24
599,512	18,82
599,978	18,82
600,444	19,22
600,91	18,88
601,375	19,2
601,841	18,65
602,306	19,06
602,771	18,43
603,236	18,74
603,702	18,13
604,167	18,28
604,631	18,32
605,096	18,19
605,561	17,9
606,025	17,9
606,49	17,69
606,954	17,84
607,418	17,72
607,882	17,81
608,347	17,63
608,81	17,52
609,274	17,4
609,738	17,18
610,202	17,3
610,665	17,2
611,128	16,88
611,592	16,82
612,055	16,78
612,518	17,13
612,981	16,7
613,444	16,52
613,907	16,41
614,369	16,37
614,832	15,96
615,294	16,08
615,757	16,19
616,219	15,98
616,681	15,68
617,143	15,72
617,605	15,62
618,067	15,31
618,529	15,59
618,99	15,29
619,452	15,5
619,913	15,47
620,375	15,32
620,836	15
621,297	14,95
621,758	15,12
622,219	14,79
622,68	14,76
623,14	14,67
623,601	14,84
624,061	14,78
624,522	14,79
624,982	14,7
625,442	14,7
625,902	14,34
626,362	14,59
626,822	14,71
627,282	14,74
627,742	14,52
628,201	14,42
628,661	14,68
629,12	14,54
629,579	14,22
630,038	14,41
630,497	14,36
630,956	14,28
631,415	14,3
631,874	14,34
632,332	14,21
632,791	14,18
633,249	14,2
633,708	14
634,166	14
634,624	13,86
635,082	13,9
635,54	13,89
635,998	13,82
636,455	13,83
636,913	13,73
637,37	13,85
637,828	13,48
638,285	13,12
638,742	13,29
639,199	13,07
639,656	13,06
640,113	12,92
640,57	12,79
641,027	12,59
641,483	12,46
641,94	12,39
642,396	12,41
642,852	12,23
643,309	11,93
643,765	11,96
644,221	11,86
644,676	11,76
645,132	11,64
645,588	11,27
646,043	11,24
646,499	11,27
646,954	11,26
647,409	11,1
647,864	10,69
648,319	10,67
648,774	10,59
649,229	10,51
649,684	10,54
650,139	10,17
650,593	10,35
651,047	10,32
651,502	10,2
651,956	10,07
652,41	9,99
652,864	9,92
653,318	9,96
653,772	9,81
654,225	9,77
654,679	9,49
655,133	9,74
655,586	9,8
656,039	9,37
656,492	9,3
656,946	9,46
657,399	9,07
657,851	9,06
658,304	9,19
658,757	8,96
659,209	8,89
659,662	9,01
660,114	8,8
660,567	8,76
661,019	8,64
661,471	8,52
661,923	8,45
662,375	8,32
662,826	8,22
663,278	8,24
663,73	8,17
664,181	8,22
664,632	8,13
665,084	8,03
665,535	7,99
665,986	7,85
666,437	7,74
666,888	7,87
667,338	7,97
667,789	7,84
668,24	7,84
668,69	7,79
669,14	7,9
669,591	7,8
670,041	7,92
670,491	8
670,941	7,89
671,391	7,89
671,84	8,03
672,29	8,15
672,74	7,9
673,189	8,14
673,638	8,26
674,088	8,22
674,537	8,41
674,986	8,43
675,435	8,51
675,883	8,58
676,332	8,54
676,781	8,81
677,229	8,98
677,678	9
678,126	8,99
678,574	9,3
679,022	9,32
679,47	9,36
679,918	9,5
680,366	9,61
680,814	9,82
681,261	9,87
681,709	10,05
682,156	9,98
682,604	10,29
683,051	10,44
683,498	10,57
683,945	10,71
684,392	10,65
684,839	11,05
685,286	11,01
685,732	11,41
686,179	11,25
686,625	11,52
687,071	11,73
687,518	11,78
687,964	12,1
688,41	12,4
688,856	12,63
689,301	12,89
689,747	13,17
690,193	13,84
690,638	13,86
691,084	14,41
691,529	14,7
691,974	15,07
692,419	15,56
692,864	16,07
693,309	16,61
693,754	17,04
694,199	17,78
694,643	18,06
695,088	18,5
695,532	19,28
695,977	19,67
696,421	20,18
696,865	20,9
697,309	21,25
697,753	21,93
698,197	22,75
698,64	23,18
699,084	23,84
699,527	24,18
699,971	24,87
700,414	25,7
700,857	25,47
701,3	26,69
701,743	26,76
702,186	27,3
702,629	27,84
703,072	28,25
703,515	28,63
703,957	29,71
704,399	29,75
704,842	30,15
705,284	30,78
705,726	30,89
706,168	31,78
706,61	31,67
707,052	32,22
707,494	32,77
707,935	33,05
708,377	33,77
708,818	33,71
709,26	34,51
709,701	34,61
710,142	35,2
710,583	35,01
711,024	35,49
711,465	36,01
711,905	36,49
712,346	36,39
712,787	36,55
713,227	37,33
713,667	37,65
714,108	37,69
714,548	38,49
714,988	38,46
715,428	38,59
715,868	38,82
716,307	39,29
716,747	39,91
717,186	40,12
717,626	40,13
718,065	40,8
718,504	40,9
718,944	40,83
719,383	41
719,822	41,43
720,261	41,63
720,699	41,55
721,138	42,16
721,576	42,07
722,015	42,6
722,453	42,74
722,892	42,62
723,33	43,08
723,768	43,03
724,206	43,22
724,644	43,2
725,081	43,5
725,519	43,68
725,957	43,89
726,394	43,74
726,832	44,19
727,269	44,73
727,706	44,15
728,143	44,84
728,58	44,78
729,017	44,91
729,454	44,84
729,89	44,49
730,327	44,95
730,764	45,11
731,2	45,14
731,636	45,39
732,072	45,38
732,509	45,12
732,945	45,66
733,38	45,68
733,816	45,72
734,252	45,84
734,688	45,47
735,123	45,86
735,559	45,8
735,994	45,69
736,429	45,83
736,864	46,1
737,299	46,09
737,734	45,94
738,169	46,15
738,604	46,14
739,038	45,89
739,473	46,52
739,907	46,3
740,342	46,34
740,776	46,11
741,21	46
741,644	45,9
742,078	46,56
742,512	46,28
742,946	46,22
743,379	46,44
743,813	46,65
744,246	46,08
744,68	46,62
745,113	46,53
745,546	45,74
745,979	46,01
746,412	46,22
746,845	45,86
747,278	45,89
747,711	45,9
748,143	46,14
748,576	45,89
749,008	45,78
749,441	45,99
749,873	45,84
750,305	45,76
750,737	45,82
751,169	45,93
751,601	45,91
752,032	45,68
752,464	45,52
752,896	45,18
753,327	45,5
753,758	45,45
754,19	45,48
754,621	45,4
755,052	45,35
755,483	45,36
755,914	44,95
756,344	45,14
756,775	45,02
757,206	45,32
757,636	44,93
758,066	45,29
758,497	45,09
758,927	44,95
759,357	45,36
759,787	44,97
760,217	45,16
760,647	44,42
761,076	45,08
761,506	44,71
761,935	44,88
762,365	44,5
762,794	44,75
763,223	44,79
763,653	44,5
764,082	44,46
764,51	44,41
764,939	44,73
765,368	44,44
765,797	44,77
766,225	44,56
766,654	44,32
767,082	44,55
767,51	44,59
767,938	44,27
768,367	44,59
768,795	44,17
769,222	44,34
769,65	44,06
770,078	44,27
770,505	44,03
770,933	43,7
771,36	43,96
771,788	44,04
772,215	44,32
772,642	43,9
773,069	43,81
773,496	43,98
773,923	44,07
774,349	43,71
774,776	43,84
775,203	43,88
775,629	43,68
776,055	44,15
776,482	43,69
776,908	43,98
777,334	43,72
777,76	43,98
778,186	43,44
778,611	43,56
779,037	43,65
779,463	43,79
779,888	43,37
780,314	43,52
780,739	43,28
781,164	43,6
781,589	43,42
782,014	43,14
782,439	43,78
782,864	43,24
783,289	43,66
783,713	43,06
784,138	43,84
784,562	43,5
784,987	43,48
785,411	43,33
785,835	43,63
786,259	43,56
786,683	43,5
787,107	43,42
787,531	43,61
787,954	43,43
788,378	43,59
788,802	43
789,225	43,46
789,648	43,09
790,071	43,48
790,495	43,23
790,918	43,26
791,34	43,24
791,763	43,31
792,186	43,52
792,609	43,5
793,031	43,04
793,454	43,59
793,876	42,99
794,298	43,54
794,721	43,39
795,143	42,9
795,565	43,5
795,986	42,92
796,408	42,6
796,83	43,2
797,252	43,07
797,673	42,77
798,094	43,44
798,516	43
798,937	43,26
799,358	43,25
799,779	42,98
800,2	42,77
800,621	42,95
801,042	43,43
801,462	43,23
801,883	42,91
802,303	42,77
802,724	43
803,144	43,16
803,564	42,87
803,984	42,79
804,404	43,11
804,824	43,19
805,244	43,14
805,664	42,75
806,084	42,98
806,503	43,07
806,923	42,83
807,342	42,99
807,761	42,67
808,18	43,23
808,599	43,28
809,018	42,97
809,437	43,17
809,856	42,93
810,275	43,26
810,693	43,07
811,112	42,99
811,53	42,96
811,949	42,77
812,367	43,1
812,785	42,69
813,203	42,47
813,621	42,75
814,039	42,65
814,457	42,97
814,874	42,39
815,292	42,99
815,709	42,78
816,127	42,8
816,544	42,92
816,961	42,6
817,378	42,72
817,795	42,7
818,212	43,14
818,629	42,24
819,046	42,38
819,462	42,82
819,879	42,81
820,295	42,74
820,712	42,94
821,128	42,81
821,544	42,43
821,96	42,76
822,376	42,92
822,792	42,89
823,208	42,53
823,624	42,74
824,039	42,83
824,455	42,9
824,87	42,48
825,286	42,84
825,701	42,78
826,116	42,57
826,531	42,67
826,946	42,49
827,361	42,72
827,776	42,45
828,19	42,74
828,605	42
829,02	42,44
829,434	42,04
829,848	43,03
830,263	42,68
830,677	42,35
831,091	42,61
831,505	42,49
831,919	42,76
832,332	42,36
832,746	42,47
833,16	42,41
833,573	42,25
833,987	42,37
834,4	42,23
834,813	42,33
835,226	42,65
835,639	42,47
836,052	42,51
836,465	42,86
836,878	42,84
837,29	42,43
837,703	42,78
838,116	43,01
838,528	42,58
838,94	42,02
839,352	42,65
839,765	42,31
840,177	42,56
840,589	42,31
841	42,64
