Data from L_5_Relative__4__00202.txt Node

Date: Tue Jan 30 10:16:25 CET 2024
User: diatiterra
Spectrometer: HDX00911
Trigger mode: 0
Integration Time (sec): 6,000000E-3
Scans to average: 2
Nonlinearity correction enabled: false
Boxcar width: 0
Storing dark spectrum: false
XAxis mode: Wavelengths
Number of Pixels in Spectrum: 2068
>>>>>Begin Spectral Data<<<<<
194,468	108,29
195,025	102,42
195,581	102,27
196,138	86,62
196,694	99,5
197,251	82,82
197,807	84,58
198,363	75,41
198,919	86,38
199,474	93,64
200,03	79,53
200,586	82,82
201,141	93,7
201,696	84,45
202,251	85,57
202,806	82,98
203,361	87,4
203,916	82,16
204,471	88,61
205,025	83,26
205,58	82,49
206,134	83,67
206,688	79,83
207,242	90,99
207,796	83,9
208,35	92,24
208,904	83,47
209,457	81,78
210,011	81,66
210,564	88,29
211,117	84,26
211,67	82,19
212,223	72,51
212,776	86,02
213,329	76,79
213,881	80,09
214,434	84,84
214,986	82,59
215,538	85,83
216,09	79,12
216,642	83,88
217,194	94,26
217,746	76,1
218,297	83,61
218,849	79,09
219,4	83,12
219,951	89,38
220,502	80,16
221,053	89,83
221,604	86,22
222,155	83,9
222,705	81,28
223,256	76,78
223,806	77,08
224,356	94,12
224,906	94,27
225,456	76,89
226,006	86,16
226,556	80,97
227,106	85,06
227,655	92,09
228,204	91,4
228,754	85,65
229,303	89,19
229,852	99,56
230,401	85,65
230,949	76,6
231,498	89,73
232,047	77,05
232,595	82,73
233,143	89,91
233,691	75,97
234,239	81,3
234,787	97,31
235,335	93,51
235,883	91,89
236,43	86,86
236,978	80
237,525	87,66
238,072	88,11
238,619	74,89
239,166	73,71
239,713	78,9
240,26	84,27
240,806	85,34
241,353	88,89
241,899	79,42
242,445	79,5
242,991	86,89
243,537	83,55
244,083	85,97
244,629	80,18
245,174	89,79
245,72	81,08
246,265	84,62
246,81	95,11
247,355	77,74
247,9	85,42
248,445	76,19
248,99	82,55
249,534	73,96
250,079	98,15
250,623	90,71
251,168	80
251,712	73,8
252,256	84,71
252,8	91,15
253,343	80,57
253,887	90,91
254,43	80
254,974	80,8
255,517	82,21
256,06	80,59
256,603	84,36
257,146	86,92
257,689	91,95
258,232	87,33
258,774	91,19
259,317	85,78
259,859	87,14
260,401	86,45
260,943	85,06
261,485	86,82
262,027	82,98
262,569	85,65
263,11	87,61
263,652	82,3
264,193	78,6
264,734	94,91
265,275	83,26
265,816	82,91
266,357	82,16
266,898	91,03
267,438	79,15
267,979	81,47
268,519	90,87
269,059	70,36
269,6	79,65
270,14	78,02
270,68	84,43
271,219	79,57
271,759	84,28
272,298	83,2
272,838	83,27
273,377	91,44
273,916	78,99
274,455	71,92
274,994	83,87
275,533	77,57
276,072	85,96
276,61	92,11
277,149	84,17
277,687	92,8
278,225	71,6
278,763	73,28
279,301	73,06
279,839	87,7
280,377	72,24
280,914	70,37
281,452	79,27
281,989	84,3
282,526	76,67
283,064	69,35
283,601	72,92
284,137	79,11
284,674	82,01
285,211	79,04
285,747	93,7
286,284	85,34
286,82	81,85
287,356	85,33
287,892	73,66
288,428	82,83
288,964	80,08
289,5	76,74
290,035	79,25
290,571	77,43
291,106	82,81
291,641	82,1
292,176	78,4
292,711	81,03
293,246	73,18
293,781	82,61
294,315	86,05
294,85	72,51
295,384	78,77
295,918	82,8
296,453	72,87
296,987	70,76
297,52	81,9
298,054	84,16
298,588	70
299,121	77,93
299,655	79,25
300,188	72,88
300,721	82,59
301,254	70,85
301,787	82,02
302,32	80,34
302,853	80
303,385	76,08
303,918	76,89
304,45	82,1
304,982	78,8
305,514	79,67
306,046	80,09
306,578	77,59
307,11	80,3
307,641	76,05
308,173	80,87
308,704	86,18
309,236	81,3
309,767	78,75
310,298	84,8
310,829	79,84
311,359	83,63
311,89	79,23
312,421	76,73
312,951	84,94
313,481	80,57
314,012	80,23
314,542	81,08
315,072	82,83
315,601	87,1
316,131	85,84
316,661	83,4
317,19	68,98
317,72	78,39
318,249	81,19
318,778	81,89
319,307	84,68
319,836	78,4
320,365	88,94
320,893	83,86
321,422	84,75
321,95	83,04
322,479	81,53
323,007	75,7
323,535	79,25
324,063	80,93
324,591	88,89
325,118	81,39
325,646	80,6
326,173	84,38
326,701	72,11
327,228	86,12
327,755	82,38
328,282	89,55
328,809	85,53
329,336	84,26
329,862	86,5
330,389	81,06
330,915	72,09
331,441	87,76
331,968	76,1
332,494	83,11
333,02	83,26
333,545	80,97
334,071	74,79
334,597	80,58
335,122	79,73
335,648	78,4
336,173	88,14
336,698	81,55
337,223	86,85
337,748	86,67
338,272	83,69
338,797	85,26
339,322	86,75
339,846	81,93
340,37	89,52
340,894	82,28
341,419	85,08
341,942	80,23
342,466	76,11
342,99	79,85
343,514	89,47
344,037	78,57
344,56	84,46
345,084	82,63
345,607	80,38
346,13	81,85
346,653	72,32
347,175	81,36
347,698	82,42
348,221	84,21
348,743	89,81
349,265	82,04
349,787	78,05
350,309	74,45
350,831	71,83
351,353	82,45
351,875	76,19
352,397	70,17
352,918	90,84
353,439	79,28
353,961	79,02
354,482	74,16
355,003	75,08
355,524	77,7
356,044	73,82
356,565	71,18
357,086	77,6
357,606	69,33
358,126	79,26
358,646	64,83
359,167	77,08
359,687	73,6
360,206	72,52
360,726	73,82
361,246	72,14
361,765	68,61
362,285	71,14
362,804	65,24
363,323	69,67
363,842	72,94
364,361	66,87
364,88	70,87
365,398	69,79
365,917	70,41
366,435	66,67
366,954	67,17
367,472	70,27
367,99	67,99
368,508	70,3
369,026	74,79
369,544	68,12
370,061	61,39
370,579	74,31
371,096	67,54
371,613	66,76
372,131	65,27
372,648	68,27
373,165	72,82
373,681	65,97
374,198	64,3
374,715	60,31
375,231	64,69
375,747	67,41
376,264	61,17
376,78	68,01
377,296	56,9
377,812	60,6
378,327	68,31
378,843	66,43
379,359	62,11
379,874	63,2
380,389	57,76
380,905	63,06
381,42	57,96
381,935	62,72
382,449	60,55
382,964	56,9
383,479	56,37
383,993	65
384,508	58,85
385,022	53,11
385,536	57,06
386,05	56,22
386,564	51,4
387,078	57,24
387,592	54,1
388,105	54,8
388,619	54,93
389,132	55,24
389,645	54,22
390,158	54,65
390,671	50,37
391,184	51,59
391,697	49,08
392,21	46,41
392,722	50,07
393,235	50,14
393,747	49,16
394,259	45,33
394,771	48,79
395,283	45,13
395,795	45,33
396,307	43,97
396,818	45,63
397,33	47,01
397,841	45,04
398,353	42,97
398,864	41,94
399,375	42,96
399,886	39,29
400,397	44,66
400,907	40,61
401,418	37,54
401,928	39,88
402,439	38,46
402,949	34,4
403,459	37,34
403,969	34,75
404,479	36,21
404,989	36,2
405,498	32,89
406,008	36,53
406,517	31,69
407,027	30,38
407,536	31,56
408,045	29,4
408,554	26,27
409,063	27,56
409,572	26,76
410,08	25,53
410,589	25,32
411,097	24,69
411,606	25,68
412,114	22,48
412,622	20,8
413,13	21,83
413,638	21,56
414,145	21,08
414,653	20,14
415,16	20,15
415,668	19,63
416,175	18,42
416,682	18,81
417,189	17,66
417,696	17,64
418,203	17,87
418,71	16,78
419,216	17,87
419,723	16,83
420,229	16,64
420,735	16,4
421,242	16,17
421,748	15,75
422,254	17,39
422,759	15,2
423,265	14,39
423,771	14,72
424,276	13,94
424,781	14,48
425,287	14,45
425,792	14,27
426,297	14,59
426,802	14,81
427,306	14,5
427,811	14,15
428,316	14,93
428,82	13,83
429,324	13,44
429,829	13,77
430,333	14,55
430,837	13,76
431,34	13,13
431,844	13,11
432,348	14,29
432,851	13,6
433,355	12,68
433,858	14,26
434,361	13,2
434,864	12,98
435,367	13,76
435,87	12,53
436,373	12,74
436,876	13,68
437,378	12,7
437,88	12,15
438,383	12,52
438,885	13,22
439,387	12,59
439,889	12,25
440,391	12,72
440,892	12,54
441,394	12,61
441,896	12,42
442,397	12,73
442,898	12,75
443,399	12,37
443,9	12,85
444,401	12,72
444,902	12,31
445,403	12,67
445,903	12,79
446,404	13,39
446,904	13,4
447,405	13,1
447,905	12,02
448,405	11,92
448,905	12,24
449,404	12,84
449,904	12,62
450,404	13,07
450,903	12,8
451,403	12,39
451,902	12,9
452,401	13,05
452,9	12,86
453,399	13,25
453,898	12,76
454,396	13,11
454,895	13,37
455,393	12,97
455,892	12,52
456,39	12,13
456,888	13,62
457,386	12,55
457,884	12,89
458,382	12,9
458,879	12,95
459,377	13,46
459,874	13,18
460,372	13,1
460,869	12,93
461,366	12,96
461,863	12,96
462,36	12,96
462,857	12,84
463,353	13,17
463,85	13,43
464,346	12,54
464,843	13,5
465,339	13,35
465,835	13,54
466,331	12,84
466,827	12,08
467,323	12,77
467,818	13,08
468,314	13,04
468,809	13,01
469,305	12,79
469,8	13,28
470,295	12,71
470,79	12,66
471,285	12,9
471,78	12,7
472,274	12,83
472,769	12,61
473,263	12,59
473,758	13
474,252	12,95
474,746	12,49
475,24	12,65
475,734	12,91
476,228	12,62
476,721	13,14
477,215	12,55
477,708	12,68
478,202	12,84
478,695	12,69
479,188	12,94
479,681	12,89
480,174	13,2
480,667	13,22
481,159	13,04
481,652	13,12
482,144	12,99
482,637	13,13
483,129	12,65
483,621	13,27
484,113	12,47
484,605	12,77
485,097	12,84
485,588	13,57
486,08	13,28
486,571	13,49
487,063	13,53
487,554	13,16
488,045	12,79
488,536	13,34
489,027	13,32
489,518	13,73
490,008	13,52
490,499	13,52
490,989	13,44
491,48	13,29
491,97	13,58
492,46	13,57
492,95	13,23
493,44	13,54
493,93	13,96
494,419	13,85
494,909	13,91
495,398	14,39
495,888	13,94
496,377	14,18
496,866	14,5
497,355	14,71
497,844	14,25
498,333	14,34
498,821	14,99
499,31	14,85
499,798	15,34
500,287	15,4
500,775	15,42
501,263	15,52
501,751	15,53
502,239	15,92
502,727	15,99
503,215	16,49
503,702	16,91
504,19	16,32
504,677	16,9
505,164	16,32
505,651	17,29
506,139	17,06
506,625	17,92
507,112	17,95
507,599	18,09
508,086	18,77
508,572	18,92
509,058	18,72
509,545	19,2
510,031	19,28
510,517	19,85
511,003	20,1
511,489	20,46
511,974	20,42
512,46	21,5
512,946	21,66
513,431	21,58
513,916	22,16
514,401	22,67
514,887	22,48
515,371	23,38
515,856	23,43
516,341	24,01
516,826	24,16
517,31	24,56
517,795	25,2
518,279	25,26
518,763	25,85
519,247	26,35
519,731	26,69
520,215	26,59
520,699	27,49
521,182	28,34
521,666	28,04
522,149	29,13
522,633	29,88
523,116	29,37
523,599	29,81
524,082	30,45
524,565	30,94
525,048	31,41
525,53	31,65
526,013	32,26
526,495	32,27
526,978	33,12
527,46	32,57
527,942	33,22
528,424	34,07
528,906	33,76
529,388	33,92
529,87	34,19
530,351	34,52
530,833	34,38
531,314	35,29
531,795	35,16
532,277	35,9
532,758	35,99
533,238	36,12
533,719	35,52
534,2	36,09
534,681	35,92
535,161	36,37
535,642	36,13
536,122	36,64
536,602	36,61
537,082	36,5
537,562	36,34
538,042	37,18
538,522	37,11
539,001	37,14
539,481	37,58
539,96	37,33
540,44	36,75
540,919	36,91
541,398	37,25
541,877	37,39
542,356	37,51
542,835	37,34
543,313	37,05
543,792	37,69
544,27	37,04
544,749	38,07
545,227	38,06
545,705	37,72
546,183	38,49
546,661	38,15
547,139	37,63
547,616	38,07
548,094	38,47
548,571	38,38
549,049	38,17
549,526	38,88
550,003	38,55
550,48	38,5
550,957	38,11
551,434	38,53
551,911	39,06
552,387	39,04
552,864	38,62
553,34	38,72
553,817	39,29
554,293	38,45
554,769	38,27
555,245	38,27
555,721	38,66
556,197	37,75
556,672	37,89
557,148	38,12
557,623	38,17
558,099	38,22
558,574	38,05
559,049	38,08
559,524	37,65
559,999	37,87
560,474	37,7
560,948	37,75
561,423	37,87
561,897	37,41
562,372	37,5
562,846	36,55
563,32	36,93
563,794	37,26
564,268	36,9
564,742	36,94
565,216	36,59
565,69	36,43
566,163	36,75
566,636	36,44
567,11	35,96
567,583	35,99
568,056	34,84
568,529	35,34
569,002	35,04
569,475	34,75
569,947	34,33
570,42	34,43
570,892	34,28
571,365	34,1
571,837	33,85
572,309	33,45
572,781	33,96
573,253	33,08
573,725	32,66
574,197	32,47
574,668	32,66
575,14	32,5
575,611	31,85
576,082	31,68
576,554	31,86
577,025	31,31
577,496	31,31
577,967	31,38
578,437	31,11
578,908	30,63
579,379	30,31
579,849	30,09
580,319	30,8
580,79	29,92
581,26	29,67
581,73	29,43
582,2	29,4
582,669	29,57
583,139	29,4
583,609	29,22
584,078	28,91
584,548	28,87
585,017	28,78
585,486	28,42
585,955	28,39
586,424	28,41
586,893	28,3
587,362	28,27
587,83	27,56
588,299	28,21
588,767	27,97
589,236	27,68
589,704	27,61
590,172	27,61
590,64	27,43
591,108	27,05
591,576	27,16
592,043	26,67
592,511	26,79
592,978	27,3
593,446	26,6
593,913	26,33
594,38	26,69
594,847	26,62
595,314	26,7
595,781	26,84
596,248	26,26
596,715	26,67
597,181	26,17
597,647	26,31
598,114	26,64
598,58	26,27
599,046	26,38
599,512	25,71
599,978	25,97
600,444	26,38
600,91	25,88
601,375	26,23
601,841	25,47
602,306	25,79
602,771	25,62
603,236	25,53
603,702	25,74
604,167	25,35
604,631	25,51
605,096	25,29
605,561	24,83
606,025	25,28
606,49	25,09
606,954	24,89
607,418	24,64
607,882	24,8
608,347	24,81
608,81	24,37
609,274	24,16
609,738	24,49
610,202	24,19
610,665	24,05
611,128	24,13
611,592	23,71
612,055	23,25
612,518	23,57
612,981	23,3
613,444	23,1
613,907	23,13
614,369	23,12
614,832	22,9
615,294	22,62
615,757	22,39
616,219	22,33
616,681	22,35
617,143	22,5
617,605	21,93
618,067	21,89
618,529	21,99
618,99	22
619,452	21,84
619,913	21,72
620,375	21,79
620,836	21,65
621,297	21,26
621,758	21,49
622,219	21,11
622,68	21,31
623,14	21,02
623,601	21,32
624,061	21,21
624,522	20,84
624,982	20,96
625,442	20,78
625,902	20,86
626,362	20,76
626,822	21,05
627,282	20,67
627,742	20,69
628,201	20,62
628,661	21,03
629,12	20,44
629,579	20,4
630,038	20,48
630,497	20,43
630,956	20,18
631,415	20,67
631,874	20,34
632,332	20,29
632,791	20,22
633,249	20,25
633,708	20,23
634,166	19,79
634,624	19,95
635,082	20,14
635,54	20,03
635,998	19,89
636,455	19,75
636,913	19,43
637,37	19,34
637,828	19,11
638,285	19,01
638,742	19,37
639,199	19,11
639,656	18,55
640,113	18,58
640,57	18,48
641,027	18,53
641,483	18,2
641,94	17,77
642,396	17,8
642,852	17,85
643,309	17,71
643,765	17,44
644,221	17,38
644,676	16,99
645,132	17
645,588	16,93
646,043	16,62
646,499	16,37
646,954	16,65
647,409	16,39
647,864	16,06
648,319	15,92
648,774	15,76
649,229	15,74
649,684	15,92
650,139	15,44
650,593	15,37
651,047	15,23
651,502	15,34
651,956	15,08
652,41	15,02
652,864	15,01
653,318	14,7
653,772	14,84
654,225	14,89
654,679	14,73
655,133	14,48
655,586	14,52
656,039	14,53
656,492	14,34
656,946	14,18
657,399	14,29
657,851	14,11
658,304	13,79
658,757	13,83
659,209	13,84
659,662	13,59
660,114	13,4
660,567	13,26
661,019	13,33
661,471	13,12
661,923	13,04
662,375	12,9
662,826	12,81
663,278	12,8
663,73	12,52
664,181	12,68
664,632	12,25
665,084	12,64
665,535	12,41
665,986	12,37
666,437	12,34
666,888	12,11
667,338	12,28
667,789	12,11
668,24	12,1
668,69	12,33
669,14	11,97
669,591	12,02
670,041	12,06
670,491	12,17
670,941	12,05
671,391	11,99
671,84	12,18
672,29	12,19
672,74	12,07
673,189	12,39
673,638	12,24
674,088	12,53
674,537	12,49
674,986	12,4
675,435	12,32
675,883	12,58
676,332	12,76
676,781	12,82
677,229	12,96
677,678	13
678,126	12,9
678,574	13,31
679,022	13,15
679,47	13,5
679,918	13,45
680,366	13,6
680,814	13,58
681,261	13,92
681,709	14,02
682,156	14,24
682,604	14,28
683,051	14,48
683,498	14,98
683,945	14,95
684,392	15,04
684,839	15,15
685,286	15,25
685,732	15,67
686,179	15,71
686,625	16,01
687,071	16,42
687,518	16,54
687,964	16,76
688,41	17,18
688,856	17,45
689,301	17,69
689,747	18,35
690,193	18,7
690,638	19,32
691,084	19,63
691,529	20,13
691,974	20,97
692,419	21,29
692,864	22
693,309	22,49
693,754	23,3
694,199	23,75
694,643	24,58
695,088	25,01
695,532	25,98
695,977	26,35
696,421	27,61
696,865	27,97
697,309	28,76
697,753	29,69
698,197	30,44
698,64	30,96
699,084	32,14
699,527	32,73
699,971	33,32
700,414	34,35
700,857	34,21
701,3	35,32
701,743	35,68
702,186	36,68
702,629	37,17
703,072	38,56
703,515	38,65
703,957	39
704,399	40,14
704,842	40,47
705,284	40,53
705,726	41,42
706,168	41,93
706,61	42,92
707,052	42,97
707,494	43,96
707,935	44,67
708,377	45,02
708,818	44,89
709,26	46,37
709,701	46,34
710,142	47,37
710,583	47,55
711,024	48,13
711,465	48,55
711,905	48,97
712,346	49,14
712,787	49,58
713,227	50,12
713,667	50,33
714,108	50,77
714,548	51,76
714,988	52,06
715,428	52,05
715,868	52,31
716,307	52,59
716,747	53,5
717,186	54,13
717,626	53,78
718,065	54,53
718,504	54,77
718,944	54,93
719,383	55,28
719,822	55,65
720,261	55,94
720,699	56,32
721,138	56,86
721,576	56,61
722,015	57,11
722,453	57,36
722,892	58,19
723,33	57,64
723,768	58,55
724,206	58,78
724,644	59,03
725,081	58,78
725,519	59,58
725,957	58,8
726,394	59,9
726,832	59,43
727,269	60,31
727,706	60,22
728,143	60,51
728,58	60,81
729,017	60,93
729,454	60,41
729,89	61,02
730,327	61,3
730,764	61,25
731,2	62,28
731,636	61,68
732,072	61,82
732,509	61,65
732,945	61,92
733,38	62,13
733,816	62,01
734,252	62,95
734,688	62,49
735,123	62,76
735,559	61,92
735,994	62,39
736,429	62,64
736,864	62,62
737,299	62,96
737,734	62,56
738,169	62,87
738,604	62,81
739,038	62,92
739,473	63,35
739,907	63,71
740,342	63,17
740,776	63,16
741,21	63,07
741,644	63,11
742,078	63,07
742,512	63,25
742,946	63,08
743,379	63,64
743,813	63,83
744,246	63,21
744,68	63,16
745,113	63,52
745,546	63,25
745,979	63,12
746,412	63,16
746,845	63,05
747,278	63,35
747,711	63,23
748,143	63,56
748,576	63,29
749,008	63,08
749,441	63,27
749,873	63,06
750,305	63,06
750,737	62,91
751,169	63,1
751,601	62,67
752,032	62,96
752,464	62,83
752,896	62,95
753,327	62,94
753,758	62,7
754,19	62,5
754,621	63,41
755,052	62,52
755,483	62,42
755,914	62,29
756,344	62,73
756,775	62,69
757,206	62,78
757,636	62,27
758,066	61,91
758,497	62,32
758,927	62,38
759,357	63,01
759,787	62,21
760,217	62,45
760,647	62,01
761,076	62,22
761,506	62,05
761,935	62,1
762,365	61,94
762,794	61,75
763,223	61,76
763,653	62,31
764,082	62,03
764,51	62,07
764,939	61,8
765,368	62,36
765,797	62,07
766,225	61,51
766,654	61,24
767,082	61,6
767,51	61,68
767,938	61,35
768,367	61,85
768,795	61,45
769,222	61,46
769,65	61,49
770,078	61,57
770,505	61,39
770,933	61,28
771,36	61,32
771,788	61,52
772,215	61,63
772,642	61,17
773,069	61,06
773,496	61,41
773,923	61,32
774,349	61,24
774,776	61,5
775,203	61,43
775,629	61,39
776,055	61,42
776,482	61,23
776,908	61,17
777,334	60,86
777,76	61,17
778,186	60,43
778,611	60,95
779,037	61,21
779,463	61,19
779,888	60,97
780,314	60,77
780,739	60,94
781,164	60,63
781,589	60,37
782,014	60,48
782,439	60,72
782,864	60,44
783,289	60,8
783,713	60,18
784,138	61,12
784,562	60,93
784,987	60,63
785,411	60,39
785,835	61,05
786,259	61,03
786,683	60,33
787,107	60,58
787,531	60,69
787,954	60,3
788,378	60,8
788,802	60,28
789,225	60,07
789,648	60,71
790,071	60,51
790,495	60,21
790,918	60,53
791,34	60,78
791,763	59,95
792,186	60,35
792,609	60,62
793,031	60,13
793,454	60,39
793,876	60,51
794,298	60,27
794,721	60,63
795,143	60,18
795,565	60,18
795,986	59,89
796,408	59,78
796,83	60,47
797,252	60,3
797,673	60,34
798,094	60,43
798,516	60,22
798,937	60,3
799,358	60,54
799,779	61,08
800,2	60,4
800,621	60,38
801,042	60,04
801,462	59,92
801,883	59,47
802,303	59,94
802,724	60,1
803,144	60,07
803,564	59,67
803,984	60,09
804,404	60,34
804,824	59,92
805,244	60,41
805,664	60,08
806,084	59,93
806,503	59,91
806,923	59,74
807,342	60,29
807,761	60,22
808,18	60,72
808,599	60,22
809,018	60,4
809,437	60,14
809,856	59,88
810,275	60,31
810,693	60,01
811,112	60,22
811,53	60,34
811,949	60,11
812,367	59,97
812,785	59,59
813,203	59,82
813,621	60,05
814,039	59,97
814,457	60,2
814,874	59,81
815,292	59,73
815,709	59,13
816,127	59,79
816,544	59,46
816,961	60,54
817,378	59,89
817,795	59,7
818,212	60,19
818,629	59,76
819,046	59,46
819,462	60,06
819,879	59,94
820,295	59,94
820,712	59,78
821,128	60,5
821,544	59,76
821,96	60,24
822,376	59,99
822,792	59,86
823,208	59,68
823,624	59,74
824,039	59,74
824,455	59,77
824,87	59,78
825,286	60,03
825,701	59,68
826,116	59,69
826,531	59,87
826,946	59,59
827,361	59,85
827,776	59,77
828,19	59,57
828,605	59,15
829,02	59,65
829,434	59,21
829,848	60
830,263	59,85
830,677	59,66
831,091	59,54
831,505	59,29
831,919	59,71
832,332	59,58
832,746	59,37
833,16	59,63
833,573	59,49
833,987	59,27
