Data from A_2_0_Relative__2__00002.txt Node

Date: Mon Jan 29 12:44:29 CET 2024
User: diatiterra
Spectrometer: HDX00911
Trigger mode: 0
Integration Time (sec): 6,000000E-3
Scans to average: 4
Nonlinearity correction enabled: false
Boxcar width: 0
Storing dark spectrum: false
XAxis mode: Wavelengths
Number of Pixels in Spectrum: 2068
>>>>>Begin Spectral Data<<<<<
194,468	102,74
195,025	90,14
195,581	98,48
196,138	96,55
196,694	96,55
197,251	82,35
197,807	104,32
198,363	90,34
198,919	78,37
199,474	83,11
200,03	80,65
200,586	73,64
201,141	67,67
201,696	80,95
202,251	95,07
202,806	84,65
203,361	74,43
203,916	80,34
204,471	79,31
205,025	83,69
205,58	84,95
206,134	72,52
206,688	77,78
207,242	63,87
207,796	77,09
208,35	80,91
208,904	85
209,457	89,11
210,011	96,35
210,564	81,74
211,117	75,19
211,67	88,38
212,223	79,3
212,776	87,18
213,329	76,38
213,881	68,09
214,434	77,19
214,986	81,7
215,538	75
216,09	86,43
216,642	78,26
217,194	73,17
217,746	84,1
218,297	82,59
218,849	74,27
219,4	81,74
219,951	82,5
220,502	85,27
221,053	71,43
221,604	74,79
222,155	67,12
222,705	64,56
223,256	88,31
223,806	90,41
224,356	77,87
224,906	72,89
225,456	83,33
226,006	72,24
226,556	85,78
227,106	81,86
227,655	80,79
228,204	79,63
228,754	83,67
229,303	64,91
229,852	85,89
230,401	74,77
230,949	86,96
231,498	82,01
232,047	72,2
232,595	63,42
233,143	80,26
233,691	79,76
234,239	72,96
234,787	84,55
235,335	77,78
235,883	89,69
236,43	83,8
236,978	71,03
237,525	70,73
238,072	96,46
238,619	90,22
239,166	84,55
239,713	77,48
240,26	80
240,806	77,69
241,353	83,96
241,899	73,47
242,445	86,01
242,991	90,62
243,537	78,57
244,083	89,03
244,629	75,28
245,174	120,45
245,72	85,53
246,265	70,87
246,81	82,79
247,355	75,2
247,9	76,99
248,445	99,46
248,99	85
249,534	66,53
250,079	83,98
250,623	84,26
251,168	78,83
251,712	68,8
252,256	91,22
252,8	84,78
253,343	79,8
253,887	75,32
254,43	76,33
254,974	88,14
255,517	81,74
256,06	79,11
256,603	81,59
257,146	86,53
257,689	65,5
258,232	68,12
258,774	74,05
259,317	83,84
259,859	82,65
260,401	83,93
260,943	111,41
261,485	84,47
262,027	82,67
262,569	81,82
263,11	84,62
263,652	90,2
264,193	66,67
264,734	79,7
265,275	86,82
265,816	73,68
266,357	80,09
266,898	102,99
267,438	83,41
267,979	88,26
268,519	81,15
269,059	80,86
269,6	88,07
270,14	77,88
270,68	85
271,219	66,14
271,759	91,82
272,298	94,62
272,838	90,05
273,377	85,97
273,916	68,81
274,455	78,44
274,994	77,23
275,533	74,43
276,072	78,95
276,61	83,33
277,149	74,36
277,687	70,67
278,225	75,83
278,763	65,86
279,301	72,88
279,839	79,82
280,377	56,35
280,914	72,84
281,452	92,35
281,989	75,49
282,526	75,7
283,064	91,18
283,601	66,37
284,137	74,66
284,674	67,65
285,211	80,85
285,747	79,91
286,284	77,06
286,82	73,08
287,356	72,49
287,892	81,5
288,428	69,1
288,964	85,84
289,5	67,92
290,035	81,4
290,571	78,37
291,106	82,78
291,641	83,57
292,176	75,12
292,711	75,21
293,246	62,4
293,781	90,14
294,315	75,92
294,85	82,59
295,384	75,45
295,918	75,96
296,453	82,59
296,987	63,71
297,52	88,1
298,054	81,55
298,588	78,79
299,121	88,56
299,655	80,88
300,188	90,76
300,721	77,18
301,254	88,46
301,787	68,64
302,32	92,31
302,853	92,65
303,385	73,31
303,918	90,45
304,45	67,15
304,982	75,23
305,514	86,24
306,046	61,32
306,578	77,83
307,11	67,15
307,641	80,44
308,173	72,27
308,704	77,88
309,236	85,92
309,767	68,38
310,298	77,88
310,829	74,35
311,359	62,98
311,89	90,48
312,421	83,96
312,951	75,12
313,481	75,47
314,012	72,27
314,542	96,83
315,072	70,27
315,601	76,15
316,131	76,24
316,661	61,36
317,19	78,82
317,72	70,98
318,249	66,82
318,778	65,22
319,307	80,68
319,836	76,68
320,365	79,81
320,893	75
321,422	88,99
321,95	60,25
322,479	86,4
323,007	98,24
323,535	86,87
324,063	74,31
324,591	61,79
325,118	73,91
325,646	71,3
326,173	69,38
326,701	73,57
327,228	74,32
327,755	65,84
328,282	67,76
328,809	72,91
329,336	79,79
329,862	74,53
330,389	71,88
330,915	71,18
331,441	88,72
331,968	75,41
332,494	68,72
333,02	59,92
333,545	76,65
334,071	63,21
334,597	72,46
335,122	64,25
335,648	70,37
336,173	68,81
336,698	68,16
337,223	75,13
337,748	69,53
338,272	73,68
338,797	63,5
339,322	62,77
339,846	79,27
340,37	92,66
340,894	57,01
341,419	67,08
341,942	73,68
342,466	70,9
342,99	90,52
343,514	74,9
344,037	83,67
344,56	71,76
345,084	75
345,607	75,2
346,13	65,2
346,653	64,62
347,175	63,46
347,698	70,16
348,221	82,28
348,743	67,55
349,265	70,3
349,787	69,92
350,309	70,79
350,831	69,23
351,353	74,91
351,875	77,82
352,397	65,11
352,918	73,9
353,439	73,05
353,961	69,31
354,482	64,77
355,003	75
355,524	65,8
356,044	71,43
356,565	79,86
357,086	72,98
357,606	64,36
358,126	72,14
358,646	72,41
359,167	70,95
359,687	58,15
360,206	72,9
360,726	69,55
361,246	68,62
361,765	68,46
362,285	64,69
362,804	62,5
363,323	65,77
363,842	59,72
364,361	68,62
364,88	65,83
365,398	71,55
365,917	73,31
366,435	66,37
366,954	64,72
367,472	54,07
367,99	64,36
368,508	63,02
369,026	63,91
369,544	59,69
370,061	69,92
370,579	59,56
371,096	68,15
371,613	68,78
372,131	65,06
372,648	61,95
373,165	61,18
373,681	60,82
374,198	58,12
374,715	60
375,231	63,12
375,747	56,61
376,264	61,8
376,78	64,04
377,296	57,46
377,812	62,73
378,327	67,16
378,843	56,85
379,359	55,56
379,874	57,61
380,389	60,11
380,905	57,69
381,42	58
381,935	54,14
382,449	57,86
382,964	58,02
383,479	54,33
383,993	55,92
384,508	51,87
385,022	57,28
385,536	53,6
386,05	55,2
386,564	51,42
387,078	53,75
387,592	49,87
388,105	51,77
388,619	49,14
389,132	44,59
389,645	51,12
390,158	45,92
390,671	47,78
391,184	45,37
391,697	49,35
392,21	47,87
392,722	49,41
393,235	44,66
393,747	43,59
394,259	48,35
394,771	44,42
395,283	43
395,795	42,72
396,307	43,65
396,818	44,82
397,33	42,3
397,841	40,51
398,353	43,26
398,864	43,1
399,375	41,96
399,886	41,65
400,397	39,48
400,907	37,66
401,418	37,33
401,928	34,97
402,439	33,91
402,949	35,33
403,459	33,67
403,969	34,1
404,479	31,45
404,989	33,02
405,498	30,57
406,008	30,65
406,517	31,35
407,027	28,14
407,536	28,23
408,045	27,15
408,554	26,57
409,063	24,41
409,572	26,1
410,08	24,87
410,589	25,53
411,097	24,47
411,606	24,33
412,114	23,24
412,622	23,18
413,13	20,41
413,638	22,25
414,145	22,21
414,653	20,24
415,16	19,77
415,668	19,32
416,175	20,02
416,682	18,33
417,189	17,91
417,696	18,7
418,203	17,89
418,71	17,63
419,216	17,93
419,723	17,44
420,229	16,9
420,735	16,86
421,242	17,16
421,748	17,57
422,254	17,61
422,759	16,07
423,265	16,1
423,771	16,25
424,276	17,16
424,781	15,71
425,287	16,19
425,792	15,93
426,297	15,21
426,802	15,39
427,306	16,36
427,811	16,17
428,316	15,49
428,82	14,44
429,324	15,32
429,829	15,98
430,333	15,87
430,837	14,78
431,34	15,79
431,844	15,06
432,348	16,51
432,851	15,49
433,355	15,72
433,858	14,62
434,361	15,39
434,864	14,95
435,367	14,53
435,87	15,18
436,373	14,52
436,876	15,29
437,378	15,24
437,88	15,22
438,383	15,02
438,885	14,9
439,387	14,7
439,889	14,5
440,391	14,42
440,892	14,58
441,394	14,84
441,896	14,49
442,397	15,02
442,898	14,98
443,399	14,38
443,9	15,18
444,401	14,25
444,902	15,02
445,403	15
445,903	14,97
446,404	14,4
446,904	14,35
447,405	15,23
447,905	14,76
448,405	15,2
448,905	15,15
449,404	15,07
449,904	14,94
450,404	15,12
450,903	15,26
451,403	13,97
451,902	14,89
452,401	14,77
452,9	14,77
453,399	14,89
453,898	15,39
454,396	15,64
454,895	14,97
455,393	15,35
455,892	15,16
456,39	15,66
456,888	15,23
457,386	14,79
457,884	15,34
458,382	15
458,879	15,43
459,377	14,76
459,874	14,79
460,372	15,43
460,869	15,33
461,366	15,11
461,863	15,1
462,36	15,33
462,857	15,19
463,353	15,44
463,85	15
464,346	14,81
464,843	15,2
465,339	15,32
465,835	15,17
466,331	15,69
466,827	15,14
467,323	15,34
467,818	15,69
468,314	14,82
468,809	15,01
469,305	15,23
469,8	15,47
470,295	15,17
470,79	15
471,285	15,74
471,78	15,1
472,274	14,95
472,769	15,27
473,263	15,47
473,758	15,27
474,252	15,36
474,746	15,08
475,24	15,26
475,734	15,38
476,228	14,68
476,721	15,07
477,215	15,37
477,708	15,42
478,202	15,97
478,695	15,72
479,188	15,04
479,681	15,64
480,174	15,25
480,667	15,48
481,159	15,13
481,652	15,55
482,144	15,34
482,637	15,76
483,129	15,14
483,621	15,6
484,113	15,9
484,605	15,32
485,097	15,93
485,588	15,32
486,08	15,53
486,571	15,8
487,063	15,73
487,554	15,67
488,045	15,76
488,536	15,65
489,027	15,46
489,518	16,18
490,008	15,48
490,499	15,89
490,989	16,19
491,48	15,54
491,97	16,33
492,46	16,05
492,95	15,78
493,44	16,6
493,93	16,27
494,419	16,38
494,909	16,31
495,398	15,69
495,888	16,28
496,377	15,99
496,866	16,18
497,355	16,53
497,844	16,58
498,333	16,61
498,821	17,04
499,31	16,72
499,798	16,82
500,287	16,97
500,775	17,54
501,263	17,31
501,751	17,06
502,239	17,61
502,727	17,51
503,215	17,56
503,702	17,9
504,19	18,66
504,677	18,59
505,164	18,45
505,651	18,81
506,139	18,79
506,625	19,14
507,112	18,93
507,599	19,05
508,086	19,54
508,572	20,09
509,058	20,05
509,545	20,04
510,031	20,89
510,517	21
511,003	21,28
511,489	21,55
511,974	21,83
512,46	22,38
512,946	22,39
513,431	22,46
513,916	23,03
514,401	23,64
514,887	24,12
515,371	24,5
515,856	24,94
516,341	25,05
516,826	25,22
517,31	26,22
517,795	26,44
518,279	26,59
518,763	27,66
519,247	27,58
519,731	28,44
520,215	29,24
520,699	29,06
521,182	30,03
521,666	30,47
522,149	31,37
522,633	31,57
523,116	31,75
523,599	32,46
524,082	32,94
524,565	33,86
525,048	33,81
525,53	34,41
526,013	34,57
526,495	34,78
526,978	35,17
527,46	35,3
527,942	35,99
528,424	36,88
528,906	37,27
529,388	37,55
529,87	37,77
530,351	37,76
530,833	38,44
531,314	38,84
531,795	38,91
532,277	39,59
532,758	39,57
533,238	39,53
533,719	40,18
534,2	40,33
534,681	40,57
535,161	39,97
535,642	41,05
536,122	41,72
536,602	41,06
537,082	41,32
537,562	41,61
538,042	40,97
538,522	41,33
539,001	41,75
539,481	41,4
539,96	41,95
540,44	41,88
540,919	41,95
541,398	42,29
541,877	41,99
542,356	42,4
542,835	42,53
543,313	42,72
543,792	42,64
544,27	42,43
544,749	42,19
545,227	42,88
545,705	42,45
546,183	42,97
546,661	42,85
547,139	42,19
547,616	42,92
548,094	42,63
548,571	43,36
549,049	43,08
549,526	43,42
550,003	43,23
550,48	43,09
550,957	43,47
551,434	43,21
551,911	43,68
552,387	43,76
552,864	43,96
553,34	43,42
553,817	43,82
554,293	43,51
554,769	43,38
555,245	43,18
555,721	43,03
556,197	44,04
556,672	43,47
557,148	42,65
557,623	43,17
558,099	43,05
558,574	43,17
559,049	43,25
559,524	42,98
559,999	42,5
560,474	42,64
560,948	42,7
561,423	41,95
561,897	42,53
562,372	41,9
562,846	41,92
563,32	41,88
563,794	41,64
564,268	41,39
564,742	40,8
565,216	40,64
565,69	40,42
566,163	39,94
566,636	40,1
567,11	39,38
567,583	39,36
568,056	38,99
568,529	38,78
569,002	38,26
569,475	38,49
569,947	37,88
570,42	37,53
570,892	37,76
571,365	37,58
571,837	36,48
572,309	36,85
572,781	36,18
573,253	36,07
573,725	35,75
574,197	35,6
574,668	35,54
575,14	34,9
575,611	34,89
576,082	34,57
576,554	34,13
577,025	34,16
577,496	34,03
577,967	33,62
578,437	33,25
578,908	33,3
579,379	32,8
579,849	32,67
580,319	32,23
580,79	32,43
581,26	31,96
581,73	31,31
582,2	31,86
582,669	31,55
583,139	31,46
583,609	31,38
584,078	31,11
584,548	30,87
585,017	30,58
585,486	30,36
585,955	30,38
586,424	30,02
586,893	30,18
587,362	29,94
587,83	29,86
588,299	29,7
588,767	29,8
589,236	29,49
589,704	29,53
590,172	29,31
590,64	29,42
591,108	29,23
591,576	29,01
592,043	28,89
592,511	28,82
592,978	28,77
593,446	28,71
593,913	28,88
594,38	28,12
594,847	28,49
595,314	28,39
595,781	28,29
596,248	28,42
596,715	28,18
597,181	28,19
597,647	27,64
598,114	28,21
598,58	28,1
599,046	27,59
599,512	28,17
599,978	27,77
600,444	27,95
600,91	27,65
601,375	27,74
601,841	27,7
602,306	27,27
602,771	27,86
603,236	27,63
603,702	27,29
604,167	27,38
604,631	27,47
605,096	27,05
605,561	26,8
606,025	26,78
606,49	26,62
606,954	26,75
607,418	26,6
607,882	25,76
608,347	26,44
608,81	26,13
609,274	25,92
609,738	25,72
610,202	25,57
610,665	25,62
611,128	25,38
611,592	25,17
612,055	25,34
612,518	25,16
612,981	24,91
613,444	24,71
613,907	24,45
614,369	24,76
614,832	24,46
615,294	24,36
615,757	24,09
616,219	24,1
616,681	23,73
617,143	23,55
617,605	23,59
618,067	23,39
618,529	23,55
618,99	23,42
619,452	23,15
619,913	22,98
620,375	23,02
620,836	23,2
621,297	22,84
621,758	22,69
622,219	22,67
622,68	22,91
623,14	22,65
623,601	22,6
624,061	22,31
624,522	22,29
624,982	22,41
625,442	22,26
625,902	21,96
626,362	22,21
626,822	22,14
627,282	22,07
627,742	21,98
628,201	22,06
628,661	22,22
629,12	22,06
629,579	22,21
630,038	21,83
630,497	22,13
630,956	21,93
631,415	21,89
631,874	22,12
632,332	21,82
632,791	21,83
633,249	21,77
633,708	21,65
634,166	21,62
634,624	21,44
635,082	21,28
635,54	21,65
635,998	21,12
636,455	21,05
636,913	21,04
637,37	20,71
637,828	20,72
638,285	20,91
638,742	20,55
639,199	20,55
639,656	20,18
640,113	20,28
640,57	20,06
641,027	19,96
641,483	19,84
641,94	19,5
642,396	19,38
642,852	19,13
643,309	19,43
643,765	19,28
644,221	18,9
644,676	19,04
645,132	18,57
645,588	18,6
646,043	18,55
646,499	18,36
646,954	18,05
647,409	17,77
647,864	17,71
648,319	17,91
648,774	17,52
649,229	17,52
649,684	17,3
650,139	17,21
650,593	17,03
651,047	17,12
651,502	17,13
651,956	17,08
652,41	16,9
652,864	17,13
653,318	16,91
653,772	16,55
654,225	16,68
654,679	16,45
655,133	16,21
655,586	16,59
656,039	16,49
656,492	16,31
656,946	16,3
657,399	16,09
657,851	16,13
658,304	15,95
658,757	15,91
659,209	15,85
659,662	15,72
660,114	15,71
660,567	15,51
661,019	15,47
661,471	15,45
661,923	15,44
662,375	15,2
662,826	15,4
663,278	15,13
663,73	14,85
664,181	15,1
664,632	15,01
665,084	14,87
665,535	14,83
665,986	14,95
666,437	14,9
666,888	14,79
667,338	14,83
667,789	14,74
668,24	14,9
668,69	14,93
669,14	14,77
669,591	14,82
670,041	14,59
670,491	15,14
670,941	15,09
671,391	14,9
671,84	15,19
672,29	15,35
672,74	15,27
673,189	15,4
673,638	15,42
674,088	15,58
674,537	15,54
674,986	15,59
675,435	15,86
675,883	15,62
676,332	15,9
676,781	15,91
677,229	15,93
677,678	16,27
678,126	16,17
678,574	16,49
679,022	16,62
679,47	16,74
679,918	16,93
680,366	17,03
680,814	16,98
681,261	17,23
681,709	17,46
682,156	17,53
682,604	17,67
683,051	17,81
683,498	17,84
683,945	18,03
684,392	18,11
684,839	18,18
685,286	18,34
685,732	18,45
686,179	18,6
686,625	18,7
687,071	19,03
687,518	19,02
687,964	19,34
688,41	19,78
688,856	19,86
689,301	20,28
689,747	20,41
690,193	20,82
690,638	21,17
691,084	21,74
691,529	22,2
691,974	22,54
692,419	23,4
692,864	24,02
693,309	24,55
693,754	25,26
694,199	25,73
694,643	26,78
695,088	27,54
695,532	28,52
695,977	29,29
696,421	30,17
696,865	30,7
697,309	31,71
697,753	32,91
698,197	33,93
698,64	34,87
699,084	35,75
699,527	37,04
699,971	37,69
700,414	38,72
700,857	39,79
701,3	40,9
701,743	41,81
702,186	42,88
702,629	43,74
703,072	44,75
703,515	45,67
703,957	46,63
704,399	47,46
704,842	48,52
705,284	49,5
705,726	50,46
706,168	51,32
706,61	52,28
707,052	53,41
707,494	54,25
707,935	55,17
708,377	56,39
708,818	56,83
709,26	58,23
709,701	58,65
710,142	59,8
710,583	60,29
711,024	61,27
711,465	61,89
711,905	63,11
712,346	63,92
712,787	65,25
713,227	65,54
713,667	66,5
714,108	67,55
714,548	68,54
714,988	69,28
715,428	69,66
715,868	70,21
716,307	71,1
716,747	72,23
717,186	72,84
717,626	73,08
718,065	74,58
718,504	74,53
718,944	75,54
719,383	76,43
719,822	77,08
720,261	78,11
720,699	78,9
721,138	79,01
721,576	79,94
722,015	80,9
722,453	80,74
722,892	82,07
723,33	82,66
723,768	82,9
724,206	83,61
724,644	83,83
725,081	84,88
725,519	84,78
725,957	85,92
726,394	86,28
726,832	86,66
727,269	87
727,706	88,33
728,143	87,98
728,58	88,91
729,017	89,2
729,454	89,22
729,89	89,92
730,327	89,79
730,764	90,5
731,2	91,02
731,636	90,85
732,072	90,57
732,509	91,94
732,945	92,54
733,38	92,47
733,816	93,01
734,252	93,75
734,688	93,42
735,123	93,73
735,559	94,51
735,994	93,95
736,429	93,87
736,864	94,56
737,299	94,31
737,734	94,3
738,169	95,02
738,604	95,03
739,038	95,59
739,473	94,89
739,907	95,51
740,342	95,94
740,776	96,07
741,21	96,61
741,644	96,81
742,078	96,32
742,512	96,5
742,946	96,57
743,379	96,94
743,813	97,41
744,246	97,09
744,68	97,52
745,113	97,47
745,546	97,27
745,979	97,65
746,412	97,41
746,845	97,55
747,278	97,63
747,711	97,04
748,143	97,52
748,576	97,35
749,008	97,63
749,441	96,97
749,873	97,81
750,305	97,72
750,737	97,95
751,169	97,26
751,601	97,24
752,032	97,87
752,464	97,81
752,896	97,79
753,327	97,62
753,758	97,91
754,19	97,69
754,621	98,2
755,052	97,55
755,483	97,57
755,914	97,7
756,344	97,98
756,775	97,64
757,206	97,78
757,636	97,84
758,066	97,71
758,497	97,45
758,927	97,58
759,357	97,51
759,787	97,74
760,217	97,71
760,647	97,14
761,076	97,47
761,506	97,27
761,935	97,97
762,365	97,71
762,794	97,04
763,223	96,47
763,653	97,38
764,082	97,13
764,51	96,85
764,939	97,2
765,368	97,32
765,797	96,9
766,225	96,8
766,654	97,24
767,082	96,98
767,51	97,26
767,938	97,56
768,367	97,61
768,795	96,85
769,222	96,86
769,65	97,15
770,078	97,19
770,505	97,03
770,933	96,75
771,36	96,76
771,788	96,64
772,215	96,62
772,642	97,39
773,069	97,02
773,496	96,78
773,923	96,67
774,349	96,5
774,776	97,31
775,203	96,35
775,629	96,58
776,055	96,81
776,482	96,95
776,908	96,06
777,334	96,59
777,76	96,57
778,186	96,27
778,611	96,8
779,037	96,46
779,463	96,58
779,888	96,7
780,314	96,77
780,739	96,89
781,164	96,45
781,589	96,09
782,014	96,43
782,439	96,57
782,864	96,73
783,289	96,85
783,713	96,07
784,138	96,82
784,562	96,62
784,987	95,73
785,411	96,21
785,835	96,62
786,259	96,2
786,683	96,79
787,107	96,25
787,531	96,8
787,954	96,67
788,378	95,98
788,802	96,91
789,225	96,77
789,648	96,84
790,071	96,25
790,495	96,82
790,918	96,45
791,34	96,74
791,763	96,8
792,186	96,68
792,609	96,21
793,031	96,57
793,454	96,49
793,876	96,84
794,298	95,94
794,721	96,21
795,143	96,13
795,565	96,23
795,986	96,46
796,408	96,16
796,83	96,25
797,252	96,42
797,673	96,66
798,094	96,08
798,516	95,72
798,937	96,25
799,358	96,24
799,779	96,43
800,2	96,05
800,621	96,31
801,042	97,05
801,462	96,32
801,883	96,08
802,303	95,91
802,724	96,39
803,144	96,34
803,564	96,24
803,984	96,22
804,404	96,66
804,824	96,7
805,244	96,29
805,664	96,79
806,084	96,32
806,503	96,06
806,923	95,92
807,342	96,57
807,761	96,49
808,18	96,25
808,599	96,09
809,018	95,58
809,437	96,16
809,856	96,23
810,275	96,66
810,693	96,47
811,112	95,88
811,53	96,24
811,949	96,36
812,367	96,03
812,785	96,26
813,203	95,84
813,621	95,64
814,039	95,99
814,457	96,69
814,874	96,15
815,292	96,06
815,709	96,7
816,127	95,81
816,544	96,28
816,961	95,79
817,378	96,39
817,795	96,26
818,212	95,93
818,629	95,92
819,046	96,23
819,462	96,28
819,879	96,28
820,295	96,83
820,712	96,06
821,128	96,24
821,544	96,16
821,96	96,02
822,376	95,93
822,792	95,86
823,208	95,77
823,624	95,55
824,039	96,16
824,455	96
824,87	96,74
825,286	96,63
825,701	95,98
826,116	95,94
826,531	96,3
826,946	95,74
827,361	96,03
827,776	95,48
828,19	95,76
828,605	95,74
829,02	96,26
829,434	96,4
829,848	96,61
830,263	96,06
830,677	95,91
831,091	96,37
831,505	95,87
831,919	95,64
832,332	95,84
832,746	95,93
833,16	96,09
833,573	95,61
833,987	95,68
