Data from A_2_0_Relative__7__00007.txt Node

Date: Mon Jan 29 12:44:54 CET 2024
User: diatiterra
Spectrometer: HDX00911
Trigger mode: 0
Integration Time (sec): 6,000000E-3
Scans to average: 4
Nonlinearity correction enabled: false
Boxcar width: 0
Storing dark spectrum: false
XAxis mode: Wavelengths
Number of Pixels in Spectrum: 2068
>>>>>Begin Spectral Data<<<<<
194,468	89,04
195,025	69,01
195,581	104,55
196,138	93,1
196,694	96,55
197,251	91,98
197,807	88,11
198,363	89,86
198,919	78,78
199,474	79,45
200,03	70,05
200,586	74,55
201,141	73,28
201,696	73,16
202,251	87,19
202,806	85,12
203,361	87,21
203,916	80,77
204,471	96,55
205,025	86,27
205,58	88,83
206,134	84,23
206,688	72,22
207,242	77,73
207,796	85,02
208,35	81,82
208,904	75
209,457	68,87
210,011	94,52
210,564	81,74
211,117	73,26
211,67	87,14
212,223	78,85
212,776	89,32
213,329	82,28
213,881	66,93
214,434	86,84
214,986	80,43
215,538	77,05
216,09	91,96
216,642	84,78
217,194	76,02
217,746	90,38
218,297	74,11
218,849	78,42
219,4	93,78
219,951	90
220,502	81,7
221,053	69,33
221,604	91,45
222,155	83,33
222,705	74,68
223,256	86,15
223,806	84,02
224,356	75,41
224,906	75,46
225,456	89,47
226,006	77,14
226,556	88,07
227,106	75,95
227,655	76,42
228,204	81,48
228,754	66,12
229,303	84,65
229,852	80,65
230,401	76,13
230,949	100,43
231,498	65,69
232,047	84,65
232,595	74,71
233,143	81,97
233,691	79,76
234,239	71,67
234,787	73,64
235,335	84,36
235,883	75,34
236,43	88,43
236,978	76,64
237,525	85,37
238,072	84,07
238,619	83,56
239,166	82,83
239,713	89,19
240,26	82,75
240,806	90,44
241,353	77,36
241,899	83,27
242,445	81,48
242,991	76,79
243,537	75,89
244,083	90,3
244,629	75,28
245,174	102,27
245,72	88,09
246,265	72,61
246,81	88,84
247,355	69,51
247,9	78,66
248,445	92,47
248,99	75,83
249,534	74,29
250,079	86,89
250,623	93,4
251,168	90,54
251,712	76,4
252,256	90,24
252,8	73,48
253,343	82,27
253,887	91,77
254,43	72,95
254,974	88,14
255,517	74,69
256,06	94,22
256,603	73,13
257,146	98,96
257,689	68,22
258,232	72,93
258,774	87,57
259,317	69,87
259,859	86,3
260,401	89,73
260,943	96,74
261,485	91,26
262,027	82,18
262,569	65,66
263,11	83,76
263,652	82,84
264,193	78,86
264,734	70,79
265,275	73,64
265,816	76,75
266,357	82,81
266,898	87,43
267,438	80,57
267,979	72,17
268,519	78,28
269,059	80,86
269,6	74,77
270,14	76,44
270,68	77,5
271,219	75,2
271,759	89,09
272,298	102,69
272,838	74,41
273,377	84,62
273,916	85,78
274,455	83,49
274,994	81,25
275,533	68,49
276,072	85,96
276,61	88,24
277,149	68,72
277,687	72
278,225	70,62
278,763	75,1
279,301	64,83
279,839	77,19
280,377	74,11
280,914	69,83
281,452	85,2
281,989	88,73
282,526	77,1
283,064	79,41
283,601	73,99
284,137	80,54
284,674	75,98
285,211	75,32
285,747	64,53
286,284	69,27
286,82	75,64
287,356	75,98
287,892	66,5
288,428	83,69
288,964	74,34
289,5	67,92
290,035	84,65
290,571	79,33
291,106	75
291,641	99,03
292,176	88,04
292,711	72,22
293,246	78,8
293,781	81,22
294,315	70,16
294,85	79,1
295,384	80
295,918	72,6
296,453	91,54
296,987	59,68
297,52	97,62
298,054	76,21
298,588	83,55
299,121	79,1
299,655	83,33
300,188	79,89
300,721	70,12
301,254	73,56
301,787	76,36
302,32	83,17
302,853	83,82
303,385	70,34
303,918	81,91
304,45	77,78
304,982	73,87
305,514	91,01
306,046	68,31
306,578	75,47
307,11	91,79
307,641	72
308,173	69,33
308,704	75,22
309,236	76,21
309,767	55,98
310,298	75,66
310,829	66,52
311,359	68,94
311,89	73,54
312,421	66,31
312,951	73,71
313,481	70,28
314,012	83,64
314,542	88,89
315,072	81,62
315,601	77,06
316,131	78,22
316,661	67,73
317,19	92,12
317,72	76,17
318,249	70,05
318,778	67,63
319,307	70,53
319,836	73,99
320,365	75
320,893	77,72
321,422	67,43
321,95	59,41
322,479	85,53
323,007	92,35
323,535	88,89
324,063	76,15
324,591	71,23
325,118	71,3
325,646	66,82
326,173	88,52
326,701	81,5
327,228	77,48
327,755	69,31
328,282	79,78
328,809	74,88
329,336	77,72
329,862	84,91
330,389	75,89
330,915	65,07
331,441	75,38
331,968	76,5
332,494	84,36
333,02	57,94
333,545	77,53
334,071	67,92
334,597	82,13
335,122	71,49
335,648	77,78
336,173	65,14
336,698	69,96
337,223	71,43
337,748	84,12
338,272	86,32
338,797	79,5
339,322	63,2
339,846	73,58
340,37	84,18
340,894	64,95
341,419	67,92
341,942	75
342,466	71,72
342,99	79,31
343,514	71,97
344,037	77,04
344,56	71,3
345,084	56,52
345,607	67,48
346,13	64,8
346,653	59,23
347,175	70,38
347,698	68,55
348,221	68,5
348,743	75,47
349,265	65,79
349,787	84,15
350,309	67,01
350,831	71,43
351,353	68,46
351,875	79,5
352,397	74,46
352,918	73,16
353,439	69,14
353,961	76,55
354,482	66,9
355,003	64,55
355,524	72,31
356,044	66,67
356,565	71,53
357,086	65,26
357,606	68,86
358,126	75,23
358,646	65,86
359,167	71,87
359,687	64
360,206	67,74
360,726	69,55
361,246	70,67
361,765	68,79
362,285	67,36
362,804	61,96
363,323	64,56
363,842	67,22
364,361	72
364,88	61,34
365,398	66,86
365,917	65,69
366,435	65,77
366,954	65,52
367,472	62,47
367,99	61,05
368,508	66,57
369,026	58,9
369,544	55,36
370,061	61,7
370,579	68,04
371,096	68,41
371,613	66,9
372,131	60,96
372,648	69,27
373,165	61,88
373,681	56,49
374,198	59,5
374,715	67,36
375,231	68,33
375,747	62,33
376,264	54,38
376,78	66,97
377,296	59,92
377,812	61,1
378,327	64,61
378,843	57,96
379,359	60,37
379,874	58,38
380,389	58,26
380,905	63,55
381,42	57,47
381,935	55,2
382,449	58,86
382,964	58,87
383,479	53,53
383,993	52,03
384,508	51,3
385,022	58,76
385,536	51
386,05	50
386,564	55,89
387,078	52,22
387,592	51,61
388,105	51,36
388,619	50,99
389,132	43,38
389,645	47,89
390,158	45,58
390,671	48,59
391,184	45,13
391,697	48,88
392,21	46,87
392,722	47,47
393,235	43,91
393,747	41,84
394,259	45,81
394,771	44,53
395,283	44,29
395,795	46,57
396,307	43,74
396,818	43,62
397,33	44,68
397,841	39,75
398,353	40,66
398,864	41,01
399,375	38,82
399,886	39,69
400,397	35,05
400,907	39,74
401,418	37,33
401,928	36,09
402,439	36,09
402,949	39,06
403,459	33,81
403,969	34,87
404,479	32,53
404,989	31,74
405,498	34,14
406,008	33,63
406,517	30,32
407,027	30,58
407,536	28,87
408,045	28,06
408,554	26,94
409,063	26,42
409,572	25,28
410,08	25,34
410,589	23,49
411,097	23,9
411,606	24,16
412,114	24,4
412,622	21,87
413,13	21,86
413,638	20,5
414,145	20,06
414,653	19,43
415,16	19,94
415,668	18,93
416,175	19,01
416,682	19,59
417,189	18,51
417,696	18,82
418,203	18,07
418,71	16,55
419,216	15,94
419,723	17,39
420,229	16,54
420,735	16
421,242	16,81
421,748	16,58
422,254	16,99
422,759	15,61
423,265	15,75
423,771	15,65
424,276	16,34
424,781	16,09
425,287	15,7
425,792	15,66
426,297	15,31
426,802	15,97
427,306	15,17
427,811	14,99
428,316	15,25
428,82	15,69
429,324	15,7
429,829	15,64
430,333	14,55
430,837	15,63
431,34	14,85
431,844	14,51
432,348	14,18
432,851	14,96
433,355	15,43
433,858	14,74
434,361	14,82
434,864	15,19
435,367	14,04
435,87	14,64
436,373	14,32
436,876	14,77
437,378	14,38
437,88	14,14
438,383	14,25
438,885	14,64
439,387	14,47
439,889	14,4
440,391	14,48
440,892	14,01
441,394	13,64
441,896	14,88
442,397	14,26
442,898	14,29
443,399	14,54
443,9	13,54
444,401	14,28
444,902	14,57
445,403	14,28
445,903	14,5
446,404	14,21
446,904	14,2
447,405	14,87
447,905	14,61
448,405	14,56
448,905	14,78
449,404	14,69
449,904	14,45
450,404	13,79
450,903	14,46
451,403	14,91
451,902	14,75
452,401	14,95
452,9	14,92
453,399	15,63
453,898	15,19
454,396	15,19
454,895	15,65
455,393	15,4
455,892	14,99
456,39	15,09
456,888	15,71
457,386	14,99
457,884	15,39
458,382	15,49
458,879	14,45
459,377	15
459,874	15,19
460,372	15,57
460,869	15,23
461,366	14,94
461,863	15,18
462,36	15,39
462,857	15,06
463,353	15,31
463,85	15,24
464,346	14,94
464,843	15,32
465,339	15,02
465,835	15,12
466,331	15,18
466,827	14,76
467,323	15,54
467,818	15,36
468,314	14,65
468,809	15,33
469,305	15,24
469,8	15,68
470,295	14,89
470,79	15,41
471,285	15,05
471,78	15,31
472,274	15,07
472,769	15,61
473,263	15,64
473,758	15,17
474,252	15,28
474,746	15,11
475,24	15,22
475,734	15,03
476,228	15,41
476,721	14,92
477,215	15,18
477,708	14,9
478,202	15,54
478,695	15,42
479,188	14,78
479,681	15,37
480,174	15,27
480,667	15,62
481,159	15,37
481,652	15,03
482,144	15,21
482,637	15,83
483,129	15,34
483,621	15,5
484,113	15,76
484,605	15,33
485,097	15,77
485,588	15,65
486,08	15,37
486,571	15,14
487,063	15,93
487,554	15,67
488,045	15,87
488,536	16,02
489,027	15,88
489,518	15,97
490,008	15,72
490,499	15,83
490,989	16,23
491,48	15,8
491,97	16,44
492,46	16,19
492,95	16,42
493,44	16,35
493,93	16,32
494,419	16,18
494,909	16,43
495,398	16,71
495,888	16,75
496,377	16,7
496,866	16,96
497,355	16,49
497,844	17,21
498,333	17
498,821	17,9
499,31	17,75
499,798	17,63
500,287	17,92
500,775	17,9
501,263	18,17
501,751	18,57
502,239	18,08
502,727	18,81
503,215	18,71
503,702	19,1
504,19	19,57
504,677	19,55
505,164	19,5
505,651	20,27
506,139	20,06
506,625	20,93
507,112	20,63
507,599	20,79
508,086	21,04
508,572	21,37
509,058	21,79
509,545	21,59
510,031	22,54
510,517	22,88
511,003	23,04
511,489	23,59
511,974	23,86
512,46	24,18
512,946	25,07
513,431	25,08
513,916	25,58
514,401	25,96
514,887	27,14
515,371	26,31
515,856	27,4
516,341	27,77
516,826	27,88
517,31	28,82
517,795	29,39
518,279	29,76
518,763	30,63
519,247	30,62
519,731	31
520,215	32,17
520,699	32,72
521,182	32,89
521,666	33,21
522,149	33,72
522,633	34,02
523,116	35,09
523,599	35,92
524,082	36,14
524,565	36,81
525,048	36,75
525,53	37,75
526,013	37,7
526,495	37,62
526,978	39,1
527,46	39,05
527,942	40,15
528,424	40,02
528,906	40,66
529,388	40,07
529,87	40,94
530,351	41,47
530,833	41,86
531,314	42,13
531,795	42,3
532,277	42,67
532,758	42,75
533,238	42,92
533,719	43,1
534,2	43,82
534,681	44,39
535,161	43,35
535,642	44,81
536,122	44,81
536,602	44,4
537,082	44,74
537,562	44,38
538,042	44,75
538,522	44,88
539,001	44,72
539,481	45,03
539,96	45,46
540,44	45,36
540,919	45,26
541,398	45,63
541,877	46,26
542,356	45,49
542,835	46,43
543,313	45,73
543,792	46,17
544,27	46,19
544,749	45,6
545,227	46,1
545,705	46,76
546,183	46,08
546,661	46,2
547,139	46,25
547,616	46,47
548,094	47,24
548,571	46,87
549,049	46,97
549,526	47,19
550,003	47,21
550,48	46,82
550,957	47,46
551,434	46,95
551,911	47,25
552,387	47,88
552,864	47,01
553,34	46,99
553,817	47,29
554,293	47,12
554,769	46,78
555,245	46,88
555,721	47,14
556,197	46,8
556,672	46,92
557,148	46,27
557,623	47,15
558,099	46,87
558,574	46,82
559,049	46,12
559,524	47,03
559,999	46,61
560,474	45,79
560,948	45,96
561,423	45,71
561,897	45,71
562,372	45,73
562,846	45,1
563,32	45,38
563,794	45,13
564,268	44,62
564,742	45,13
565,216	44,42
565,69	44,24
566,163	43,5
566,636	43,83
567,11	42,65
567,583	43,18
568,056	42,74
568,529	42,39
569,002	42,16
569,475	41,74
569,947	41,82
570,42	41,37
570,892	41,26
571,365	40,64
571,837	40,02
572,309	39,87
572,781	39,58
573,253	39,57
573,725	39,28
574,197	38,93
574,668	38,51
575,14	37,86
575,611	38,16
576,082	38,13
576,554	37,84
577,025	37,22
577,496	37,27
577,967	36,67
578,437	36,62
578,908	36,16
579,379	36,16
579,849	35,85
580,319	35,48
580,79	35,13
581,26	34,92
581,73	34,97
582,2	34,8
582,669	34,86
583,139	34,46
583,609	34,31
584,078	34,28
584,548	34
585,017	33,81
585,486	33,45
585,955	33,32
586,424	33,26
586,893	32,9
587,362	33,14
587,83	32,79
588,299	32,82
588,767	32,64
589,236	32,82
589,704	32,53
590,172	32,36
590,64	32,52
591,108	32,38
591,576	31,83
592,043	31,58
592,511	31,69
592,978	31,91
593,446	31,45
593,913	31,69
594,38	31,18
594,847	31,11
595,314	31,42
595,781	31
596,248	31,12
596,715	30,79
597,181	30,82
597,647	30,81
598,114	30,79
598,58	30,92
599,046	30,72
599,512	30,68
599,978	30,83
600,444	30,25
600,91	30,32
601,375	30,27
601,841	30,69
602,306	30,28
602,771	30,13
603,236	30,09
603,702	29,94
604,167	30,36
604,631	29,78
605,096	29,77
605,561	29,42
606,025	29,38
606,49	29,35
606,954	29,31
607,418	29,26
607,882	28,85
608,347	28,9
608,81	28,91
609,274	28,61
609,738	28,61
610,202	28,07
610,665	28,14
611,128	28,14
611,592	27,8
612,055	27,62
612,518	27,32
612,981	27,52
613,444	27,07
613,907	27,02
614,369	27,35
614,832	27,06
615,294	27
615,757	26,69
616,219	26,35
616,681	26
617,143	26,12
617,605	26,24
618,067	26,11
618,529	25,88
618,99	25,57
619,452	25,79
619,913	25,28
620,375	25,25
620,836	25,22
621,297	25,15
621,758	25,32
622,219	25,24
622,68	24,93
623,14	24,87
623,601	25,02
624,061	24,82
624,522	24,72
624,982	24,51
625,442	24,47
625,902	24,32
626,362	24,43
626,822	24,39
627,282	24,6
627,742	24,35
628,201	24,48
628,661	24,42
629,12	24,33
629,579	24,11
630,038	24,25
630,497	24,18
630,956	23,97
631,415	24,14
631,874	24,44
632,332	24,08
632,791	23,92
633,249	23,89
633,708	24,21
634,166	23,67
634,624	23,52
635,082	23,54
635,54	23,31
635,998	23,37
636,455	23,27
636,913	23,13
637,37	22,95
637,828	22,88
638,285	22,51
638,742	22,62
639,199	22,47
639,656	22,11
640,113	21,94
640,57	21,8
641,027	21,75
641,483	21,53
641,94	21,16
642,396	20,98
642,852	20,9
643,309	20,97
643,765	20,69
644,221	20,47
644,676	20,39
645,132	20,08
645,588	19,88
646,043	19,81
646,499	19,48
646,954	19,36
647,409	19,23
647,864	19,09
648,319	19,02
648,774	18,7
649,229	18,48
649,684	18,4
650,139	18,55
650,593	18,34
651,047	18,05
651,502	18,02
651,956	17,8
652,41	18,04
652,864	17,99
653,318	17,91
653,772	17,8
654,225	18,01
654,679	17,73
655,133	17,5
655,586	17,44
656,039	17,43
656,492	17,4
656,946	17,46
657,399	17,2
657,851	17,12
658,304	16,9
658,757	16,77
659,209	16,76
659,662	16,59
660,114	16,47
660,567	16,36
661,019	16,23
661,471	16,23
661,923	15,99
662,375	15,98
662,826	15,79
663,278	15,68
663,73	15,62
664,181	15,53
664,632	15,35
665,084	15,38
665,535	15,16
665,986	15,33
666,437	15,06
666,888	15,18
667,338	15,19
667,789	15,16
668,24	14,93
668,69	15,12
669,14	15,01
669,591	14,87
670,041	14,89
670,491	14,98
670,941	14,96
671,391	15,04
671,84	15,13
672,29	15,15
672,74	15,1
673,189	15,21
673,638	15,23
674,088	15,34
674,537	15,36
674,986	15,63
675,435	15,72
675,883	15,42
676,332	15,7
676,781	15,74
677,229	15,8
677,678	15,98
678,126	16,16
678,574	16,13
679,022	16,37
679,47	16,5
679,918	16,78
680,366	16,96
680,814	17,06
681,261	17,15
681,709	17,34
682,156	17,43
682,604	17,52
683,051	17,64
683,498	17,9
683,945	18,01
684,392	18,48
684,839	18,32
685,286	18,79
685,732	18,8
686,179	18,88
686,625	19,31
687,071	19,59
687,518	19,84
687,964	20,13
688,41	20,51
688,856	20,98
689,301	21,31
689,747	22,02
690,193	22,42
690,638	23,01
691,084	23,29
691,529	24,14
691,974	24,83
692,419	25,47
692,864	26,32
693,309	27,12
693,754	27,96
694,199	28,77
694,643	30,06
695,088	30,45
695,532	31,53
695,977	32,52
696,421	33,3
696,865	34,42
697,309	35,12
697,753	36,28
698,197	37,14
698,64	38,63
699,084	39,35
699,527	40,57
699,971	41,39
700,414	42,61
700,857	43,62
701,3	44,5
701,743	45,61
702,186	46,76
702,629	46,97
703,072	48,77
703,515	49,38
703,957	50,16
704,399	51,64
704,842	52,35
705,284	53,21
705,726	53,99
706,168	54,88
706,61	55,79
707,052	56,76
707,494	57,69
707,935	58,17
708,377	59,19
708,818	60,29
709,26	61,28
709,701	61,8
710,142	62,6
710,583	63,04
711,024	64,07
711,465	64,73
711,905	65,64
712,346	66,11
712,787	67,21
713,227	68,23
713,667	68,67
714,108	69,69
714,548	70,3
714,988	71,26
715,428	71,2
715,868	72,35
716,307	73,21
716,747	73,44
717,186	74,52
717,626	74,82
718,065	75,86
718,504	76,22
718,944	76,59
719,383	76,98
719,822	77,7
720,261	78,38
720,699	79,49
721,138	79,86
721,576	79,88
722,015	81,52
722,453	81,76
722,892	82,29
723,33	82,5
723,768	82,61
724,206	83,36
724,644	83,59
725,081	84,8
725,519	84,58
725,957	85,53
726,394	85,58
726,832	85,97
727,269	86,14
727,706	87,74
728,143	86,86
728,58	87,69
729,017	87,77
729,454	87,69
729,89	88,43
730,327	88,8
730,764	89,65
731,2	89,65
731,636	89,45
732,072	89,75
732,509	90,6
732,945	90,77
733,38	91,16
733,816	91,49
734,252	91,84
734,688	91,83
735,123	92,12
735,559	92,34
735,994	92,19
736,429	91,99
736,864	92,27
737,299	92,21
737,734	92,08
738,169	92,41
738,604	92,77
739,038	93,37
739,473	93,08
739,907	93,39
740,342	93,34
740,776	93,66
741,21	94,12
741,644	94,09
742,078	94,14
742,512	94,29
742,946	94,38
743,379	94,12
743,813	95,05
744,246	94,37
744,68	95,05
745,113	94,7
745,546	94,84
745,979	94,83
746,412	94,52
746,845	94,91
747,278	94,59
747,711	94,82
748,143	94,66
748,576	94,71
749,008	95,1
749,441	94,59
749,873	94,97
750,305	95,55
750,737	95,04
751,169	95,18
751,601	95,06
752,032	95,22
752,464	95,27
752,896	94,87
753,327	95,32
753,758	95,15
754,19	95,24
754,621	95,08
755,052	94,87
755,483	95,32
755,914	94,94
756,344	95,44
756,775	94,71
757,206	94,65
757,636	95,43
758,066	95,38
758,497	94,62
758,927	94,8
759,357	95,21
759,787	94,96
760,217	95,1
760,647	94,96
761,076	95,2
761,506	95,01
761,935	95,01
762,365	94,75
762,794	94,75
763,223	94,19
763,653	94,75
764,082	94,68
764,51	94,59
764,939	94,35
765,368	94,78
765,797	94,11
766,225	94,52
766,654	94,73
767,082	94,39
767,51	94,74
767,938	95,01
768,367	95,25
768,795	94,55
769,222	93,84
769,65	94,62
770,078	94,27
770,505	94,25
770,933	94,46
771,36	94,67
771,788	94,33
772,215	94,5
772,642	94,55
773,069	94,44
773,496	94,48
773,923	94,35
774,349	93,86
774,776	94,92
775,203	94,13
775,629	94,38
776,055	94,48
776,482	94,29
776,908	93,77
777,334	94,11
777,76	93,97
778,186	94,09
778,611	94,19
779,037	93,85
779,463	94,07
779,888	94,18
780,314	94,45
780,739	94,59
781,164	93,99
781,589	93,75
782,014	93,82
782,439	94,23
782,864	93,81
783,289	94,27
783,713	93,96
784,138	94,04
784,562	94,68
784,987	94,13
785,411	94,02
785,835	94,05
786,259	93,97
786,683	94,24
787,107	94,01
787,531	93,77
787,954	94,39
788,378	93,65
788,802	94,41
789,225	94,63
789,648	94,24
790,071	94,38
790,495	94,01
790,918	94,09
791,34	94,07
791,763	94,44
792,186	94,14
792,609	93,83
793,031	94,38
793,454	94,42
793,876	94
794,298	93,76
794,721	94,1
795,143	93,77
795,565	94,38
795,986	94,26
796,408	93,96
796,83	94,18
797,252	94,33
797,673	94,21
798,094	94,06
798,516	94
798,937	94,21
799,358	94,02
799,779	93,92
800,2	94,19
800,621	93,93
801,042	95,1
801,462	94,19
801,883	93,89
802,303	93,7
802,724	93,48
803,144	93,58
803,564	94,42
803,984	93,74
804,404	94,54
804,824	94,25
805,244	93,98
805,664	94,64
806,084	94,16
806,503	94,1
806,923	94,26
807,342	93,7
807,761	94,24
808,18	94,23
808,599	93,87
809,018	93,49
809,437	93,89
809,856	94,2
810,275	94,02
810,693	93,98
811,112	93,47
811,53	94,17
811,949	94,09
812,367	94,27
812,785	93,99
813,203	94,18
813,621	93,91
814,039	93,64
814,457	94,25
814,874	93,75
815,292	93,77
815,709	94,24
816,127	93,92
816,544	94,1
816,961	93,48
817,378	94,17
817,795	94,14
818,212	94,27
818,629	94,17
819,046	94,12
819,462	93,68
819,879	93,98
820,295	94,5
820,712	93,86
821,128	93,98
821,544	94,02
821,96	93,64
822,376	94,11
822,792	93,71
823,208	93,47
823,624	93,86
824,039	93,7
824,455	94,04
824,87	94,5
825,286	94,31
825,701	93,6
826,116	93,81
826,531	93,79
826,946	93,96
827,361	93,6
827,776	93,66
828,19	93,54
828,605	93,98
829,02	94,13
829,434	93,51
829,848	93,91
830,263	94,14
830,677	93,43
831,091	93,82
831,505	93,92
831,919	93,55
832,332	93,96
832,746	94,31
833,16	94,14
833,573	93,69
833,987	93,55
834,4	93,43
