Data from A_6_0_Relative__3__00013.txt Node

Date: Mon Jan 29 12:45:54 CET 2024
User: diatiterra
Spectrometer: HDX00911
Trigger mode: 0
Integration Time (sec): 6,000000E-3
Scans to average: 4
Nonlinearity correction enabled: false
Boxcar width: 0
Storing dark spectrum: false
XAxis mode: Wavelengths
Number of Pixels in Spectrum: 2068
>>>>>Begin Spectral Data<<<<<
194,468	106,85
195,025	85,92
195,581	103,03
196,138	101,72
196,694	98,62
197,251	76,47
197,807	102,16
198,363	79,23
198,919	76,73
199,474	74,43
200,03	61,75
200,586	75,45
201,141	75,86
201,696	77,06
202,251	91,13
202,806	83,72
203,361	79,91
203,916	77,35
204,471	84,73
205,025	84,55
205,58	83,5
206,134	75,68
206,688	68,38
207,242	70,59
207,796	85,46
208,35	82,27
208,904	80,77
209,457	76,65
210,011	77,17
210,564	75,22
211,117	72,48
211,67	78,84
212,223	82,38
212,776	78,63
213,329	70,08
213,881	70,04
214,434	80,26
214,986	66,38
215,538	67,21
216,09	70,35
216,642	70,43
217,194	65,45
217,746	69,46
218,297	78,57
218,849	77,18
219,4	74,27
219,951	87
220,502	70,54
221,053	73,11
221,604	70,09
222,155	76,58
222,705	67,09
223,256	71
223,806	89,95
224,356	70,49
224,906	60,81
225,456	79,82
226,006	71,43
226,556	75,69
227,106	69,62
227,655	77,73
228,204	72,22
228,754	70,61
229,303	66,23
229,852	70,97
230,401	73,42
230,949	82,61
231,498	66,11
232,047	76,76
232,595	70,04
233,143	81,97
233,691	72,87
234,239	68,67
234,787	70,91
235,335	66,67
235,883	86,1
236,43	74,54
236,978	70,56
237,525	72,2
238,072	73,45
238,619	72,44
239,166	75,54
239,713	74,32
240,26	66,67
240,806	75,3
241,353	74,53
241,899	75,51
242,445	74,07
242,991	68,75
243,537	66,07
244,083	78,06
244,629	57,2
245,174	98,86
245,72	85,96
246,265	67,39
246,81	72,09
247,355	78,86
247,9	73,22
248,445	86,02
248,99	72,08
249,534	68,16
250,079	79,61
250,623	84,26
251,168	72,52
251,712	74,4
252,256	73,66
252,8	79,13
253,343	70,94
253,887	76,19
254,43	88,41
254,974	75,77
255,517	69,71
256,06	68,44
256,603	73,63
257,146	93,26
257,689	62,4
258,232	80,79
258,774	73,51
259,317	78,6
259,859	74,43
260,401	73,21
260,943	98,37
261,485	74,27
262,027	82,18
262,569	78,79
263,11	80,77
263,652	85,29
264,193	83,74
264,734	78,71
265,275	79,55
265,816	68,42
266,357	80,54
266,898	95,81
267,438	76,3
267,979	83,04
268,519	86,07
269,059	77,03
269,6	84,4
270,14	82,69
270,68	71,25
271,219	71,65
271,759	85,91
272,298	86,56
272,838	70,62
273,377	87,33
273,916	75,69
274,455	70,64
274,994	92,41
275,533	70,32
276,072	71,05
276,61	78,92
277,149	77,44
277,687	69,78
278,225	62,09
278,763	70,28
279,301	66,53
279,839	71,05
280,377	73,1
280,914	69,4
281,452	102,55
281,989	74,02
282,526	81,78
283,064	79,9
283,601	78,92
284,137	77,38
284,674	80,39
285,211	79,57
285,747	65,81
286,284	72,02
286,82	80,77
287,356	84,28
287,892	76,5
288,428	76,39
288,964	94,25
289,5	81,6
290,035	79,07
290,571	79,81
291,106	98,89
291,641	85,51
292,176	81,82
292,711	84,62
293,246	76
293,781	76,53
294,315	73,82
294,85	73,13
295,384	70,45
295,918	75,48
296,453	76,12
296,987	67,74
297,52	86,19
298,054	83,98
298,588	71,86
299,121	90,55
299,655	63,73
300,188	85,87
300,721	90,46
301,254	80,29
301,787	70,45
302,32	81,73
302,853	88,24
303,385	78,81
303,918	75,38
304,45	75,85
304,982	83,78
305,514	93,12
306,046	73,25
306,578	79,72
307,11	88,89
307,641	64,89
308,173	72,69
308,704	80,97
309,236	67,96
309,767	56,84
310,298	77,43
310,829	73,04
311,359	70,64
311,89	82,01
312,421	78,61
312,951	75,12
313,481	66,98
314,012	69,55
314,542	86,24
315,072	70,81
315,601	68,35
316,131	71,29
316,661	65,45
317,19	77,34
317,72	72,54
318,249	63,59
318,778	67,15
319,307	76,33
319,836	65,02
320,365	70,67
320,893	83,7
321,422	69,72
321,95	64,02
322,479	66,67
323,007	90
323,535	81,31
324,063	66,97
324,591	73,58
325,118	68,26
325,646	62,78
326,173	75,6
326,701	83,7
327,228	68,47
327,755	63,86
328,282	60,66
328,809	88,67
329,336	71,5
329,862	60,85
330,389	65,62
330,915	54,15
331,441	76,92
331,968	65,03
332,494	58,77
333,02	54,37
333,545	74,89
334,071	67,92
334,597	52,17
335,122	74,66
335,648	74,07
336,173	56,88
336,698	56,5
337,223	70,37
337,748	66,09
338,272	77,37
338,797	50
339,322	60,61
339,846	65,28
340,37	62,71
340,894	64,95
341,419	53,75
341,942	66,67
342,466	68,44
342,99	64,22
343,514	63,18
344,037	70,92
344,56	62,96
345,084	55,07
345,607	59,35
346,13	57,6
346,653	62,69
347,175	58,85
347,698	60,89
348,221	65,35
348,743	64,15
349,265	66,54
349,787	65,45
350,309	48,11
350,831	55,68
351,353	53,05
351,875	68,2
352,397	66,19
352,918	58,82
353,439	53,52
353,961	66,21
354,482	50,18
355,003	49,63
355,524	59,61
356,044	49,32
356,565	65,62
357,086	64,91
357,606	49,13
358,126	67,18
358,646	57,93
359,167	55,96
359,687	58,46
360,206	56,77
360,726	57,69
361,246	61,88
361,765	63,76
362,285	53,12
362,804	54,89
363,323	57,66
363,842	60
364,361	52,62
364,88	50,98
365,398	55,43
365,917	54,25
366,435	47,32
366,954	50,13
367,472	57,22
367,99	53,59
368,508	58,58
369,026	52,88
369,544	50,51
370,061	49,61
370,579	56,17
371,096	61,62
371,613	53,99
372,131	53,25
372,648	55,85
373,165	50,59
373,681	43,51
374,198	49,89
374,715	54,94
375,231	56,11
375,747	50,44
376,264	51,46
376,78	56,85
377,296	44,58
377,812	50,31
378,327	51,17
378,843	49,81
379,359	46,85
379,874	48,55
380,389	52,69
380,905	50,55
381,42	48,86
381,935	45,68
382,449	49,33
382,964	44,2
383,479	47,28
383,993	43,92
384,508	43,95
385,022	47,3
385,536	42,73
386,05	45,81
386,564	46,05
387,078	42,92
387,592	40,48
388,105	46,73
388,619	38,84
389,132	39,61
389,645	42,93
390,158	39,38
390,671	39,23
391,184	41,85
391,697	40,05
392,21	39,71
392,722	35,95
393,235	37,07
393,747	36,91
394,259	39,65
394,771	37,77
395,283	39,12
395,795	35,14
396,307	35,17
396,818	35,88
397,33	35,93
397,841	35,48
398,353	34,2
398,864	32,92
399,375	35,3
399,886	33,73
400,397	30,06
400,907	31,74
401,418	30,63
401,928	31,99
402,439	27,89
402,949	31,53
403,459	28,09
403,969	28,24
404,479	27,74
404,989	25,35
405,498	25,85
406,008	26,08
406,517	26,41
407,027	24,07
407,536	23,98
408,045	22,32
408,554	23,04
409,063	21,34
409,572	22,33
410,08	20,97
410,589	20,62
411,097	18,93
411,606	19,1
412,114	19,14
412,622	17,75
413,13	16,72
413,638	15,43
414,145	17,57
414,653	15,39
415,16	15,83
415,668	15,28
416,175	14,73
416,682	15,06
417,189	15,34
417,696	14,69
418,203	15,19
418,71	13,54
419,216	13,01
419,723	14,21
420,229	13,8
420,735	12,58
421,242	13,54
421,748	13,32
422,254	13,28
422,759	13,02
423,265	12,43
423,771	13,01
424,276	12,35
424,781	12,72
425,287	12,54
425,792	12,63
426,297	12,35
426,802	12,25
427,306	12,2
427,811	11,75
428,316	11,92
428,82	11,36
429,324	12,18
429,829	12,34
430,333	12,27
430,837	12,31
431,34	11,41
431,844	11
432,348	11,85
432,851	12,66
433,355	11,58
433,858	11,28
434,361	11,93
434,864	10,98
435,367	11,97
435,87	11,18
436,373	11,54
436,876	12,47
437,378	11,16
437,88	11,63
438,383	11,58
438,885	11,48
439,387	11,76
439,889	11,48
440,391	11,54
440,892	11,64
441,394	11,52
441,896	10,72
442,397	11,1
442,898	11,75
443,399	11,45
443,9	11,63
444,401	11,2
444,902	11,57
445,403	11,62
445,903	11,65
446,404	11,26
446,904	11,04
447,405	11,35
447,905	11,36
448,405	11,59
448,905	11,22
449,404	11,63
449,904	11,71
450,404	11,23
450,903	11,23
451,403	11,04
451,902	12,05
452,401	11,81
452,9	12,01
453,399	11,93
453,898	11,64
454,396	12,18
454,895	12,21
455,393	11,83
455,892	11,92
456,39	12,12
456,888	11,86
457,386	11,96
457,884	12,12
458,382	11,94
458,879	12,24
459,377	11,65
459,874	11,77
460,372	11,81
460,869	12,02
461,366	11,72
461,863	12,13
462,36	11,69
462,857	12,33
463,353	11,79
463,85	11,46
464,346	11,71
464,843	11,61
465,339	11,21
465,835	11,69
466,331	12,11
466,827	11,97
467,323	11,66
467,818	12,23
468,314	11,52
468,809	12,34
469,305	11,96
469,8	11,42
470,295	11,85
470,79	11,56
471,285	11,73
471,78	11,47
472,274	11,96
472,769	11,93
473,263	12,21
473,758	11,92
474,252	11,99
474,746	11,85
475,24	11,55
475,734	11,5
476,228	11,98
476,721	11,82
477,215	11,98
477,708	12,62
478,202	12,09
478,695	11,85
479,188	11,93
479,681	11,68
480,174	11,99
480,667	12,28
481,159	11,76
481,652	11,95
482,144	11,93
482,637	12,15
483,129	11,85
483,621	11,87
484,113	12,05
484,605	12,51
485,097	12,25
485,588	12,2
486,08	11,99
486,571	12,13
487,063	12,44
487,554	12,63
488,045	12,21
488,536	12,44
489,027	12,66
489,518	12,03
490,008	12,47
490,499	12,4
490,989	12,64
491,48	12,3
491,97	12,84
492,46	12,62
492,95	12,82
493,44	13,04
493,93	12,96
494,419	13,05
494,909	13,05
495,398	13,13
495,888	13,1
496,377	12,87
496,866	13,19
497,355	13,09
497,844	13,07
498,333	13,44
498,821	13,76
499,31	13,83
499,798	14,16
500,287	14,4
500,775	14,59
501,263	14,42
501,751	14,26
502,239	14,3
502,727	15,01
503,215	15,03
503,702	15,5
504,19	15,75
504,677	15,43
505,164	15,2
505,651	15,94
506,139	15,92
506,625	16,62
507,112	16,39
507,599	17,11
508,086	17,04
508,572	17,54
509,058	17,39
509,545	17,6
510,031	18,46
510,517	19,35
511,003	19,41
511,489	19,4
511,974	20,02
512,46	20,03
512,946	20,74
513,431	20,42
513,916	21,33
514,401	21,94
514,887	22,45
515,371	22,54
515,856	23,28
516,341	23,95
516,826	23,54
517,31	24,23
517,795	25,21
518,279	25,68
518,763	26,17
519,247	26,37
519,731	27,09
520,215	27,75
520,699	28,07
521,182	28,72
521,666	28,93
522,149	29,84
522,633	29,96
523,116	30,71
523,599	31,38
524,082	31,46
524,565	32,5
525,048	32,96
525,53	33,31
526,013	33,02
526,495	34,14
526,978	35,15
527,46	34,56
527,942	35,26
528,424	35,14
528,906	36,45
529,388	36,04
529,87	36,57
530,351	37,56
530,833	36,97
531,314	38,14
531,795	38,04
532,277	38,96
532,758	38,54
533,238	38,55
533,719	39,04
534,2	39,28
534,681	39,78
535,161	39,05
535,642	40,01
536,122	40,68
536,602	40,42
537,082	40,19
537,562	40,82
538,042	40,3
538,522	40,47
539,001	41,25
539,481	40,24
539,96	40,95
540,44	41,23
540,919	41,3
541,398	41,23
541,877	41,73
542,356	41,15
542,835	41,84
543,313	41,9
543,792	41,71
544,27	42,15
544,749	41,47
545,227	42,4
545,705	42,33
546,183	41,98
546,661	42,15
547,139	42,05
547,616	42,55
548,094	42,29
548,571	42,44
549,049	42,84
549,526	42,2
550,003	43,15
550,48	42,31
550,957	43,01
551,434	42,43
551,911	42,95
552,387	43,26
552,864	42,9
553,34	43,14
553,817	42,73
554,293	42,86
554,769	42,68
555,245	42,5
555,721	42,64
556,197	42,57
556,672	42,3
557,148	42,36
557,623	42,27
558,099	42,21
558,574	41,95
559,049	42,36
559,524	42,01
559,999	41,76
560,474	41,65
560,948	41,95
561,423	41,64
561,897	40,97
562,372	41,16
562,846	41,34
563,32	41,26
563,794	40,91
564,268	40,59
564,742	40,12
565,216	39,78
565,69	39,86
566,163	39,34
566,636	39,58
567,11	38,74
567,583	38,79
568,056	38,56
568,529	38,4
569,002	37,85
569,475	37,66
569,947	37,57
570,42	37,15
570,892	36,79
571,365	36,72
571,837	35,52
572,309	35,84
572,781	35,41
573,253	35,75
573,725	35,25
574,197	34,68
574,668	34,73
575,14	33,64
575,611	33,71
576,082	33,8
576,554	33,32
577,025	33,04
577,496	33,19
577,967	32,62
578,437	32,39
578,908	32,4
579,379	31,76
579,849	31,4
580,319	31,54
580,79	31,42
581,26	31,03
581,73	30,75
582,2	30,62
582,669	30,33
583,139	30,68
583,609	30,43
584,078	30,06
584,548	30
585,017	29,7
585,486	29,58
585,955	29,44
586,424	29,53
586,893	29,33
587,362	29,23
587,83	29,25
588,299	28,87
588,767	28,73
589,236	28,59
589,704	28,52
590,172	27,89
590,64	28,45
591,108	28,04
591,576	27,67
592,043	27,67
592,511	27,87
592,978	27,94
593,446	27,41
593,913	27,58
594,38	27,68
594,847	27,57
595,314	27,53
595,781	27,26
596,248	27,39
596,715	27,29
597,181	26,99
597,647	26,64
598,114	27,42
598,58	27,24
599,046	26,6
599,512	27,23
599,978	26,76
600,444	26,58
600,91	26,75
601,375	26,85
601,841	26,69
602,306	26,18
602,771	26,76
603,236	26,64
603,702	26,05
604,167	26,6
604,631	26,27
605,096	25,93
605,561	25,57
606,025	25,48
606,49	25,62
606,954	25,55
607,418	25,24
607,882	24,75
608,347	25,27
608,81	24,78
609,274	24,86
609,738	24,55
610,202	24,24
610,665	24,3
611,128	24,03
611,592	23,87
612,055	23,86
612,518	23,36
612,981	23,62
613,444	23,38
613,907	22,95
614,369	23,11
614,832	22,97
615,294	22,64
615,757	22,59
616,219	22,55
616,681	22,21
617,143	22,34
617,605	22,22
618,067	22,15
618,529	21,82
618,99	21,87
619,452	21,75
619,913	21,59
620,375	21,29
620,836	21,31
621,297	21,04
621,758	21,19
622,219	21,07
622,68	20,96
623,14	21,15
623,601	20,79
624,061	20,72
624,522	20,75
624,982	20,53
625,442	20,72
625,902	20,62
626,362	20,75
626,822	20,68
627,282	20,75
627,742	20,41
628,201	20,41
628,661	20,36
629,12	20,38
629,579	20,29
630,038	20,55
630,497	20,15
630,956	20,52
631,415	20,28
631,874	20,2
632,332	19,99
632,791	20,06
633,249	20,19
633,708	20,26
634,166	19,96
634,624	19,67
635,082	19,57
635,54	19,66
635,998	19,5
636,455	19,58
636,913	19,19
637,37	19,11
637,828	19,05
638,285	19,17
638,742	19,01
639,199	18,81
639,656	18,51
640,113	18,27
640,57	18,16
641,027	17,94
641,483	17,74
641,94	17,59
642,396	17,67
642,852	17,58
643,309	17,39
643,765	17,25
644,221	16,92
644,676	16,89
645,132	16,47
645,588	16,39
646,043	16,4
646,499	16,12
646,954	16
647,409	15,77
647,864	15,6
648,319	15,73
648,774	15,52
649,229	15,26
649,684	15,01
650,139	15,1
650,593	15,02
651,047	14,91
651,502	14,94
651,956	14,71
652,41	14,78
652,864	14,61
653,318	14,71
653,772	14,43
654,225	14,44
654,679	14,12
655,133	14,17
655,586	14,43
656,039	14,22
656,492	14,06
656,946	13,78
657,399	13,85
657,851	13,87
658,304	13,75
658,757	13,53
659,209	13,26
659,662	13,23
660,114	13
660,567	13,16
661,019	13,03
661,471	12,78
661,923	12,95
662,375	12,7
662,826	12,74
663,278	12,42
663,73	12,45
664,181	12,24
664,632	12,2
665,084	12,12
665,535	12,05
665,986	12,12
666,437	12,27
666,888	12,1
667,338	12,05
667,789	12,08
668,24	12,13
668,69	11,99
669,14	12,2
669,591	12,02
670,041	12,06
670,491	12,18
670,941	12,36
671,391	12,55
671,84	12,38
672,29	12,37
672,74	12,62
673,189	12,54
673,638	12,81
674,088	12,65
674,537	12,78
674,986	13,08
675,435	13,04
675,883	13,16
676,332	13,29
676,781	13,32
677,229	13,59
677,678	13,61
678,126	13,96
678,574	13,9
679,022	14,23
679,47	14,18
679,918	14,52
680,366	14,6
680,814	14,69
681,261	14,91
681,709	14,87
682,156	15,23
682,604	15,47
683,051	15,58
683,498	15,67
683,945	15,61
684,392	16,04
684,839	16,09
685,286	16,22
685,732	16,49
686,179	16,51
686,625	16,97
687,071	17,08
687,518	17,09
687,964	17,36
688,41	17,96
688,856	18,24
689,301	18,37
689,747	18,94
690,193	19,22
690,638	20,1
691,084	20,43
691,529	21,05
691,974	21,59
692,419	22,35
692,864	23,13
693,309	23,73
693,754	24,38
694,199	25,45
694,643	26,54
695,088	27,08
695,532	27,97
695,977	29,13
696,421	30,09
696,865	30,69
697,309	31,85
697,753	32,79
698,197	33,72
698,64	34,9
699,084	36,26
699,527	37,12
699,971	37,86
700,414	39,14
700,857	40,15
701,3	40,98
701,743	42,03
702,186	43,21
702,629	44,01
703,072	45,17
703,515	45,91
703,957	46,86
704,399	48,27
704,842	48,85
705,284	49,79
705,726	50,73
706,168	51,67
706,61	52,74
707,052	53,45
707,494	54,48
707,935	54,95
708,377	56,42
708,818	56,67
709,26	57,88
709,701	58,57
710,142	59,46
710,583	60,15
711,024	60,95
711,465	61,88
711,905	62,7
712,346	63,24
712,787	64,31
713,227	64,7
713,667	65,87
714,108	67,05
714,548	67,34
714,988	68,07
715,428	68,7
715,868	69,18
716,307	70,15
716,747	70,85
717,186	71,98
717,626	72,74
718,065	73,39
718,504	73,44
718,944	74,07
719,383	74,74
719,822	75,37
720,261	76,39
720,699	76,85
721,138	77,39
721,576	78,1
722,015	79,17
722,453	79,16
722,892	79,4
723,33	80,61
723,768	80,65
724,206	81,87
724,644	81,46
725,081	82,24
725,519	82,15
725,957	83,29
726,394	83,48
726,832	84,06
727,269	84,16
727,706	85,29
728,143	85,09
728,58	84,76
729,017	85,73
729,454	86,09
729,89	86,42
730,327	87,04
730,764	87,31
731,2	87,6
731,636	87,43
732,072	87,54
732,509	88,41
732,945	88,75
733,38	88,94
733,816	89,21
734,252	89,89
734,688	89,82
735,123	89,93
735,559	89,95
735,994	90,59
736,429	89,85
736,864	90,86
737,299	90,63
737,734	90,32
738,169	90,88
738,604	91,14
739,038	91,27
739,473	91,16
739,907	91,3
740,342	91,48
740,776	92,01
741,21	92,42
741,644	92,47
742,078	92,09
742,512	92,64
742,946	92,24
743,379	92,21
743,813	92,97
744,246	93,01
744,68	93,07
745,113	93,17
745,546	92,87
745,979	93,17
746,412	93
746,845	93,04
747,278	92,98
747,711	92,82
748,143	92,87
748,576	92,86
749,008	92,83
749,441	92,74
749,873	92,98
750,305	93,25
750,737	93,32
751,169	93,16
751,601	93,04
752,032	93,34
752,464	93,37
752,896	92,9
753,327	93,01
753,758	93,11
754,19	93,26
754,621	93,11
755,052	92,86
755,483	92,77
755,914	93,11
756,344	93,12
756,775	92,74
757,206	92,7
757,636	92,82
758,066	92,94
758,497	92,64
758,927	92,76
759,357	92,86
759,787	93
760,217	93,01
760,647	92,75
761,076	92,96
761,506	92,43
761,935	93,05
762,365	92,41
762,794	92,57
763,223	92,45
763,653	92,57
764,082	92,77
764,51	92,45
764,939	92,05
765,368	92,75
765,797	92,2
766,225	92,26
766,654	92,66
767,082	92,15
767,51	92,47
767,938	92,29
768,367	92,61
768,795	92,39
769,222	91,97
769,65	92,35
770,078	91,93
770,505	92,02
770,933	92
771,36	92,18
771,788	91,57
772,215	91,56
772,642	91,99
773,069	91,82
773,496	91,85
773,923	92,07
774,349	92,13
774,776	92,09
775,203	92,01
775,629	92,16
776,055	91,93
776,482	92,28
776,908	91,43
777,334	91,93
777,76	91,92
778,186	91,93
778,611	91,4
779,037	92,1
779,463	91,78
779,888	91,45
780,314	92,1
780,739	92
781,164	92,02
781,589	91,71
782,014	91,8
782,439	91,76
782,864	91,65
783,289	92,24
783,713	91,44
784,138	91,48
784,562	92,18
784,987	91,45
785,411	91,61
785,835	91,44
786,259	91,59
786,683	91,45
787,107	91,47
787,531	91,46
787,954	91,64
788,378	91,76
788,802	91,75
789,225	91,59
789,648	91,65
790,071	91,5
790,495	92,07
790,918	91,18
791,34	91,73
791,763	92,33
792,186	91,79
792,609	91,15
793,031	91,68
793,454	91,1
793,876	91,51
794,298	91,05
794,721	91,63
795,143	91,12
795,565	91,69
795,986	91,43
796,408	91,46
796,83	91,23
797,252	91,95
797,673	91,84
798,094	91,86
798,516	91,62
798,937	91,78
799,358	91,15
799,779	91,51
800,2	91,48
800,621	91,47
801,042	91,74
801,462	91,36
801,883	90,94
802,303	91,45
802,724	91,29
803,144	91,18
803,564	90,99
803,984	91,58
804,404	92,24
804,824	91,44
805,244	92,05
805,664	92,01
806,084	91,96
806,503	91,54
806,923	91,35
807,342	91,29
807,761	91,33
808,18	91,39
808,599	91,37
809,018	90,71
809,437	91,46
809,856	91,84
810,275	91,64
810,693	91,7
811,112	91,17
811,53	91,35
811,949	91,83
812,367	91,73
812,785	91,3
813,203	91,2
813,621	91,35
814,039	90,52
814,457	91,63
814,874	91,31
815,292	91,34
815,709	91,86
816,127	90,98
816,544	91,84
816,961	91,22
817,378	91,19
817,795	92,1
818,212	91,54
818,629	91,36
819,046	91,65
819,462	91,23
819,879	91,51
820,295	91,26
820,712	91,23
821,128	91,62
821,544	91,34
821,96	91,45
822,376	91,43
822,792	90,91
823,208	91,27
823,624	90,94
824,039	91,09
824,455	91,21
824,87	91,71
825,286	91,88
825,701	91,32
826,116	90,94
826,531	91,24
826,946	90,44
827,361	91,11
827,776	90,99
828,19	90,41
828,605	91,29
829,02	91,8
829,434	91,63
829,848	91,63
830,263	91,28
830,677	91,18
831,091	91,25
831,505	91,26
831,919	91,16
832,332	91,02
832,746	91,4
833,16	91,21
