Data from A_6_0_Relative__6__00016.txt Node

Date: Mon Jan 29 12:46:15 CET 2024
User: diatiterra
Spectrometer: HDX00911
Trigger mode: 0
Integration Time (sec): 6,000000E-3
Scans to average: 4
Nonlinearity correction enabled: false
Boxcar width: 0
Storing dark spectrum: false
XAxis mode: Wavelengths
Number of Pixels in Spectrum: 2068
>>>>>Begin Spectral Data<<<<<
194,468	76,71
195,025	115,49
195,581	68,18
196,138	110,34
196,694	90,34
197,251	79,68
197,807	91,89
198,363	83,57
198,919	70,2
199,474	74,43
200,03	60,37
200,586	69,55
201,141	68,1
201,696	74,89
202,251	73,89
202,806	73,02
203,361	64,38
203,916	72,65
204,471	88,67
205,025	73,39
205,58	79,61
206,134	62,16
206,688	71,79
207,242	67,65
207,796	74,89
208,35	71,36
208,904	72,31
209,457	61,09
210,011	75,34
210,564	76,52
211,117	61,63
211,67	75,1
212,223	68,72
212,776	69,66
213,329	71,26
213,881	66,15
214,434	83,33
214,986	66,38
215,538	65,16
216,09	78,39
216,642	76,09
217,194	65,45
217,746	76,57
218,297	70,09
218,849	58,51
219,4	66,8
219,951	83,5
220,502	71,88
221,053	70,59
221,604	79,91
222,155	57,21
222,705	64,98
223,256	64,5
223,806	76,26
224,356	74,18
224,906	60,44
225,456	71,93
226,006	57,55
226,556	69,27
227,106	68,78
227,655	77,73
228,204	69,44
228,754	68,16
229,303	79,39
229,852	76,21
230,401	63,51
230,949	70,87
231,498	61,51
232,047	68,88
232,595	63,81
233,143	61,8
233,691	64,37
234,239	57,51
234,787	70,45
235,335	69,55
235,883	73,54
236,43	81,02
236,978	55,14
237,525	61,95
238,072	77,88
238,619	84,44
239,166	88,84
239,713	69,82
240,26	64,71
240,806	80,08
241,353	60,85
241,899	69,8
242,445	57,61
242,991	76,34
243,537	70,54
244,083	77,22
244,629	60,52
245,174	81,82
245,72	71,91
246,265	69,57
246,81	68,84
247,355	56,1
247,9	77,82
248,445	78,49
248,99	68,33
249,534	59,18
250,079	83,98
250,623	71,57
251,168	64,86
251,712	60,8
252,256	80
252,8	66,52
253,343	69,46
253,887	76,62
254,43	77,78
254,974	77,84
255,517	58,51
256,06	64,89
256,603	58,71
257,146	80,83
257,689	55,04
258,232	69,87
258,774	63,24
259,317	72,93
259,859	65,3
260,401	72,32
260,943	79,35
261,485	71,84
262,027	70,79
262,569	59,6
263,11	82,05
263,652	71,57
264,193	67,89
264,734	65,84
265,275	74,55
265,816	64,47
266,357	79,64
266,898	94,61
267,438	82,94
267,979	72,61
268,519	68,44
269,059	76,56
269,6	74,77
270,14	90,87
270,68	79,58
271,219	60,63
271,759	74,09
272,298	78,49
272,838	76,3
273,377	94,57
273,916	64,68
274,455	73,39
274,994	68,3
275,533	57,08
276,072	74,12
276,61	83,82
277,149	69,74
277,687	67,11
278,225	56,4
278,763	62,25
279,301	58,9
279,839	59,65
280,377	68,02
280,914	52,59
281,452	74,49
281,989	78,43
282,526	65,89
283,064	70,1
283,601	59,19
284,137	70,14
284,674	59,31
285,211	73,62
285,747	52,56
286,284	62,84
286,82	73,08
287,356	73,36
287,892	70,5
288,428	60,52
288,964	74,34
289,5	61,32
290,035	66,05
290,571	73,08
291,106	82,78
291,641	88,41
292,176	70,33
292,711	73,5
293,246	64
293,781	66,67
294,315	65,97
294,85	65,67
295,384	63,18
295,918	77,4
296,453	76,62
296,987	64,11
297,52	79,52
298,054	74,27
298,588	73,16
299,121	75,62
299,655	68,14
300,188	80,98
300,721	68,88
301,254	73,08
301,787	78,64
302,32	70,67
302,853	76,47
303,385	66,1
303,918	70,35
304,45	70,53
304,982	73,87
305,514	83,6
306,046	55,56
306,578	66,98
307,11	66,18
307,641	68
308,173	58,4
308,704	68,58
309,236	64,56
309,767	59,4
310,298	69,47
310,829	72,17
311,359	67,66
311,89	76,72
312,421	75,94
312,951	74,65
313,481	63,68
314,012	66,82
314,542	84,13
315,072	60
315,601	73,39
316,131	77,72
316,661	63,18
317,19	69,95
317,72	69,95
318,249	74,19
318,778	76,81
319,307	64,73
319,836	64,57
320,365	79,81
320,893	73,91
321,422	71,1
321,95	60,25
322,479	61,84
323,007	75,88
323,535	80,81
324,063	59,63
324,591	67,92
325,118	76,09
325,646	65,02
326,173	64,59
326,701	77,53
327,228	61,71
327,755	67,33
328,282	59,56
328,809	69,95
329,336	64,77
329,862	69,81
330,389	62,5
330,915	65,5
331,441	70,77
331,968	68,85
332,494	65,88
333,02	55,95
333,545	71,81
334,071	60,38
334,597	61,84
335,122	64,25
335,648	61,9
336,173	59,63
336,698	59,64
337,223	67,2
337,748	65,24
338,272	76,32
338,797	62,5
339,322	48,92
339,846	59,07
340,37	64,41
340,894	64,95
341,419	57,92
341,942	56,14
342,466	54,92
342,99	64,66
343,514	56,49
344,037	64,29
344,56	56,48
345,084	52,9
345,607	50,41
346,13	46,4
346,653	50
347,175	58,08
347,698	62,9
348,221	56,69
348,743	52,83
349,265	53,38
349,787	54,07
350,309	47,42
350,831	45,79
351,353	61,29
351,875	69,46
352,397	52,16
352,918	49,26
353,439	66,41
353,961	59,66
354,482	44,13
355,003	54,48
355,524	55,37
356,044	55,1
356,565	57,29
357,086	58,6
357,606	47,75
358,126	59,13
358,646	62,41
359,167	59,33
359,687	49,85
360,206	55,81
360,726	60,58
361,246	56,6
361,765	61,41
362,285	48,96
362,804	51,63
363,323	48,95
363,842	56,67
364,361	57,54
364,88	57,42
365,398	56,6
365,917	54,25
366,435	50,89
366,954	47,21
367,472	50,92
367,99	58,01
368,508	46,15
369,026	50,63
369,544	52,3
370,061	48,33
370,579	50,12
371,096	48,56
371,613	50,23
372,131	40
372,648	47,56
373,165	46,12
373,681	53,99
374,198	46,91
374,715	45,29
375,231	50,23
375,747	46,04
376,264	46,74
376,78	53,26
377,296	38,45
377,812	47,25
378,327	49,89
378,843	50,37
379,359	46,3
379,874	45,86
380,389	43,23
380,905	45,97
381,42	42,88
381,935	41,8
382,449	46,15
382,964	43
383,479	39,42
383,993	39,22
384,508	37,32
385,022	41,41
385,536	40,58
386,05	37,72
386,564	39,79
387,078	36,81
387,592	39,68
388,105	41,42
388,619	36,99
389,132	34,14
389,645	38,83
390,158	33,3
390,671	41,45
391,184	37,05
391,697	34,63
392,21	35,01
392,722	34,66
393,235	32,69
393,747	30,89
394,259	31,28
394,771	37,55
395,283	30,28
395,795	32,12
396,307	36,06
396,818	31,56
397,33	29,47
397,841	32,35
398,353	34,1
398,864	31,87
399,375	30,31
399,886	31,35
400,397	28,4
400,907	29,9
401,418	27,05
401,928	27,46
402,439	26,47
402,949	28,53
403,459	26,23
403,969	26,5
404,479	25,99
404,989	24,08
405,498	23,61
406,008	22,91
406,517	24,85
407,027	22,85
407,536	22,14
408,045	20,44
408,554	20,96
409,063	19,02
409,572	17,66
410,08	18,27
410,589	19,23
411,097	17,53
411,606	17,93
412,114	16,86
412,622	16,36
413,13	14,88
413,638	16,56
414,145	15,39
414,653	14,18
415,16	14,06
415,668	13,56
416,175	14,79
416,682	12
417,189	13,58
417,696	12,79
418,203	13,49
418,71	12,86
419,216	12,09
419,723	12,68
420,229	12,59
420,735	11,72
421,242	12,13
421,748	11,7
422,254	12,56
422,759	11,31
423,265	10,87
423,771	11,09
424,276	11,4
424,781	10,4
425,287	11,72
425,792	10,7
426,297	10,1
426,802	11,26
427,306	11,22
427,811	10,15
428,316	10,94
428,82	10,27
429,324	10,92
429,829	11,22
430,333	11,02
430,837	10,51
431,34	11,01
431,844	9,89
432,348	10,59
432,851	11,07
433,355	10,4
433,858	10,5
434,361	9,83
434,864	10,4
435,367	10,5
435,87	10,56
436,373	9,87
436,876	10,98
437,378	10,15
437,88	10,52
438,383	10,26
438,885	10,68
439,387	10,52
439,889	10,48
440,391	10,03
440,892	10,9
441,394	9,69
441,896	10,06
442,397	10,32
442,898	10,22
443,399	10,22
443,9	10,29
444,401	10,34
444,902	10,86
445,403	10,4
445,903	10,7
446,404	10,49
446,904	10,2
447,405	10,52
447,905	10,56
448,405	10,58
448,905	10,5
449,404	11,17
449,904	10,21
450,404	10,72
450,903	10,47
451,403	10,49
451,902	10,54
452,401	10,64
452,9	11,27
453,399	11,24
453,898	10,72
454,396	11,29
454,895	11,38
455,393	11,26
455,892	11,37
456,39	11,09
456,888	10,96
457,386	10,63
457,884	11,05
458,382	11,56
458,879	11
459,377	11,12
459,874	11,26
460,372	11,16
460,869	11,35
461,366	11,14
461,863	11,44
462,36	11,45
462,857	11,32
463,353	11,58
463,85	10,53
464,346	11,04
464,843	10,72
465,339	11,29
465,835	10,84
466,331	11,49
466,827	11,39
467,323	11,27
467,818	11,13
468,314	10,61
468,809	11,18
469,305	11,05
469,8	11,14
470,295	10,84
470,79	11,54
471,285	10,75
471,78	11,26
472,274	11,27
472,769	11,49
473,263	11,16
473,758	11,35
474,252	11,65
474,746	10,66
475,24	11,36
475,734	10,88
476,228	11,23
476,721	10,62
477,215	11,28
477,708	11,54
478,202	10,98
478,695	11,35
479,188	11,4
479,681	11,5
480,174	11,21
480,667	11,57
481,159	11,5
481,652	11,16
482,144	11
482,637	12,06
483,129	11,25
483,621	11,58
484,113	11,66
484,605	11,57
485,097	11,59
485,588	11,38
486,08	11,47
486,571	11,75
487,063	11,69
487,554	12,09
488,045	11,39
488,536	11,98
489,027	11,76
489,518	11,66
490,008	11,93
490,499	11,93
490,989	12,2
491,48	12,08
491,97	12,16
492,46	12,06
492,95	12,38
493,44	12,7
493,93	12,65
494,419	12,81
494,909	12,41
495,398	12,78
495,888	13,41
496,377	12,86
496,866	12,97
497,355	12,97
497,844	13,39
498,333	13,29
498,821	13,71
499,31	14,1
499,798	14,5
500,287	14,26
500,775	14,42
501,263	14,71
501,751	14,87
502,239	14,81
502,727	14,98
503,215	14,81
503,702	15,72
504,19	16,12
504,677	16,21
505,164	16,39
505,651	15,92
506,139	17
506,625	17,02
507,112	17,38
507,599	17,5
508,086	18,17
508,572	18,58
509,058	18,38
509,545	18,64
510,031	19,32
510,517	19,51
511,003	20,73
511,489	20,11
511,974	20,83
512,46	21,07
512,946	21,37
513,431	21,59
513,916	22,41
514,401	22,86
514,887	23,7
515,371	23,44
515,856	24,11
516,341	24,81
516,826	25,08
517,31	25,45
517,795	25,95
518,279	26,4
518,763	27,27
519,247	27,62
519,731	28,23
520,215	28,78
520,699	28,79
521,182	30,12
521,666	30,25
522,149	29,93
522,633	30,78
523,116	31,65
523,599	32,01
524,082	32,38
524,565	32,77
525,048	33,47
525,53	33,86
526,013	34,43
526,495	34,74
526,978	35,29
527,46	35,64
527,942	35,93
528,424	36,29
528,906	37,26
529,388	36,82
529,87	37,53
530,351	37,51
530,833	37,73
531,314	38,09
531,795	38,63
532,277	38,99
532,758	39
533,238	39,35
533,719	39
534,2	39,52
534,681	40,41
535,161	40,02
535,642	40,67
536,122	40,94
536,602	40,34
537,082	40,67
537,562	40,61
538,042	39,89
538,522	41,04
539,001	40,62
539,481	41,04
539,96	41,37
540,44	41,29
540,919	41,24
541,398	41,53
541,877	41,36
542,356	40,83
542,835	41,52
543,313	41,58
543,792	41,76
544,27	41,86
544,749	41,56
545,227	41,89
545,705	42,12
546,183	41,96
546,661	42,39
547,139	41,95
547,616	42,47
548,094	42,36
548,571	42,63
549,049	42,79
549,526	42,58
550,003	42,91
550,48	42,41
550,957	42,85
551,434	42,46
551,911	42,87
552,387	42,72
552,864	42,75
553,34	42,73
553,817	42,05
554,293	42,82
554,769	42,41
555,245	42,2
555,721	42,54
556,197	42,53
556,672	42,12
557,148	41,52
557,623	42,71
558,099	41,94
558,574	42,25
559,049	41,9
559,524	42,36
559,999	41,84
560,474	41,63
560,948	41,92
561,423	41,33
561,897	42,24
562,372	41,74
562,846	41,34
563,32	40,81
563,794	40,65
564,268	40,53
564,742	40,92
565,216	40,15
565,69	40,13
566,163	39,41
566,636	39,47
567,11	39,34
567,583	39,15
568,056	38,87
568,529	38,63
569,002	38,43
569,475	38,09
569,947	38,09
570,42	37,65
570,892	37,57
571,365	36,86
571,837	36,21
572,309	36,4
572,781	36,1
573,253	35,96
573,725	35,8
574,197	35,17
574,668	35,42
575,14	34,39
575,611	34,87
576,082	34,43
576,554	34,31
577,025	33,76
577,496	33,83
577,967	33,85
578,437	33,09
578,908	32,95
579,379	32,9
579,849	32,73
580,319	32,26
580,79	32,32
581,26	32,05
581,73	31,51
582,2	31,74
582,669	31,31
583,139	31,5
583,609	31,39
584,078	30,65
584,548	31,05
585,017	31,03
585,486	30,44
585,955	30,64
586,424	30,31
586,893	29,9
587,362	30,33
587,83	30,1
588,299	29,81
588,767	29,85
589,236	29,55
589,704	29,41
590,172	29,18
590,64	29,42
591,108	29,11
591,576	28,88
592,043	28,66
592,511	28,56
592,978	28,91
593,446	28,41
593,913	29,05
594,38	28,35
594,847	28,32
595,314	28,38
595,781	28,31
596,248	28,41
596,715	28,3
597,181	28,07
597,647	27,79
598,114	28,36
598,58	28,16
599,046	27,57
599,512	28,17
599,978	27,65
600,444	27,44
600,91	27,65
601,375	27,39
601,841	27,29
602,306	27,88
602,771	27,41
603,236	27,53
603,702	27,07
604,167	27,02
604,631	27
605,096	26,77
605,561	26,43
606,025	26,66
606,49	26,65
606,954	26,4
607,418	26,24
607,882	26,09
608,347	26,06
608,81	25,96
609,274	25,65
609,738	25,55
610,202	25,54
610,665	25,24
611,128	25,51
611,592	25,05
612,055	24,97
612,518	24,82
612,981	24,58
613,444	24,4
613,907	24
614,369	24,12
614,832	24,25
615,294	24,08
615,757	23,71
616,219	23,59
616,681	23,15
617,143	23,41
617,605	22,89
618,067	23,17
618,529	22,83
618,99	23,03
619,452	22,77
619,913	23,05
620,375	22,45
620,836	22,49
621,297	22
621,758	22,24
622,219	22,31
622,68	22,15
623,14	22,07
623,601	22,22
624,061	21,99
624,522	21,88
624,982	21,84
625,442	21,71
625,902	21,92
626,362	21,64
626,822	21,64
627,282	21,56
627,742	21,52
628,201	21,49
628,661	21,67
629,12	21,65
629,579	21,38
630,038	21,37
630,497	21,58
630,956	21,28
631,415	21,54
631,874	21,41
632,332	21,29
632,791	21,26
633,249	21,25
633,708	21,35
634,166	21,08
634,624	20,9
635,082	20,98
635,54	20,61
635,998	20,48
636,455	20,37
636,913	20,18
637,37	19,94
637,828	20,02
638,285	19,84
638,742	19,95
639,199	19,59
639,656	19,25
640,113	19,21
640,57	18,82
641,027	18,74
641,483	18,65
641,94	18,29
642,396	18,23
642,852	18,05
643,309	18,12
643,765	17,97
644,221	17,3
644,676	17,56
645,132	17,21
645,588	16,87
646,043	16,85
646,499	16,69
646,954	16,28
647,409	16,35
647,864	16,2
648,319	15,92
648,774	16,04
649,229	15,58
649,684	15,51
650,139	15,43
650,593	15,36
651,047	15,37
651,502	15,19
651,956	15,06
652,41	15,07
652,864	15
653,318	14,77
653,772	14,79
654,225	14,83
654,679	14,65
655,133	14,42
655,586	14,5
656,039	14,44
656,492	14,29
656,946	14,11
657,399	13,86
657,851	13,79
658,304	13,74
658,757	13,66
659,209	13,59
659,662	13,38
660,114	13,29
660,567	13,18
661,019	13,14
661,471	12,89
661,923	12,73
662,375	12,64
662,826	12,46
663,278	12,3
663,73	12,3
664,181	12,12
664,632	12,05
665,084	12,21
665,535	11,94
665,986	11,78
666,437	11,91
666,888	11,65
667,338	11,66
667,789	11,82
668,24	11,7
668,69	11,55
669,14	11,64
669,591	11,54
670,041	11,51
670,491	11,59
670,941	11,71
671,391	11,57
671,84	11,59
672,29	11,66
672,74	11,67
673,189	11,72
673,638	11,89
674,088	12,1
674,537	12,09
674,986	12,37
675,435	12,08
675,883	12,33
676,332	12,43
676,781	12,41
677,229	12,65
677,678	12,83
678,126	12,95
678,574	13,14
679,022	13,41
679,47	13,4
679,918	13,54
680,366	13,79
680,814	14,05
681,261	14,18
681,709	14,14
682,156	14,53
682,604	14,54
683,051	14,81
683,498	14,89
683,945	15,22
684,392	15,57
684,839	15,77
685,286	15,74
685,732	16,21
686,179	16,37
686,625	16,66
687,071	16,83
687,518	17,53
687,964	17,8
688,41	18,46
688,856	18,78
689,301	19,11
689,747	19,46
690,193	20,2
690,638	20,83
691,084	21,39
691,529	22,03
691,974	22,73
692,419	23,54
692,864	24,02
693,309	24,98
693,754	25,85
694,199	26,69
694,643	27,64
695,088	28,48
695,532	29,36
695,977	30,41
696,421	31,3
696,865	31,77
697,309	32,77
697,753	33,66
698,197	34,79
698,64	35,55
699,084	36,72
699,527	37,56
699,971	38,42
700,414	39,36
700,857	40
701,3	41,03
701,743	41,85
702,186	42,8
702,629	43,32
703,072	44,11
703,515	45,07
703,957	45,68
704,399	47,14
704,842	46,95
705,284	48,08
705,726	48,83
706,168	49,51
706,61	50,05
707,052	51,18
707,494	51,68
707,935	52,41
708,377	53,18
708,818	53,47
709,26	54,67
709,701	54,94
710,142	55,73
710,583	56,06
711,024	56,81
711,465	57,01
711,905	57,96
712,346	58,87
712,787	59,56
713,227	59,82
713,667	60,53
714,108	61,33
714,548	61,56
714,988	62,12
715,428	62,46
715,868	62,79
716,307	63,56
716,747	64,02
717,186	64,98
717,626	65,21
718,065	65,91
718,504	66,03
718,944	66,14
719,383	66,77
719,822	67,37
720,261	68,06
720,699	68,57
721,138	68,91
721,576	69,09
722,015	70,03
722,453	69,91
722,892	70,2
723,33	71,26
723,768	70,81
724,206	71,66
724,644	71,82
725,081	71,79
725,519	71,93
725,957	72,99
726,394	73,08
726,832	73,18
727,269	73,28
727,706	74,69
728,143	74
728,58	74,23
729,017	74,66
729,454	74,86
729,89	75,31
730,327	75,18
730,764	75,75
731,2	75,94
731,636	75,66
732,072	75,59
732,509	76,54
732,945	76,61
733,38	76,86
733,816	77,16
734,252	77,41
734,688	77,38
735,123	77,53
735,559	77,48
735,994	77,5
736,429	77,78
736,864	77,13
737,299	77,73
737,734	77,39
738,169	77,92
738,604	78,51
739,038	78,79
739,473	78,09
739,907	78,47
740,342	78,13
740,776	78,57
741,21	78,41
741,644	78,98
742,078	78,77
742,512	78,63
742,946	78,91
743,379	78,74
743,813	79,17
744,246	79,09
744,68	79,11
745,113	78,83
745,546	79,33
745,979	79,16
746,412	79,36
746,845	78,82
747,278	78,8
747,711	78,89
748,143	78,82
748,576	79,31
749,008	79,19
749,441	78,94
749,873	79,19
750,305	79,02
750,737	79,08
751,169	78,85
751,601	79,02
752,032	78,76
752,464	78,74
752,896	78,68
753,327	78,72
753,758	78,7
754,19	79,19
754,621	78,87
755,052	78,77
755,483	78,85
755,914	78,74
756,344	79,19
756,775	78,51
757,206	78,47
757,636	78,93
758,066	78,8
758,497	78,58
758,927	78,41
759,357	78,95
759,787	78,76
760,217	78,16
760,647	78,09
761,076	78,79
761,506	78,34
761,935	78,59
762,365	78,31
762,794	78,32
763,223	77,6
763,653	78
764,082	78,07
764,51	77,69
764,939	77,99
765,368	78,34
765,797	77,93
766,225	78,23
766,654	77,62
767,082	77,8
767,51	78,37
767,938	77,63
768,367	77,93
768,795	78,15
769,222	77,91
769,65	77,91
770,078	77,57
770,505	77,53
770,933	77,76
771,36	77,65
771,788	77,63
772,215	77,54
772,642	77,85
773,069	77,95
773,496	77,91
773,923	77,66
774,349	77,81
774,776	77,94
775,203	77,62
775,629	77,51
776,055	77,43
776,482	77,81
776,908	77,64
777,334	77,38
777,76	77,64
778,186	77,28
778,611	77,39
779,037	77,42
779,463	77,32
779,888	77,55
780,314	77,64
780,739	77,46
781,164	77,36
781,589	77
782,014	77,51
782,439	77,25
782,864	77,33
783,289	77,29
783,713	77,08
784,138	77,13
784,562	77,78
784,987	76,92
785,411	77,17
785,835	77,41
786,259	77,15
786,683	77,52
787,107	77,17
787,531	77,48
787,954	77,45
788,378	76,79
788,802	77,44
789,225	77,58
789,648	77,47
790,071	77,35
790,495	77,14
790,918	76,99
791,34	77,45
791,763	77,47
792,186	77,37
792,609	76,75
793,031	77,38
793,454	77,24
793,876	77,53
794,298	77,06
794,721	76,85
795,143	77,14
795,565	76,98
795,986	77,31
796,408	77,04
796,83	77,28
797,252	77,5
797,673	77,09
798,094	77,54
798,516	76,94
798,937	76,91
799,358	77,02
799,779	77,43
800,2	76,81
800,621	77,22
801,042	77,53
801,462	76,68
801,883	77,07
802,303	76,72
802,724	76,77
803,144	76,89
803,564	77,03
803,984	76,83
804,404	77,33
804,824	77,4
805,244	77,27
805,664	77,28
806,084	77,1
806,503	76,97
806,923	77,08
807,342	76,75
807,761	77,1
808,18	77,13
808,599	77
809,018	76,26
809,437	77,13
809,856	76,94
810,275	77,24
810,693	77,1
811,112	76,8
811,53	76,89
811,949	76,74
812,367	76,7
812,785	76,95
813,203	76,99
813,621	76,67
814,039	76,77
814,457	76,88
814,874	76,55
815,292	76,7
815,709	77,17
816,127	76,62
816,544	77,19
816,961	76,28
817,378	76,7
817,795	77,04
818,212	77,25
818,629	76,87
819,046	77,05
819,462	76,93
819,879	76,72
820,295	76,88
820,712	77,03
821,128	76,78
821,544	76,85
821,96	76,93
822,376	76,55
822,792	76,49
823,208	76,96
823,624	76,53
824,039	76,89
824,455	76,73
824,87	77,38
825,286	77,45
825,701	76,95
826,116	77,14
826,531	76,75
826,946	76,57
827,361	76,35
827,776	76,21
828,19	76,51
828,605	76,74
829,02	76,84
829,434	76,63
829,848	76,83
830,263	76,98
830,677	76,65
831,091	76,73
831,505	76,84
831,919	76,77
832,332	76,83
832,746	77,04
833,16	76,57
833,573	76,39
833,987	76,08
834,4	76,76
