Data from C_2_0_Relative__7__00050.txt Node

Date: Mon Jan 29 12:54:02 CET 2024
User: diatiterra
Spectrometer: HDX00911
Trigger mode: 0
Integration Time (sec): 6,000000E-3
Scans to average: 4
Nonlinearity correction enabled: false
Boxcar width: 0
Storing dark spectrum: false
XAxis mode: Wavelengths
Number of Pixels in Spectrum: 2068
>>>>>Begin Spectral Data<<<<<
194,468	28,05
195,025	36,18
195,581	32,56
196,138	31,58
196,694	42,07
197,251	36,07
197,807	45,13
198,363	38,88
198,919	34,48
199,474	37,11
200,03	37,75
200,586	38,25
201,141	35,68
201,696	37,63
202,251	35,23
202,806	34,7
203,361	45,57
203,916	34,75
204,471	38,32
205,025	39,35
205,58	37,14
206,134	30,8
206,688	34,71
207,242	35,67
207,796	33,88
208,35	38,5
208,904	41,84
209,457	38,28
210,011	36,79
210,564	36,17
211,117	37,33
211,67	43,86
212,223	41,11
212,776	35,08
213,329	39,6
213,881	35,11
214,434	37,76
214,986	40,14
215,538	41,59
216,09	34,31
216,642	41,33
217,194	41,04
217,746	38,98
218,297	37,98
218,849	37,77
219,4	39,25
219,951	34,89
220,502	35,97
221,053	34,66
221,604	37,29
222,155	35,17
222,705	35,28
223,256	40,35
223,806	42,35
224,356	40,17
224,906	38,99
225,456	38,11
226,006	40,23
226,556	40,29
227,106	40,4
227,655	42
228,204	32,96
228,754	41,68
229,303	39,56
229,852	37,8
230,401	33,33
230,949	44,18
231,498	38
232,047	41,11
232,595	35,56
233,143	37,44
233,691	43,85
234,239	33,71
234,787	38,86
235,335	39,35
235,883	45,88
236,43	36,36
236,978	36,34
237,525	30,58
238,072	36,82
238,619	42,99
239,166	46,14
239,713	33,75
240,26	30,91
240,806	37,88
241,353	36,78
241,899	42,95
242,445	35,88
242,991	35,57
243,537	40,28
244,083	39
244,629	44,07
245,174	35,59
245,72	37,78
246,265	38,69
246,81	36,57
247,355	38,59
247,9	39,17
248,445	29,85
248,99	39,43
249,534	38,55
250,079	38,44
250,623	37,92
251,168	38,48
251,712	41,08
252,256	36,13
252,8	35,95
253,343	32,23
253,887	40,21
254,43	29,83
254,974	37,41
255,517	37,1
256,06	37,75
256,603	37,73
257,146	38,98
257,689	38,53
258,232	41,27
258,774	32,18
259,317	35,21
259,859	36,9
260,401	43,07
260,943	35,56
261,485	36,44
262,027	35,01
262,569	37
263,11	39,53
263,652	38,59
264,193	41,65
264,734	36,01
265,275	38,73
265,816	36,92
266,357	41,5
266,898	39,5
267,438	43,81
267,979	40,04
268,519	45,95
269,059	38,79
269,6	42,44
270,14	38,74
270,68	33,69
271,219	39,66
271,759	38,43
272,298	32,29
272,838	37,16
273,377	41,77
273,916	38,03
274,455	35,19
274,994	40,31
275,533	38,11
276,072	41,42
276,61	35,46
277,149	40,05
277,687	35,93
278,225	35,52
278,763	37,56
279,301	34,67
279,839	35,91
280,377	39,1
280,914	44,55
281,452	41,51
281,989	41,32
282,526	39,48
283,064	36,69
283,601	38,52
284,137	40,71
284,674	38,35
285,211	41,83
285,747	42,24
286,284	40,87
286,82	38,04
287,356	40,18
287,892	36,73
288,428	33,91
288,964	43,53
289,5	41,12
290,035	43,93
290,571	41,46
291,106	35,15
291,641	42,95
292,176	43,77
292,711	45,39
293,246	36,93
293,781	40,86
294,315	41,15
294,85	36,95
295,384	37,75
295,918	34,67
296,453	37,74
296,987	34,83
297,52	39,47
298,054	36,02
298,588	43,26
299,121	42,79
299,655	38,46
300,188	37,13
300,721	47,91
301,254	35,39
301,787	44,07
302,32	46,08
302,853	36,78
303,385	38,33
303,918	33,18
304,45	34,65
304,982	36,89
305,514	39,35
306,046	41,36
306,578	33,87
307,11	39,63
307,641	35,94
308,173	38,86
308,704	39,29
309,236	32,6
309,767	33,65
310,298	37,25
310,829	36,85
311,359	34,35
311,89	44,02
312,421	37,89
312,951	36,74
313,481	36,18
314,012	31,1
314,542	37,65
315,072	42,46
315,601	32,43
316,131	37,76
316,661	28,02
317,19	36,43
317,72	32,62
318,249	27,54
318,778	34,56
319,307	35,76
319,836	35,1
320,365	33,64
320,893	37,47
321,422	31,8
321,95	39,56
322,479	40,86
323,007	36,23
323,535	40
324,063	33,57
324,591	38,77
325,118	38,9
325,646	33,25
326,173	33,33
326,701	44,52
327,228	34,55
327,755	30,38
328,282	39,84
328,809	39,74
329,336	30,95
329,862	31,82
330,389	35,17
330,915	38,64
331,441	31,7
331,968	33,01
332,494	32,5
333,02	29,89
333,545	37,63
334,071	37,72
334,597	34,13
335,122	34,3
335,648	33,76
336,173	37,31
336,698	31,42
337,223	36,44
337,748	32,77
338,272	33,26
338,797	27,33
339,322	31,9
339,846	35,96
340,37	40
340,894	30,51
341,419	31,93
341,942	33,06
342,466	32,99
342,99	33,82
343,514	34,59
344,037	27,8
344,56	28,95
345,084	32,39
345,607	31,05
346,13	32,44
346,653	32,77
347,175	30,89
347,698	35,95
348,221	32,22
348,743	32,9
349,265	33,91
349,787	34,34
350,309	33,33
350,831	33,45
351,353	30,12
351,875	30,03
352,397	33,17
352,918	30,2
353,439	36,71
353,961	37,48
354,482	32,15
355,003	27,66
355,524	32,32
356,044	34,55
356,565	35,26
357,086	27,44
357,606	34,41
358,126	37,54
358,646	35,14
359,167	35,5
359,687	28,62
360,206	29,69
360,726	32,9
361,246	35,59
361,765	32,28
362,285	33,14
362,804	31,26
363,323	34,27
363,842	33,51
364,361	30,61
364,88	30,92
365,398	31,58
365,917	29,99
366,435	33,16
366,954	32,29
367,472	32,73
367,99	34,5
368,508	31,26
369,026	34,27
369,544	32,8
370,061	29,64
370,579	29,56
371,096	30,98
371,613	35,95
372,131	31,48
372,648	34,45
373,165	32,63
373,681	33,15
374,198	32,42
374,715	35,71
375,231	33,51
375,747	28,36
376,264	33,3
376,78	33,33
377,296	29
377,812	32,5
378,327	33,27
378,843	31,69
379,359	30,92
379,874	29,64
380,389	30,29
380,905	34
381,42	30,7
381,935	30,21
382,449	34,11
382,964	27,02
383,479	29,53
383,993	28,52
384,508	28,66
385,022	28,07
385,536	26,09
386,05	29,11
386,564	26,37
387,078	28,43
387,592	28,29
388,105	25,62
388,619	28,36
389,132	27,19
389,645	29,65
390,158	26,79
390,671	27,24
391,184	25,25
391,697	27
392,21	25,89
392,722	24,3
393,235	24,44
393,747	24,02
394,259	24,49
394,771	23,44
395,283	22,4
395,795	23,68
396,307	22,56
396,818	24,09
397,33	23,71
397,841	23,74
398,353	23,01
398,864	23,36
399,375	21,61
399,886	20,79
400,397	23,23
400,907	21,62
401,418	20,61
401,928	19,41
402,439	20,48
402,949	20,19
403,459	18,22
403,969	18,7
404,479	17,85
404,989	18,34
405,498	18,3
406,008	17,69
406,517	16,2
407,027	15,95
407,536	15,77
408,045	14,78
408,554	14,34
409,063	15,3
409,572	14,44
410,08	13,72
410,589	13,56
411,097	12,1
411,606	12,79
412,114	12,25
412,622	11,95
413,13	11,04
413,638	11,79
414,145	11,67
414,653	11,03
415,16	10,36
415,668	10,66
416,175	9,99
416,682	9,92
417,189	9,56
417,696	9,85
418,203	9,38
418,71	9,76
419,216	9,19
419,723	9,29
420,229	9,3
420,735	8,58
421,242	9,07
421,748	8,58
422,254	8,42
422,759	8,72
423,265	8,27
423,771	8,45
424,276	8,48
424,781	8,1
425,287	8,4
425,792	8,33
426,297	8,1
426,802	8,01
427,306	8,16
427,811	7,92
428,316	7,93
428,82	7,95
429,324	7,57
429,829	7,89
430,333	8,22
430,837	7,95
431,34	7,96
431,844	7,55
432,348	7,59
432,851	7,52
433,355	7,49
433,858	7,56
434,361	7,78
434,864	7,46
435,367	7,5
435,87	7,4
436,373	7,75
436,876	7,66
437,378	7,63
437,88	7,56
438,383	7,89
438,885	7,44
439,387	7,5
439,889	7,71
440,391	7,78
440,892	7,38
441,394	7,62
441,896	7,39
442,397	7,55
442,898	7,56
443,399	7,78
443,9	7,55
444,401	7,58
444,902	7,71
445,403	7,66
445,903	7,74
446,404	7,55
446,904	8,06
447,405	7,46
447,905	7,72
448,405	8,12
448,905	7,81
449,404	7,89
449,904	7,78
450,404	7,78
450,903	7,9
451,403	7,99
451,902	8,1
452,401	8,11
452,9	8,28
453,399	8,41
453,898	8,18
454,396	8,29
454,895	8,21
455,393	8,24
455,892	8,07
456,39	8,37
456,888	8,7
457,386	8,44
457,884	8,57
458,382	8,38
458,879	8,44
459,377	8,47
459,874	8,54
460,372	8,55
460,869	8,46
461,366	8,45
461,863	8,6
462,36	8,58
462,857	8,47
463,353	8,69
463,85	8,38
464,346	8,28
464,843	8,53
465,339	8,3
465,835	8,49
466,331	8,56
466,827	8,54
467,323	8,62
467,818	8,6
468,314	8,26
468,809	8,82
469,305	8,52
469,8	8,38
470,295	8,51
470,79	8,62
471,285	8,32
471,78	8,58
472,274	8,31
472,769	8,54
473,263	8,81
473,758	8,47
474,252	8,77
474,746	8,64
475,24	8,67
475,734	8,59
476,228	8,68
476,721	8,38
477,215	8,57
477,708	8,61
478,202	8,63
478,695	8,68
479,188	8,5
479,681	8,71
480,174	8,86
480,667	8,94
481,159	8,62
481,652	8,68
482,144	8,99
482,637	9,08
483,129	8,92
483,621	8,87
484,113	8,7
484,605	8,9
485,097	8,93
485,588	8,72
486,08	8,89
486,571	8,99
487,063	8,97
487,554	9,05
488,045	9,16
488,536	9,01
489,027	9,42
489,518	9,57
490,008	9,25
490,499	9,58
490,989	9,7
491,48	9,63
491,97	9,42
492,46	9,66
492,95	9,64
493,44	10,04
493,93	9,81
494,419	9,93
494,909	10,01
495,398	10,03
495,888	10,23
496,377	10,33
496,866	10,53
497,355	10,2
497,844	10,61
498,333	10,87
498,821	11,17
499,31	11,12
499,798	11,24
500,287	11,33
500,775	11,28
501,263	11,48
501,751	11,62
502,239	11,8
502,727	12,11
503,215	12,22
503,702	12,48
504,19	12,66
504,677	12,74
505,164	13,01
505,651	13,18
506,139	13,55
506,625	13,48
507,112	13,83
507,599	14,07
508,086	14,53
508,572	14,8
509,058	14,88
509,545	15,03
510,031	15,4
510,517	15,87
511,003	15,95
511,489	15,8
511,974	16,47
512,46	16,87
512,946	17,12
513,431	17,3
513,916	17,78
514,401	17,95
514,887	18,23
515,371	18,5
515,856	19,14
516,341	19,19
516,826	19,7
517,31	20,12
517,795	20,17
518,279	20,48
518,763	20,69
519,247	21,56
519,731	21,74
520,215	22,1
520,699	22,2
521,182	22,72
521,666	22,91
522,149	23,64
522,633	23,77
523,116	23,8
523,599	24,33
524,082	24,88
524,565	25,26
525,048	25,47
525,53	25,53
526,013	26,18
526,495	26,43
526,978	26,46
527,46	26,73
527,942	27,16
528,424	26,98
528,906	27,72
529,388	27,76
529,87	27,59
530,351	27,97
530,833	28,47
531,314	28,28
531,795	28,75
532,277	28,98
532,758	28,7
533,238	29,23
533,719	29,26
534,2	29,18
534,681	29,7
535,161	29,75
535,642	29,57
536,122	29,81
536,602	29,57
537,082	29,94
537,562	29,97
538,042	29,98
538,522	29,82
539,001	29,97
539,481	30,33
539,96	30,1
540,44	30,38
540,919	30,43
541,398	30,37
541,877	30,21
542,356	30,49
542,835	30,15
543,313	30,63
543,792	30,57
544,27	30,73
544,749	30,41
545,227	30,67
545,705	30,78
546,183	31,02
546,661	30,68
547,139	30,84
547,616	30,86
548,094	30,66
548,571	31,21
549,049	31,02
549,526	31,3
550,003	31,3
550,48	30,89
550,957	31,22
551,434	31,04
551,911	31,31
552,387	31,34
552,864	31,07
553,34	31,25
553,817	31,28
554,293	31,49
554,769	31,21
555,245	31,51
555,721	31,52
556,197	31,42
556,672	30,93
557,148	30,96
557,623	31,1
558,099	31,08
558,574	31,53
559,049	30,95
559,524	30,83
559,999	30,85
560,474	30,94
560,948	30,85
561,423	30,86
561,897	30,92
562,372	30,66
562,846	30,4
563,32	30,39
563,794	30,36
564,268	30,31
564,742	29,97
565,216	30,03
565,69	30
566,163	29,66
566,636	29,75
567,11	29,36
567,583	29,29
568,056	29,22
568,529	29,2
569,002	28,92
569,475	29,14
569,947	28,65
570,42	28,31
570,892	28,33
571,365	28,12
571,837	27,91
572,309	27,89
572,781	27,63
573,253	27,62
573,725	27,16
574,197	27,02
574,668	27,03
575,14	26,8
575,611	26,83
576,082	26,35
576,554	26,37
577,025	26,28
577,496	25,9
577,967	25,75
578,437	25,87
578,908	25,66
579,379	25,15
579,849	25,07
580,319	25,02
580,79	25,06
581,26	24,85
581,73	24,78
582,2	24,73
582,669	24,64
583,139	24,54
583,609	24,3
584,078	23,92
584,548	23,93
585,017	23,93
585,486	23,69
585,955	23,62
586,424	23,67
586,893	23,69
587,362	23,59
587,83	23,47
588,299	23,38
588,767	23,22
589,236	23,41
589,704	23,06
590,172	22,95
590,64	22,89
591,108	22,57
591,576	22,52
592,043	22,5
592,511	22,37
592,978	22,57
593,446	22,37
593,913	22,54
594,38	22,33
594,847	22,16
595,314	22,28
595,781	22,36
596,248	22,19
596,715	22,3
597,181	22,17
597,647	22,08
598,114	21,9
598,58	21,98
599,046	21,94
599,512	22
599,978	21,79
600,444	21,87
600,91	21,69
601,375	21,71
601,841	21,57
602,306	21,69
602,771	21,49
603,236	21,46
603,702	21,38
604,167	21,39
604,631	21,55
605,096	21,41
605,561	21,28
606,025	21,17
606,49	21,05
606,954	21,09
607,418	20,9
607,882	20,82
608,347	20,56
608,81	20,7
609,274	20,48
609,738	20,2
610,202	20,22
610,665	20,2
611,128	20,35
611,592	20,01
612,055	19,78
612,518	19,74
612,981	19,77
613,444	19,44
613,907	19,53
614,369	19,28
614,832	19,19
615,294	19,16
615,757	19,07
616,219	18,85
616,681	18,97
617,143	18,76
617,605	18,67
618,067	18,46
618,529	18,54
618,99	18,51
619,452	18,41
619,913	18,26
620,375	18,35
620,836	18,14
621,297	18,09
621,758	17,89
622,219	17,78
622,68	17,8
623,14	17,74
623,601	17,65
624,061	17,66
624,522	17,78
624,982	17,52
625,442	17,45
625,902	17,53
626,362	17,51
626,822	17,54
627,282	17,39
627,742	17,41
628,201	17,27
628,661	17,38
629,12	17,36
629,579	17,31
630,038	17,39
630,497	17,39
630,956	17,33
631,415	17,16
631,874	17,16
632,332	17,05
632,791	17,18
633,249	17,01
633,708	16,87
634,166	16,92
634,624	16,83
635,082	16,89
635,54	16,71
635,998	16,65
636,455	16,53
636,913	16,28
637,37	16,3
637,828	16,14
638,285	16,15
638,742	15,99
639,199	15,88
639,656	15,7
640,113	15,4
640,57	15,47
641,027	15,45
641,483	15,25
641,94	15,1
642,396	14,94
642,852	14,79
643,309	14,74
643,765	14,49
644,221	14,3
644,676	14,25
645,132	14,09
645,588	13,96
646,043	13,79
646,499	13,64
646,954	13,36
647,409	13,39
647,864	13,3
648,319	13,04
648,774	12,97
649,229	13,02
649,684	12,66
650,139	12,73
650,593	12,72
651,047	12,47
651,502	12,52
651,956	12,42
652,41	12,36
652,864	12,19
653,318	12,33
653,772	12,19
654,225	12,06
654,679	12,13
655,133	12,09
655,586	11,98
656,039	11,8
656,492	11,76
656,946	11,73
657,399	11,65
657,851	11,39
658,304	11,37
658,757	11,35
659,209	11,29
659,662	10,96
660,114	10,85
660,567	10,89
661,019	10,76
661,471	10,55
661,923	10,5
662,375	10,26
662,826	10,26
663,278	10,12
663,73	10,03
664,181	9,92
664,632	9,85
665,084	9,8
665,535	9,66
665,986	9,76
666,437	9,59
666,888	9,58
667,338	9,52
667,789	9,56
668,24	9,49
668,69	9,44
669,14	9,37
669,591	9,42
670,041	9,32
670,491	9,42
670,941	9,35
671,391	9,48
671,84	9,48
672,29	9,53
672,74	9,52
673,189	9,57
673,638	9,58
674,088	9,72
674,537	9,84
674,986	9,88
675,435	9,89
675,883	9,96
676,332	10,17
676,781	10,18
677,229	10,31
677,678	10,37
678,126	10,52
678,574	10,67
679,022	10,84
679,47	10,92
679,918	10,93
680,366	11,03
680,814	11,35
681,261	11,35
681,709	11,47
682,156	11,68
682,604	11,91
683,051	12,06
683,498	12,16
683,945	12,43
684,392	12,52
684,839	12,63
685,286	12,84
685,732	13,06
686,179	13,28
686,625	13,71
687,071	13,92
687,518	13,91
687,964	14,38
688,41	14,78
688,856	14,96
689,301	15,31
689,747	15,75
690,193	16,21
690,638	16,65
691,084	17,1
691,529	17,45
691,974	18,02
692,419	18,51
692,864	19,2
693,309	19,62
693,754	20,15
694,199	20,72
694,643	21,18
695,088	21,76
695,532	22,55
695,977	22,99
696,421	23,47
696,865	24,01
697,309	24,63
697,753	25,17
698,197	25,62
698,64	26,22
699,084	26,73
699,527	27,26
699,971	27,75
700,414	28,23
700,857	28,66
701,3	29,15
701,743	29,58
702,186	30,12
702,629	30,41
703,072	30,86
703,515	31,32
703,957	31,81
704,399	32,01
704,842	32,57
705,284	32,84
705,726	33,2
706,168	33,45
706,61	33,81
707,052	34,1
707,494	34,75
707,935	34,95
708,377	35,26
708,818	35,36
709,26	35,95
709,701	35,73
710,142	36,23
710,583	36,67
711,024	36,8
711,465	36,84
711,905	37,52
712,346	37,75
712,787	37,96
713,227	37,99
713,667	38,4
714,108	38,63
714,548	38,88
714,988	39,03
715,428	39,33
715,868	39,52
716,307	39,68
716,747	39,94
717,186	40,14
717,626	40,39
718,065	40,44
718,504	40,82
718,944	40,93
719,383	40,89
719,822	41,22
720,261	41,28
720,699	41,5
721,138	41,78
721,576	41,9
722,015	42,21
722,453	42,17
722,892	42,12
723,33	42,47
723,768	42,68
724,206	42,75
724,644	42,8
725,081	42,77
725,519	43,15
725,957	43,3
726,394	43,33
726,832	43,54
727,269	43,37
727,706	43,64
728,143	43,63
728,58	43,73
729,017	43,82
729,454	43,9
729,89	43,84
730,327	43,89
730,764	44,06
731,2	44,11
731,636	43,96
732,072	44,33
732,509	44,08
732,945	44,17
733,38	44,38
733,816	44,17
734,252	44,31
734,688	44,45
735,123	44,44
735,559	44,39
735,994	44,46
736,429	44,71
736,864	44,51
737,299	44,68
737,734	44,68
738,169	44,85
738,604	44,65
739,038	44,56
739,473	44,54
739,907	44,69
740,342	44,58
740,776	44,76
741,21	44,6
741,644	44,5
742,078	44,56
742,512	44,55
742,946	44,53
743,379	44,65
743,813	44,48
744,246	44,79
744,68	44,48
745,113	44,3
745,546	44,43
745,979	44,4
746,412	44,69
746,845	44,41
747,278	44,58
747,711	44,48
748,143	44,3
748,576	44,38
749,008	44,05
749,441	44,31
749,873	44,03
750,305	44,07
750,737	44,04
751,169	43,95
751,601	43,99
752,032	44
752,464	43,98
752,896	44,09
753,327	43,92
753,758	43,73
754,19	43,86
754,621	43,7
755,052	43,75
755,483	43,78
755,914	43,54
756,344	43,52
756,775	43,6
757,206	43,46
757,636	43,55
758,066	43,58
758,497	43,52
758,927	43,27
759,357	43,51
759,787	43,26
760,217	43,4
760,647	43,25
761,076	43,35
761,506	43,17
761,935	43,17
762,365	43,03
762,794	42,99
763,223	43,04
763,653	43,01
764,082	43,06
764,51	42,98
764,939	42,98
765,368	42,59
765,797	42,69
766,225	42,87
766,654	42,9
767,082	42,95
767,51	42,73
767,938	42,54
768,367	42,8
768,795	42,79
769,222	42,65
769,65	42,78
770,078	42,68
770,505	42,75
770,933	42,63
771,36	42,55
771,788	42,66
772,215	42,44
772,642	42,65
773,069	42,55
773,496	42,47
773,923	42,35
774,349	42,47
774,776	42,55
775,203	42,36
775,629	42,31
776,055	42,47
776,482	42,27
776,908	42,41
777,334	42,37
777,76	42,16
778,186	42,26
778,611	42,14
779,037	42,33
779,463	42,07
779,888	42,08
780,314	42,37
780,739	42,13
781,164	42,27
781,589	42,19
782,014	42,11
782,439	41,88
782,864	42,03
783,289	42,08
783,713	42,1
784,138	42,08
784,562	42,06
784,987	42,2
785,411	42,08
785,835	41,93
786,259	41,91
786,683	42,05
787,107	42,01
787,531	41,95
787,954	41,79
788,378	41,84
788,802	41,78
789,225	41,97
789,648	41,57
790,071	41,78
790,495	41,8
790,918	41,83
791,34	41,95
791,763	41,7
792,186	41,93
792,609	41,69
793,031	41,74
793,454	41,72
793,876	41,62
794,298	41,68
794,721	41,75
795,143	41,76
795,565	41,59
795,986	41,66
796,408	41,71
796,83	41,48
797,252	41,83
797,673	41,59
798,094	41,6
798,516	41,39
798,937	41,54
799,358	41,53
799,779	41,78
800,2	41,78
800,621	41,63
801,042	41,21
801,462	41,56
801,883	41,78
802,303	41,48
802,724	41,59
803,144	41,54
803,564	41,46
803,984	41,67
804,404	41,58
804,824	41,73
805,244	41,56
805,664	41,64
806,084	41,52
806,503	41,67
806,923	41,43
807,342	41,55
807,761	41,35
808,18	41,65
808,599	41,51
809,018	41,28
809,437	41,41
809,856	41,46
810,275	41,76
810,693	41,54
811,112	41,5
811,53	41,38
811,949	41,58
812,367	41,27
812,785	41,32
813,203	41,28
813,621	41,1
814,039	41,25
814,457	41,43
814,874	41,61
815,292	41,35
815,709	41,36
816,127	41,34
816,544	41,37
816,961	41,44
817,378	41,39
817,795	41,41
818,212	41,33
818,629	41,2
819,046	41,25
819,462	41,2
819,879	41,44
820,295	41,2
820,712	41,31
821,128	41,2
821,544	41,17
821,96	41,38
822,376	41,31
822,792	41,18
823,208	41,13
823,624	41,36
824,039	41,27
824,455	41,13
824,87	41,15
825,286	41,35
825,701	41,28
826,116	41,13
826,531	41,11
826,946	41,19
827,361	41,45
827,776	41,29
828,19	41,14
828,605	41,3
829,02	41,25
829,434	41,09
829,848	41,17
830,263	40,96
830,677	41,09
831,091	41,26
831,505	41,4
831,919	41,27
832,332	41
832,746	41,02
833,16	41,13
833,573	41,04
833,987	41,09
834,4	40,86
834,813	41,08
835,226	41,22
835,639	40,97
836,052	41,13
836,465	41,26
836,878	41,31
837,29	41,27
837,703	40,98
838,116	41,04
838,528	41,11
838,94	41,07
