Data from C_6_0_Relative__4__00067.txt Node

Date: Mon Jan 29 12:55:35 CET 2024
User: diatiterra
Spectrometer: HDX00911
Trigger mode: 0
Integration Time (sec): 6,000000E-3
Scans to average: 4
Nonlinearity correction enabled: false
Boxcar width: 0
Storing dark spectrum: false
XAxis mode: Wavelengths
Number of Pixels in Spectrum: 2068
>>>>>Begin Spectral Data<<<<<
194,468	28,66
195,025	27,64
195,581	9,88
196,138	31,58
196,694	34,15
197,251	31,83
197,807	28,74
198,363	34,13
198,919	28,69
199,474	34,89
200,03	28,04
200,586	26,82
201,141	26,71
201,696	32,47
202,251	24,85
202,806	26,69
203,361	34,18
203,916	29
204,471	26,08
205,025	31,83
205,58	28,19
206,134	26,28
206,688	24,51
207,242	29,09
207,796	29,18
208,35	31,66
208,904	30
209,457	32,9
210,011	29,6
210,564	30,56
211,117	29,79
211,67	32,19
212,223	28,05
212,776	31,85
213,329	29,29
213,881	32,44
214,434	32,18
214,986	35,6
215,538	29,87
216,09	32,73
216,642	33,83
217,194	26,67
217,746	37,29
218,297	28,97
218,849	28,76
219,4	30,9
219,951	29,11
220,502	27,41
221,053	34,03
221,604	30,63
222,155	32,64
222,705	35,07
223,256	33,84
223,806	31,24
224,356	32,48
224,906	32,29
225,456	32,21
226,006	26,36
226,556	28,18
227,106	37,72
227,655	31,98
228,204	28,98
228,754	33,47
229,303	29,01
229,852	37,8
230,401	31,98
230,949	36,92
231,498	31,56
232,047	32,12
232,595	31,17
233,143	33,04
233,691	34,63
234,239	26,79
234,787	30
235,335	35,05
235,883	34,67
236,43	33,68
236,978	28,7
237,525	23,44
238,072	38,13
238,619	36,45
239,166	35,32
239,713	31,06
240,26	39,42
240,806	38,74
241,353	29,89
241,899	35,9
242,445	35,88
242,991	28,63
243,537	29,27
244,083	32,78
244,629	37,92
245,174	30,79
245,72	32,67
246,265	33,33
246,81	33,18
247,355	32,71
247,9	32,17
248,445	25,37
248,99	32,03
249,534	30,61
250,079	34,89
250,623	29,71
251,168	28,19
251,712	30,75
252,256	28,6
252,8	32,68
253,343	35,78
253,887	31,91
254,43	28,33
254,974	30,35
255,517	28,57
256,06	33,11
256,603	25,91
257,146	27,15
257,689	29,65
258,232	35,15
258,774	26,24
259,317	30,93
259,859	31,89
260,401	32,25
260,943	29,11
261,485	34,89
262,027	25,6
262,569	29,5
263,11	36,11
263,652	31,29
264,193	31,24
264,734	29,82
265,275	30,75
265,816	29,45
266,357	30,84
266,898	29,45
267,438	34,4
267,979	35,4
268,519	33,7
269,059	25,7
269,6	28,89
270,14	34,91
270,68	30,08
271,219	30,38
271,759	32,36
272,298	32,07
272,838	31,65
273,377	31,48
273,916	29,08
274,455	31,85
274,994	28,63
275,533	33,49
276,072	29,61
276,61	31,5
277,149	22,57
277,687	23,34
278,225	30,32
278,763	32,81
279,301	31,33
279,839	31,18
280,377	29,38
280,914	33,18
281,452	31,42
281,989	35,16
282,526	32,83
283,064	35,69
283,601	25,29
284,137	32,14
284,674	25,49
285,211	34,64
285,747	30,31
286,284	30,59
286,82	36,67
287,356	29,14
287,892	27,44
288,428	28,33
288,964	38,82
289,5	30,79
290,035	29,36
290,571	30
291,106	30,45
291,641	33,86
292,176	30,56
292,711	31,14
293,246	32,57
293,781	32,51
294,315	28,93
294,85	27,88
295,384	28,54
295,918	25,33
296,453	31,37
296,987	28,91
297,52	33,33
298,054	24,16
298,588	35,65
299,121	29,49
299,655	28,28
300,188	25,28
300,721	33,26
301,254	26,94
301,787	28,09
302,32	25,58
302,853	30,84
303,385	32,6
303,918	22,05
304,45	26,54
304,982	30
305,514	29,4
306,046	25,38
306,578	30,89
307,11	29,37
307,641	25
308,173	28,64
308,704	31,47
309,236	28,47
309,767	24,71
310,298	33,26
310,829	29,11
311,359	29,44
311,89	28,44
312,421	29,15
312,951	30,93
313,481	30,88
314,012	29,98
314,542	30,35
315,072	25,88
315,601	29,5
316,131	28,83
316,661	35,99
317,19	25,57
317,72	25
318,249	26,86
318,778	31,86
319,307	26,35
319,836	33,03
320,365	32,49
320,893	28,94
321,422	27,88
321,95	34,67
322,479	29,57
323,007	25,36
323,535	26,28
324,063	28,84
324,591	29,55
325,118	28,79
325,646	32,55
326,173	28,31
326,701	31,43
327,228	21,59
327,755	28,71
328,282	23,8
328,809	26,49
329,336	25,17
329,862	29,09
330,389	25,52
330,915	25,45
331,441	29,37
331,968	26,02
332,494	31,25
333,02	27,74
333,545	26,76
334,071	23,44
334,597	20,67
335,122	27,84
335,648	27,58
336,173	22,34
336,698	26,15
337,223	30,8
337,748	26,89
338,272	24,9
338,797	18,22
339,322	25,57
339,846	24,04
340,37	27,85
340,894	20,04
341,419	27,52
341,942	23,94
342,466	28,39
342,99	25,31
343,514	28,09
344,037	22,2
344,56	13,97
345,084	22,54
345,607	23,29
346,13	21,76
346,653	23,48
347,175	21,99
347,698	25,54
348,221	23,65
348,743	26,95
349,265	25,74
349,787	23,31
350,309	26,84
350,831	23,45
351,353	23,24
351,875	21,81
352,397	22
352,918	23,38
353,439	22,2
353,961	26,89
354,482	22,9
355,003	23,57
355,524	22,26
356,044	24,84
356,565	21,88
357,086	20,54
357,606	19,71
358,126	29,67
358,646	23,48
359,167	26,55
359,687	23,74
360,206	22,9
360,726	21,45
361,246	25,74
361,765	19,23
362,285	23,56
362,804	23,14
363,323	21,35
363,842	23,77
364,361	23,53
364,88	20,79
365,398	21,32
365,917	22,43
366,435	18,38
366,954	21,07
367,472	22,59
367,99	21,4
368,508	22,25
369,026	18,6
369,544	20,12
370,061	21,12
370,579	20,72
371,096	20,35
371,613	22,64
372,131	20,57
372,648	19,48
373,165	20,91
373,681	18,4
374,198	20,44
374,715	20,19
375,231	20,31
375,747	19,53
376,264	18,63
376,78	18,52
377,296	18,01
377,812	18,38
378,327	17,33
378,843	21,42
379,359	20,98
379,874	18,11
380,389	17,73
380,905	19,38
381,42	18,22
381,935	17,61
382,449	20,53
382,964	17,39
383,479	19,35
383,993	16,63
384,508	18,21
385,022	17,71
385,536	13,97
386,05	16,92
386,564	17,56
387,078	17,83
387,592	17,35
388,105	16,46
388,619	15,6
389,132	14,36
389,645	18,64
390,158	13,97
390,671	16,9
391,184	13,86
391,697	16,18
392,21	14,14
392,722	14,68
393,235	15,15
393,747	15,08
394,259	15,12
394,771	15,37
395,283	15,45
395,795	13,43
396,307	13,64
396,818	14,52
397,33	15,23
397,841	14,04
398,353	13,85
398,864	13,65
399,375	13,45
399,886	13,05
400,397	13,25
400,907	12,03
401,418	12,06
401,928	12,4
402,439	10,51
402,949	11,95
403,459	10,77
403,969	12,22
404,479	11,07
404,989	11,19
405,498	11,1
406,008	10,6
406,517	9,86
407,027	8,64
407,536	9,66
408,045	8,76
408,554	9,47
409,063	7,97
409,572	8,53
410,08	7,84
410,589	7,97
411,097	7,72
411,606	7,28
412,114	7,14
412,622	7,06
413,13	6,31
413,638	6,81
414,145	6,76
414,653	6,82
415,16	5,86
415,668	6,18
416,175	6,1
416,682	6,17
417,189	5,77
417,696	5,54
418,203	5,47
418,71	5,71
419,216	5,24
419,723	5,43
420,229	5,68
420,735	5,47
421,242	5,37
421,748	5
422,254	4,93
422,759	5,22
423,265	5,03
423,771	4,99
424,276	5,1
424,781	5,05
425,287	5,03
425,792	4,64
426,297	4,82
426,802	4,58
427,306	4,84
427,811	4,82
428,316	4,67
428,82	4,87
429,324	4,41
429,829	5,03
430,333	5,02
430,837	4,73
431,34	4,56
431,844	4,38
432,348	4,66
432,851	4,56
433,355	4,56
433,858	4,89
434,361	4,96
434,864	4,33
435,367	4,4
435,87	4,33
436,373	4,3
436,876	4,63
437,378	4,26
437,88	4,38
438,383	4,7
438,885	4,6
439,387	4,59
439,889	4,6
440,391	4,69
440,892	4,16
441,394	4,55
441,896	4,51
442,397	4,29
442,898	4,44
443,399	4,51
443,9	4,49
444,401	4,39
444,902	4,58
445,403	4,46
445,903	4,43
446,404	4,45
446,904	4,53
447,405	4,39
447,905	4,28
448,405	4,95
448,905	4,28
449,404	4,43
449,904	4,48
450,404	4,58
450,903	4,41
451,403	4,76
451,902	4,91
452,401	4,57
452,9	4,64
453,399	4,72
453,898	4,73
454,396	4,8
454,895	4,75
455,393	5,01
455,892	4,68
456,39	4,59
456,888	4,99
457,386	4,61
457,884	4,72
458,382	4,66
458,879	4,75
459,377	4,71
459,874	4,65
460,372	4,68
460,869	4,78
461,366	4,65
461,863	4,8
462,36	4,77
462,857	4,78
463,353	4,81
463,85	4,77
464,346	4,74
464,843	4,94
465,339	4,6
465,835	4,58
466,331	4,81
466,827	4,54
467,323	4,87
467,818	4,6
468,314	4,61
468,809	4,78
469,305	4,59
469,8	4,64
470,295	4,8
470,79	4,84
471,285	4,66
471,78	4,41
472,274	4,81
472,769	4,64
473,263	4,58
473,758	4,63
474,252	4,83
474,746	4,69
475,24	4,88
475,734	4,58
476,228	4,51
476,721	4,55
477,215	4,64
477,708	4,66
478,202	4,7
478,695	4,72
479,188	4,71
479,681	4,56
480,174	4,74
480,667	4,62
481,159	4,63
481,652	4,66
482,144	4,83
482,637	4,6
483,129	4,8
483,621	4,75
484,113	4,7
484,605	4,79
485,097	4,9
485,588	4,68
486,08	4,74
486,571	4,85
487,063	4,78
487,554	4,87
488,045	4,87
488,536	4,78
489,027	5,06
489,518	4,79
490,008	4,96
490,499	4,99
490,989	5,01
491,48	4,98
491,97	5,22
492,46	5,24
492,95	4,96
493,44	5,08
493,93	5,06
494,419	5,35
494,909	5,34
495,398	5,36
495,888	5,27
496,377	5,04
496,866	5,36
497,355	5,41
497,844	5,47
498,333	5,56
498,821	5,63
499,31	5,71
499,798	5,71
500,287	5,77
500,775	5,93
501,263	5,81
501,751	5,9
502,239	6,03
502,727	6,1
503,215	6,23
503,702	6,32
504,19	6,52
504,677	6,45
505,164	6,77
505,651	6,75
506,139	6,81
506,625	6,89
507,112	7,08
507,599	7,16
508,086	7,26
508,572	7,43
509,058	7,63
509,545	7,68
510,031	7,94
510,517	8,15
511,003	8,29
511,489	8,44
511,974	8,43
512,46	9
512,946	8,97
513,431	9,19
513,916	9,41
514,401	9,66
514,887	9,71
515,371	9,89
515,856	10,37
516,341	10,33
516,826	10,8
517,31	10,99
517,795	11,23
518,279	11,39
518,763	11,54
519,247	12,05
519,731	11,99
520,215	12,39
520,699	12,63
521,182	12,91
521,666	13,34
522,149	13,21
522,633	13,77
523,116	14,05
523,599	14,09
524,082	14,45
524,565	14,75
525,048	14,91
525,53	14,95
526,013	15,36
526,495	15,39
526,978	15,83
527,46	15,88
527,942	16,12
528,424	16,29
528,906	16,74
529,388	16,68
529,87	16,9
530,351	17,14
530,833	17,01
531,314	17,38
531,795	17,6
532,277	17,53
532,758	17,72
533,238	17,87
533,719	18,11
534,2	18,16
534,681	18,33
535,161	18,27
535,642	18,3
536,122	18,61
536,602	18,53
537,082	18,47
537,562	18,76
538,042	18,56
538,522	18,66
539,001	18,74
539,481	18,8
539,96	19,02
540,44	18,83
540,919	18,82
541,398	18,97
541,877	18,81
542,356	19,12
542,835	19,12
543,313	19,26
543,792	19,21
544,27	19,16
544,749	19,1
545,227	19,4
545,705	19,27
546,183	19,51
546,661	19,23
547,139	19,31
547,616	19,63
548,094	19,64
548,571	19,61
549,049	19,46
549,526	19,52
550,003	19,44
550,48	19,88
550,957	19,77
551,434	19,7
551,911	19,65
552,387	19,62
552,864	19,65
553,34	19,6
553,817	19,72
554,293	19,74
554,769	19,96
555,245	19,78
555,721	19,52
556,197	19,77
556,672	19,72
557,148	19,55
557,623	19,61
558,099	19,53
558,574	19,73
559,049	19,45
559,524	19,35
559,999	19,17
560,474	19,45
560,948	18,94
561,423	19,21
561,897	19,19
562,372	19,17
562,846	18,91
563,32	18,79
563,794	18,71
564,268	18,61
564,742	18,25
565,216	18,45
565,69	18,47
566,163	18,29
566,636	18,24
567,11	18,07
567,583	18,05
568,056	17,82
568,529	17,78
569,002	17,43
569,475	17,45
569,947	17,33
570,42	16,96
570,892	16,98
571,365	16,92
571,837	16,68
572,309	16,48
572,781	16,31
573,253	16,4
573,725	15,93
574,197	15,81
574,668	15,73
575,14	15,71
575,611	15,52
576,082	15,43
576,554	15,52
577,025	15,2
577,496	15,01
577,967	15
578,437	14,79
578,908	14,86
579,379	14,67
579,849	14,67
580,319	14,36
580,79	14,29
581,26	14,2
581,73	14,11
582,2	14,02
582,669	14,05
583,139	13,95
583,609	13,94
584,078	13,65
584,548	13,67
585,017	13,61
585,486	13,51
585,955	13,31
586,424	13,42
586,893	13,13
587,362	13,23
587,83	13,15
588,299	13
588,767	12,95
589,236	13,08
589,704	12,92
590,172	12,79
590,64	12,57
591,108	12,54
591,576	12,55
592,043	12,59
592,511	12,51
592,978	12,55
593,446	12,42
593,913	12,55
594,38	12,33
594,847	12,36
595,314	12,33
595,781	12,27
596,248	12,22
596,715	12,32
597,181	12,22
597,647	12,26
598,114	12,19
598,58	12,22
599,046	12,06
599,512	12,17
599,978	12,16
600,444	12,13
600,91	12,12
601,375	12,04
601,841	11,86
602,306	11,9
602,771	11,9
603,236	11,9
603,702	11,79
604,167	11,84
604,631	11,62
605,096	11,46
605,561	11,5
606,025	11,29
606,49	11,42
606,954	11,43
607,418	11,31
607,882	11,32
608,347	11,15
608,81	11,11
609,274	11,11
609,738	10,93
610,202	10,81
610,665	10,94
611,128	10,78
611,592	10,68
612,055	10,53
612,518	10,56
612,981	10,45
613,444	10,31
613,907	10,43
614,369	10,17
614,832	10,18
615,294	10,1
615,757	10
616,219	9,96
616,681	10
617,143	9,87
617,605	9,85
618,067	9,75
618,529	9,71
618,99	9,74
619,452	9,72
619,913	9,47
620,375	9,6
620,836	9,39
621,297	9,42
621,758	9,37
622,219	9,35
622,68	9,34
623,14	9,41
623,601	9,21
624,061	9,19
624,522	9,24
624,982	9,24
625,442	8,97
625,902	9,18
626,362	9,01
626,822	9,07
627,282	9,12
627,742	8,98
628,201	9,13
628,661	9,14
629,12	8,89
629,579	8,97
630,038	8,88
630,497	9,01
630,956	8,92
631,415	8,88
631,874	8,89
632,332	8,93
632,791	8,92
633,249	8,73
633,708	8,75
634,166	8,78
634,624	8,65
635,082	8,74
635,54	8,7
635,998	8,57
636,455	8,51
636,913	8,38
637,37	8,41
637,828	8,33
638,285	8,24
638,742	8,14
639,199	8,05
639,656	7,97
640,113	7,87
640,57	7,82
641,027	7,7
641,483	7,7
641,94	7,71
642,396	7,58
642,852	7,47
643,309	7,44
643,765	7,2
644,221	7,18
644,676	7,09
645,132	7,01
645,588	6,92
646,043	6,95
646,499	6,81
646,954	6,77
647,409	6,69
647,864	6,66
648,319	6,48
648,774	6,48
649,229	6,44
649,684	6,4
650,139	6,36
650,593	6,28
651,047	6,2
651,502	6,2
651,956	6,16
652,41	6,21
652,864	6,06
653,318	6,13
653,772	6,01
654,225	6,04
654,679	6,04
655,133	5,99
655,586	5,94
656,039	5,88
656,492	5,89
656,946	5,84
657,399	5,77
657,851	5,85
658,304	5,72
658,757	5,68
659,209	5,64
659,662	5,53
660,114	5,61
660,567	5,46
661,019	5,49
661,471	5,38
661,923	5,4
662,375	5,31
662,826	5,22
663,278	5,35
663,73	5,23
664,181	5,22
664,632	5,2
665,084	5,15
665,535	5,14
665,986	5,17
666,437	5,14
666,888	5,13
667,338	5,16
667,789	5,12
668,24	5,15
668,69	5,25
669,14	5,22
669,591	5,21
670,041	5,21
670,491	5,38
670,941	5,34
671,391	5,39
671,84	5,41
672,29	5,4
672,74	5,56
673,189	5,6
673,638	5,67
674,088	5,71
674,537	5,69
674,986	5,88
675,435	5,94
675,883	6
676,332	6,09
676,781	6,17
677,229	6,28
677,678	6,29
678,126	6,39
678,574	6,42
679,022	6,61
679,47	6,67
679,918	6,86
680,366	6,92
680,814	7,05
681,261	7,1
681,709	7,23
682,156	7,3
682,604	7,32
683,051	7,44
683,498	7,63
683,945	7,7
684,392	7,75
684,839	7,84
685,286	7,97
685,732	8,12
686,179	8,16
686,625	8,28
687,071	8,38
687,518	8,45
687,964	8,6
688,41	8,7
688,856	8,78
689,301	9,01
689,747	9,17
690,193	9,39
690,638	9,64
691,084	9,92
691,529	10,12
691,974	10,42
692,419	10,7
692,864	11,19
693,309	11,38
693,754	11,69
694,199	12,09
694,643	12,54
695,088	12,9
695,532	13,36
695,977	13,79
696,421	14,25
696,865	14,69
697,309	15,1
697,753	15,5
698,197	16
698,64	16,35
699,084	16,78
699,527	17,3
699,971	17,71
700,414	18,02
700,857	18,33
701,3	18,85
701,743	19,28
702,186	19,85
702,629	20,1
703,072	20,57
703,515	20,98
703,957	21,16
704,399	21,74
704,842	22,07
705,284	22,32
705,726	22,73
706,168	23,06
706,61	23,48
707,052	23,87
707,494	24,1
707,935	24,48
708,377	24,83
708,818	25,05
709,26	25,46
709,701	25,47
710,142	25,86
710,583	26,18
711,024	26,46
711,465	26,71
711,905	27,22
712,346	27,3
712,787	27,52
713,227	27,94
713,667	28,03
714,108	28,39
714,548	28,8
714,988	28,96
715,428	29,22
715,868	29,4
716,307	29,61
716,747	29,89
717,186	30,09
717,626	30,36
718,065	30,48
718,504	30,88
718,944	31,07
719,383	31,31
719,822	31,65
720,261	31,51
720,699	31,75
721,138	32,01
721,576	32,4
722,015	32,46
722,453	32,61
722,892	32,69
723,33	32,75
723,768	33,19
724,206	33,19
724,644	33,42
725,081	33,61
725,519	33,74
725,957	33,71
726,394	34,04
726,832	34,01
727,269	34,02
727,706	34,34
728,143	34,43
728,58	34,43
729,017	34,53
729,454	34,92
729,89	34,66
730,327	34,87
730,764	34,91
731,2	34,97
731,636	35,12
732,072	35,04
732,509	35,19
732,945	35,18
733,38	35,44
733,816	35,28
734,252	35,51
734,688	35,5
735,123	35,5
735,559	35,57
735,994	35,74
736,429	35,93
736,864	35,84
737,299	35,8
737,734	35,84
738,169	35,86
738,604	35,8
739,038	35,93
739,473	36,1
739,907	36,17
740,342	35,89
740,776	36,05
741,21	36,04
741,644	35,94
742,078	36,03
742,512	35,95
742,946	35,89
743,379	35,78
743,813	36,02
744,246	36,14
744,68	35,88
745,113	35,97
745,546	35,92
745,979	35,94
746,412	36,07
746,845	35,91
747,278	35,89
747,711	36
748,143	36,02
748,576	35,84
749,008	35,59
749,441	35,88
749,873	35,64
750,305	35,69
750,737	35,77
751,169	35,82
751,601	35,67
752,032	35,74
752,464	35,5
752,896	35,46
753,327	35,59
753,758	35,4
754,19	35,53
754,621	35,24
755,052	35,43
755,483	35,34
755,914	35,18
756,344	35,33
756,775	35,24
757,206	35,25
757,636	35,17
758,066	35,18
758,497	35,02
758,927	34,93
759,357	35,18
759,787	34,96
760,217	34,99
760,647	34,85
761,076	35,19
761,506	34,73
761,935	34,88
762,365	35,05
762,794	34,76
763,223	34,9
763,653	34,75
764,082	34,7
764,51	34,71
764,939	34,82
765,368	34,56
765,797	34,64
766,225	34,57
766,654	34,47
767,082	34,53
767,51	34,54
767,938	34,48
768,367	34,68
768,795	34,61
769,222	34,43
769,65	34,52
770,078	34,28
770,505	34,41
770,933	34,44
771,36	34,41
771,788	34,33
772,215	34,35
772,642	34,57
773,069	34,36
773,496	34,31
773,923	34,48
774,349	34,34
774,776	34,34
775,203	34,25
775,629	34,17
776,055	34,23
776,482	34,29
776,908	34,21
777,334	34,14
777,76	34,04
778,186	34,11
778,611	34,1
779,037	34,08
779,463	34,1
779,888	33,98
780,314	34,21
780,739	34,06
781,164	34,09
781,589	33,92
782,014	33,84
782,439	33,95
782,864	33,97
783,289	33,95
783,713	34
784,138	33,85
784,562	34,08
784,987	33,89
785,411	33,98
785,835	33,87
786,259	33,76
786,683	34,09
787,107	33,66
787,531	33,92
787,954	33,77
788,378	33,74
788,802	33,65
789,225	33,74
789,648	33,85
790,071	33,91
790,495	33,87
790,918	33,88
791,34	33,91
791,763	33,76
792,186	33,79
792,609	33,66
793,031	33,7
793,454	33,67
793,876	33,68
794,298	33,7
794,721	33,68
795,143	33,73
795,565	33,51
795,986	33,58
796,408	33,82
796,83	33,62
797,252	33,67
797,673	33,59
798,094	33,56
798,516	33,59
798,937	33,55
799,358	33,69
799,779	33,54
800,2	33,47
800,621	33,47
801,042	33,55
801,462	33,7
801,883	33,57
802,303	33,51
802,724	33,36
803,144	33,6
803,564	33,65
803,984	33,6
804,404	33,54
804,824	33,47
805,244	33,42
805,664	33,58
806,084	33,71
806,503	33,6
806,923	33,62
807,342	33,47
807,761	33,42
808,18	33,51
808,599	33,62
809,018	33,42
809,437	33,46
809,856	33,5
810,275	33,64
810,693	33,56
811,112	33,5
811,53	33,32
811,949	33,58
812,367	33,5
812,785	33,24
813,203	33,42
813,621	33,38
814,039	33,26
814,457	33,36
814,874	33,32
815,292	33,49
815,709	33,51
816,127	33,51
816,544	33,36
816,961	33,42
817,378	33,38
817,795	33,4
818,212	33,4
818,629	33,48
819,046	33,38
819,462	33,45
819,879	33,47
820,295	33,19
820,712	33,25
821,128	33,36
821,544	33,25
821,96	33,31
822,376	33,24
822,792	33,35
823,208	33,33
823,624	33,45
824,039	33,5
824,455	33,36
824,87	33,16
825,286	33,36
825,701	33,28
826,116	33,49
826,531	33,09
826,946	33,27
827,361	33,24
827,776	33,33
828,19	33,16
828,605	33,37
829,02	33,14
829,434	33,03
829,848	33,13
830,263	33,19
830,677	33,17
831,091	33,34
831,505	33,15
831,919	33,26
832,332	33,2
832,746	32,98
833,16	33,09
833,573	33,2
833,987	33,29
834,4	33,04
834,813	33,16
835,226	33,07
835,639	32,99
836,052	32,98
836,465	33,17
836,878	33,13
837,29	33,16
837,703	33,2
838,116	33,15
838,528	33,08
838,94	33,24
839,352	33,04
839,765	32,95
840,177	33,1
840,589	33,09
841	33,23
841,412	32,98
841,824	32,89
842,235	32,82
842,647	32,92
843,058	33,16
843,47	33,15
843,881	33,28
844,292	33,14
844,703	33,05
845,114	33,05
