Data from D_5_0_Relative__2__00093.txt Node

Date: Mon Jan 29 12:58:12 CET 2024
User: diatiterra
Spectrometer: HDX00911
Trigger mode: 0
Integration Time (sec): 6,000000E-3
Scans to average: 2
Nonlinearity correction enabled: false
Boxcar width: 0
Storing dark spectrum: false
XAxis mode: Wavelengths
Number of Pixels in Spectrum: 2068
>>>>>Begin Spectral Data<<<<<
194,468	28,05
195,025	25,13
195,581	50,58
196,138	50,88
196,694	47,87
197,251	45,09
197,807	40,86
198,363	35,21
198,919	39,19
199,474	37,33
200,03	40,4
200,586	42,83
201,141	39,74
201,696	43,44
202,251	40,33
202,806	31,62
203,361	38,4
203,916	39,87
204,471	43,76
205,025	37,63
205,58	44,52
206,134	34,29
206,688	46,64
207,242	33,33
207,796	39,59
208,35	51,03
208,904	45,31
209,457	46,24
210,011	42,07
210,564	46,36
211,117	42,36
211,67	45,67
212,223	44,97
212,776	43,35
213,329	46,46
213,881	41,48
214,434	39,88
214,986	45,8
215,538	45,35
216,09	42,89
216,642	44,11
217,194	41,25
217,746	50,64
218,297	41,63
218,849	42,06
219,4	41,75
219,951	43,11
220,502	41,11
221,053	36,34
221,604	43,96
222,155	31,72
222,705	34,03
223,256	45,77
223,806	42,14
224,356	39,53
224,906	44,86
225,456	41,89
226,006	48,41
226,556	42,17
227,106	49,55
227,655	41,15
228,204	39,6
228,754	45,38
229,303	49,45
229,852	46,65
230,401	42,34
230,949	42,86
231,498	42,89
232,047	40,47
232,595	43,72
233,143	43,17
233,691	48,36
234,239	39,29
234,787	42,95
235,335	42,37
235,883	39,11
236,43	40,08
236,978	48,38
237,525	31,47
238,072	47,93
238,619	42,99
239,166	46,14
239,713	39,54
240,26	45,44
240,806	48,7
241,353	37,01
241,899	49,34
242,445	42,68
242,991	50,54
243,537	42,39
244,083	44,4
244,629	47,67
245,174	44,98
245,72	40,44
246,265	46,85
246,81	44,02
247,355	48
247,9	50,33
248,445	36,46
248,99	39,84
249,534	43,54
250,079	35,56
250,623	38,16
251,168	40,94
251,712	40,43
252,256	34,62
252,8	43,57
253,343	32,46
253,887	45,11
254,43	42,7
254,974	40,71
255,517	33,26
256,06	52,32
256,603	37,27
257,146	39,91
257,689	45,24
258,232	43,99
258,774	40,35
259,317	48,31
259,859	41,91
260,401	38,53
260,943	39,78
261,485	41,33
262,027	38,95
262,569	35
263,11	47,65
263,652	37,18
264,193	44,69
264,734	34,4
265,275	41,55
265,816	45,49
266,357	44,44
266,898	32,19
267,438	45,87
267,979	46,02
268,519	33,04
269,059	41,59
269,6	38,6
270,14	37,39
270,68	45,34
271,219	37,55
271,759	41,57
272,298	38,31
272,838	38,07
273,377	42,18
273,916	44,07
274,455	32,29
274,994	40,09
275,533	41,57
276,072	42,7
276,61	43,61
277,149	41,26
277,687	34,32
278,225	34,62
278,763	33,03
279,301	38,44
279,839	35,91
280,377	37,2
280,914	38,05
281,452	38,76
281,989	37,8
282,526	34,98
283,064	34,48
283,601	33,87
284,137	41,43
284,674	43,45
285,211	36,17
285,747	36,28
286,284	35,39
286,82	42,14
287,356	43,05
287,892	27,21
288,428	33,48
288,964	52,71
289,5	32,81
290,035	34,88
290,571	41,71
291,106	39,85
291,641	43,64
292,176	38,63
292,711	39,69
293,246	39,91
293,781	36,57
294,315	27,18
294,85	36,95
295,384	37,3
295,918	37,33
296,453	39,62
296,987	32,94
297,52	44,08
298,054	37,36
298,588	41,52
299,121	37,69
299,655	34,62
300,188	30,52
300,721	35,12
301,254	36,76
301,787	38,01
302,32	40,55
302,853	38,11
303,385	40,53
303,918	33,85
304,45	35,96
304,982	37,56
305,514	43,29
306,046	37,2
306,578	35,7
307,11	45,45
307,641	27,68
308,173	40
308,704	43,75
309,236	41,36
309,767	36,47
310,298	41,69
310,829	37,56
311,359	40,89
311,89	35,89
312,421	37,44
312,951	44,19
313,481	31,34
314,012	41,16
314,542	38,59
315,072	29,9
315,601	32,88
316,131	45,31
316,661	32,61
317,19	43,21
317,72	37,62
318,249	38,83
318,778	31,86
319,307	40,47
319,836	34,41
320,365	41,94
320,893	49,1
321,422	41,71
321,95	39,78
322,479	38,83
323,007	41,06
323,535	41,63
324,063	36,88
324,591	34,52
325,118	43,08
325,646	33,49
326,173	36,76
326,701	45
327,228	42,27
327,755	34,21
328,282	39,04
328,809	43,05
329,336	31,64
329,862	42,5
330,389	37,01
330,915	34,09
331,441	31,24
331,968	36,87
332,494	36
333,02	35,05
333,545	37,22
334,071	42,63
334,597	36,06
335,122	40,98
335,648	31,7
336,173	24,08
336,698	40,37
337,223	28,63
337,748	42,44
338,272	29,08
338,797	32,97
339,322	32,81
339,846	35,53
340,37	42,53
340,894	38,53
341,419	38,03
341,942	37,73
342,466	40,5
342,99	40,25
343,514	33,54
344,037	25,6
344,56	33,4
345,084	34,85
345,607	38,99
346,13	31,68
346,653	32,01
347,175	26,7
347,698	39,88
348,221	36,31
348,743	32,71
349,265	34,61
349,787	37,01
350,309	39,83
350,831	32,59
351,353	38,04
351,875	34,9
352,397	32
352,918	39,25
353,439	38,99
353,961	34,45
354,482	39,39
355,003	35,02
355,524	35,21
356,044	39,49
356,565	36,78
357,086	40,63
357,606	37,16
358,126	39,02
358,646	35,14
359,167	32,61
359,687	36,16
360,206	34,56
360,726	35,07
361,246	42,5
361,765	34,58
362,285	35,2
362,804	40,87
363,323	38,34
363,842	40,05
364,361	36,36
364,88	35,66
365,398	32,24
365,917	35,46
366,435	31,49
366,954	34,41
367,472	33,25
367,99	40,08
368,508	37,48
369,026	32,8
369,544	30,73
370,061	34,77
370,579	33,07
371,096	31,91
371,613	37,77
372,131	37,84
372,648	35,84
373,165	37,94
373,681	29,93
374,198	33,41
374,715	34,75
375,231	34,87
375,747	28,26
376,264	30,98
376,78	35,48
377,296	32,42
377,812	33,85
378,327	32,81
378,843	32,22
379,359	32,73
379,874	32,5
380,389	30,72
380,905	35,29
381,42	32,11
381,935	29,16
382,449	32,62
382,964	29,66
383,479	30,15
383,993	27,31
384,508	31,13
385,022	32,04
385,536	31,79
386,05	30,68
386,564	30,37
387,078	30,75
387,592	31,04
388,105	28,84
388,619	29,1
389,132	26,82
389,645	26,64
390,158	29,5
390,671	27,19
391,184	26,54
391,697	24,68
392,21	26,16
392,722	26,45
393,235	25,28
393,747	26,34
394,259	27,67
394,771	26,89
395,283	26,25
395,795	26,23
396,307	25,61
396,818	26,35
397,33	26,24
397,841	23,55
398,353	25,68
398,864	25,53
399,375	25,89
399,886	24,38
400,397	23,66
400,907	24,43
401,418	23,15
401,928	21,61
402,439	20,73
402,949	21,45
403,459	19,99
403,969	19,31
404,479	18,79
404,989	19,05
405,498	19,17
406,008	19,73
406,517	19,6
407,027	17,98
407,536	16,45
408,045	16,52
408,554	16,61
409,063	15,9
409,572	15,52
410,08	14,45
410,589	14,93
411,097	14,7
411,606	14,43
412,114	13,66
412,622	14,18
413,13	12,33
413,638	12,68
414,145	12,71
414,653	12,28
415,16	12,14
415,668	11,94
416,175	10,75
416,682	11,53
417,189	11,39
417,696	11,56
418,203	11,05
418,71	10,51
419,216	10,71
419,723	10,28
420,229	9,92
420,735	9,44
421,242	10,4
421,748	9,35
422,254	10,17
422,759	9,75
423,265	9,56
423,771	9,59
424,276	9,75
424,781	9,13
425,287	9,6
425,792	9,08
426,297	9,36
426,802	9,65
427,306	9,55
427,811	9,09
428,316	9,22
428,82	9,31
429,324	8,73
429,829	9,21
430,333	9,02
430,837	8,97
431,34	9,08
431,844	8,5
432,348	8,74
432,851	9,09
433,355	9,03
433,858	8,76
434,361	8,98
434,864	8,95
435,367	8,64
435,87	8,65
436,373	8,62
436,876	8,83
437,378	8,61
437,88	8,52
438,383	8,22
438,885	8,65
439,387	8,34
439,889	8,89
440,391	8,42
440,892	8,93
441,394	8,49
441,896	8,87
442,397	8,78
442,898	8,51
443,399	9,15
443,9	8,88
444,401	8,67
444,902	8,82
445,403	8,63
445,903	9,3
446,404	8,99
446,904	8,53
447,405	8,71
447,905	8,99
448,405	9,1
448,905	8,96
449,404	9,18
449,904	8,2
450,404	8,59
450,903	8,76
451,403	8,78
451,902	9,03
452,401	8,68
452,9	9
453,399	9,09
453,898	8,95
454,396	8,89
454,895	9,02
455,393	8,81
455,892	9,15
456,39	9,12
456,888	9,11
457,386	9,27
457,884	9,11
458,382	8,9
458,879	8,91
459,377	9,01
459,874	9,09
460,372	9,19
460,869	9,15
461,366	9,59
461,863	9,02
462,36	8,89
462,857	9
463,353	8,91
463,85	9,15
464,346	8,38
464,843	8,83
465,339	8,91
465,835	8,98
466,331	8,97
466,827	9,12
467,323	9,42
467,818	8,96
468,314	9,3
468,809	9,08
469,305	9,16
469,8	9,32
470,295	9,22
470,79	9,09
471,285	8,88
471,78	9,11
472,274	9,05
472,769	8,97
473,263	9,31
473,758	9,14
474,252	9,13
474,746	9,05
475,24	8,97
475,734	8,79
476,228	9,19
476,721	8,85
477,215	9,07
477,708	9,36
478,202	9,2
478,695	9,12
479,188	8,99
479,681	9,23
480,174	9,29
480,667	9,27
481,159	8,92
481,652	9,07
482,144	9,01
482,637	9,58
483,129	9,53
483,621	9,17
484,113	8,63
484,605	9,21
485,097	9,37
485,588	9,34
486,08	9
486,571	9,25
487,063	9,17
487,554	9,3
488,045	9,06
488,536	9,44
489,027	9,57
489,518	9,88
490,008	9,84
490,499	9,45
490,989	9,29
491,48	9,34
491,97	9,44
492,46	9,41
492,95	9,75
493,44	9,41
493,93	9,76
494,419	9,99
494,909	9,87
495,398	9,82
495,888	9,93
496,377	10,13
496,866	9,87
497,355	9,69
497,844	10,26
498,333	10,06
498,821	10,1
499,31	10,37
499,798	10,04
500,287	10,48
500,775	10,44
501,263	10,58
501,751	10,76
502,239	10,64
502,727	10,79
503,215	10,91
503,702	11,16
504,19	11,12
504,677	11,11
505,164	11,22
505,651	11,56
506,139	11,65
506,625	11,76
507,112	11,7
507,599	11,97
508,086	12,29
508,572	12,8
509,058	12,65
509,545	12,53
510,031	12,67
510,517	12,67
511,003	12,98
511,489	13,56
511,974	13,73
512,46	14,05
512,946	14,24
513,431	14,32
513,916	14,35
514,401	14,86
514,887	15,09
515,371	15,35
515,856	15,72
516,341	15,81
516,826	16,12
517,31	16,21
517,795	16,69
518,279	16,73
518,763	17,11
519,247	17,54
519,731	17,69
520,215	18,02
520,699	18,51
521,182	18,91
521,666	19,13
522,149	19,71
522,633	19,69
523,116	19,95
523,599	19,85
524,082	20,34
524,565	20,88
525,048	21,28
525,53	21,33
526,013	21,81
526,495	22,13
526,978	22,46
527,46	22,48
527,942	22,66
528,424	22,55
528,906	23,44
529,388	23,24
529,87	23,53
530,351	23,9
530,833	23,83
531,314	24,07
531,795	24,48
532,277	24,17
532,758	24,86
533,238	24,78
533,719	25,01
534,2	24,94
534,681	25,06
535,161	25,3
535,642	25,52
536,122	25,28
536,602	25,5
537,082	25,67
537,562	25,66
538,042	25,38
538,522	26,1
539,001	25,92
539,481	26,15
539,96	25,93
540,44	26,04
540,919	26,48
541,398	26,3
541,877	26,18
542,356	26,29
542,835	26,37
543,313	26,53
543,792	26,31
544,27	26,64
544,749	26,38
545,227	26,53
545,705	26,65
546,183	26,32
546,661	26,45
547,139	26,78
547,616	26,62
548,094	26,53
548,571	27
549,049	27,07
549,526	27,35
550,003	26,85
550,48	26,96
550,957	27,02
551,434	27,07
551,911	26,97
552,387	27,25
552,864	26,96
553,34	26,77
553,817	27,11
554,293	27,25
554,769	27,29
555,245	27,15
555,721	27,21
556,197	27,16
556,672	26,59
557,148	26,95
557,623	26,99
558,099	26,69
558,574	26,98
559,049	27,15
559,524	26,73
559,999	26,1
560,474	26,46
560,948	26,07
561,423	26,32
561,897	26,66
562,372	26,43
562,846	25,7
563,32	25,95
563,794	26
564,268	25,86
564,742	25,69
565,216	25,57
565,69	25,44
566,163	25,46
566,636	24,87
567,11	24,83
567,583	24,91
568,056	24,7
568,529	24,57
569,002	24,3
569,475	24,13
569,947	24,29
570,42	23,75
570,892	23,63
571,365	23,58
571,837	23,27
572,309	23,55
572,781	22,74
573,253	22,71
573,725	22,41
574,197	22,48
574,668	21,92
575,14	22,18
575,611	22,01
576,082	21,63
576,554	21,61
577,025	21,2
577,496	21,29
577,967	21,19
578,437	21,18
578,908	20,76
579,379	20,36
579,849	20,42
580,319	20,63
580,79	20,42
581,26	20,47
581,73	19,83
582,2	19,85
582,669	20,07
583,139	19,83
583,609	19,86
584,078	19,44
584,548	19,08
585,017	19,24
585,486	19,15
585,955	19,09
586,424	19,23
586,893	19
587,362	19,03
587,83	18,92
588,299	18,62
588,767	18,72
589,236	18,52
589,704	18,58
590,172	18,33
590,64	18,17
591,108	18,18
591,576	18,41
592,043	18,07
592,511	17,82
592,978	18,26
593,446	17,84
593,913	18,02
594,38	17,86
594,847	17,73
595,314	17,94
595,781	17,97
596,248	17,7
596,715	17,68
597,181	17,66
597,647	17,83
598,114	17,45
598,58	17,66
599,046	17,68
599,512	17,58
599,978	17,51
600,444	17,58
600,91	17,33
601,375	17,51
601,841	17,6
602,306	17,45
602,771	17,44
603,236	17,1
603,702	16,98
604,167	17,14
604,631	17,18
605,096	17,05
605,561	16,81
606,025	16,62
606,49	16,6
606,954	16,73
607,418	16,51
607,882	16,35
608,347	16,45
608,81	16,13
609,274	16,21
609,738	16,16
610,202	15,92
610,665	16,2
611,128	15,8
611,592	15,62
612,055	15,59
612,518	15,49
612,981	15,36
613,444	15,34
613,907	15,28
614,369	15,11
614,832	15,13
615,294	15,14
615,757	14,97
616,219	14,71
616,681	15,03
617,143	14,84
617,605	14,61
618,067	14,46
618,529	14,64
618,99	14,38
619,452	14,4
619,913	14,14
620,375	14,36
620,836	14,31
621,297	14,38
621,758	14,08
622,219	14,06
622,68	14,09
623,14	13,84
623,601	14,09
624,061	13,88
624,522	13,8
624,982	13,64
625,442	13,83
625,902	13,64
626,362	13,53
626,822	13,56
627,282	13,76
627,742	13,58
628,201	13,73
628,661	13,26
629,12	13,55
629,579	13,59
630,038	13,47
630,497	13,47
630,956	13,52
631,415	13,52
631,874	13,47
632,332	13,15
632,791	13,54
633,249	13,19
633,708	13,29
634,166	13,14
634,624	13,15
635,082	13,23
635,54	13,08
635,998	12,94
636,455	13,02
636,913	12,88
637,37	12,83
637,828	12,74
638,285	12,67
638,742	12,49
639,199	12,39
639,656	12,26
640,113	12,13
640,57	12,18
641,027	12
641,483	12,07
641,94	11,97
642,396	11,97
642,852	11,74
643,309	11,61
643,765	11,64
644,221	11,47
644,676	11,27
645,132	11,33
645,588	11,13
646,043	11,11
646,499	11,1
646,954	10,87
647,409	10,69
647,864	10,83
648,319	10,57
648,774	10,52
649,229	10,5
649,684	10,64
650,139	10,4
650,593	10,51
651,047	10,32
651,502	10,37
651,956	10,34
652,41	10,24
652,864	10,11
653,318	10,12
653,772	10,07
654,225	9,79
654,679	9,97
655,133	9,86
655,586	9,82
656,039	9,95
656,492	9,97
656,946	9,74
657,399	9,8
657,851	9,7
658,304	9,72
658,757	9,71
659,209	9,57
659,662	9,5
660,114	9,47
660,567	9,52
661,019	9,48
661,471	9,3
661,923	9,31
662,375	9,22
662,826	9,32
663,278	9,3
663,73	9,12
664,181	9,14
664,632	9,14
665,084	9,18
665,535	9,15
665,986	9,17
666,437	9,21
666,888	9,21
667,338	9,08
667,789	9,01
668,24	9,18
668,69	9,14
669,14	9,24
669,591	9,17
670,041	9,17
670,491	9,2
670,941	9,35
671,391	9,39
671,84	9,44
672,29	9,47
672,74	9,6
673,189	9,77
673,638	9,77
674,088	9,79
674,537	9,88
674,986	10
675,435	10,04
675,883	10,22
676,332	10,18
676,781	10,27
677,229	10,42
677,678	10,54
678,126	10,64
678,574	10,86
679,022	10,89
679,47	10,94
679,918	11,02
680,366	11,13
680,814	11,37
681,261	11,52
681,709	11,49
682,156	11,62
682,604	11,67
683,051	11,8
683,498	12,03
683,945	12,18
684,392	12,08
684,839	12,17
685,286	12,47
685,732	12,45
686,179	12,43
686,625	12,62
687,071	12,71
687,518	12,76
687,964	12,81
688,41	13,13
688,856	13,02
689,301	13,41
689,747	13,46
690,193	13,53
690,638	13,93
691,084	14,25
691,529	14,54
691,974	14,91
692,419	15,26
692,864	15,57
693,309	15,93
693,754	16,44
694,199	16,74
694,643	17,3
695,088	17,58
695,532	18,31
695,977	18,72
696,421	19,31
696,865	19,71
697,309	20,3
697,753	20,79
698,197	21,24
698,64	21,94
699,084	22,34
699,527	22,91
699,971	23,54
700,414	23,79
700,857	24,34
701,3	24,86
701,743	25,37
702,186	26,1
702,629	26,52
703,072	26,78
703,515	27,45
703,957	27,97
704,399	28,41
704,842	29,01
705,284	29,46
705,726	29,76
706,168	30,09
706,61	30,82
707,052	31,37
707,494	31,86
707,935	32,1
708,377	32,48
708,818	32,91
709,26	33,17
709,701	33,58
710,142	33,78
710,583	34,5
711,024	34,82
711,465	35,11
711,905	35,72
712,346	35,93
712,787	36,53
713,227	36,66
713,667	37,16
714,108	37,54
714,548	37,75
714,988	38,29
715,428	38,55
715,868	38,91
716,307	39,04
716,747	39,47
717,186	40,05
717,626	40,29
718,065	40,43
718,504	40,97
718,944	41,41
719,383	41,21
719,822	41,64
720,261	41,94
720,699	42,14
721,138	42,74
721,576	42,56
722,015	43,07
722,453	43,15
722,892	43,44
723,33	43,98
723,768	43,78
724,206	44,09
724,644	44,22
725,081	44,62
725,519	45,06
725,957	45,23
726,394	45,18
726,832	45,26
727,269	45,52
727,706	45,79
728,143	45,82
728,58	45,87
729,017	46,2
729,454	46,33
729,89	46,41
730,327	46,37
730,764	46,72
731,2	46,8
731,636	46,73
732,072	47,03
732,509	47,37
732,945	47,07
733,38	46,97
733,816	47,39
734,252	47,42
734,688	47,24
735,123	47,6
735,559	47,59
735,994	47,76
736,429	48
736,864	47,63
737,299	47,88
737,734	48,09
738,169	48,06
738,604	48,12
739,038	48,22
739,473	48,16
739,907	48,13
740,342	47,91
740,776	48,15
741,21	47,97
741,644	48,07
742,078	48,11
742,512	48,01
742,946	47,98
743,379	47,9
743,813	48,18
744,246	48,39
744,68	48,26
745,113	48,46
745,546	48,38
745,979	48,36
746,412	47,93
746,845	48,41
747,278	48,08
747,711	48,24
748,143	48,02
748,576	48,13
749,008	48,18
749,441	47,99
749,873	47,84
750,305	48,05
750,737	47,91
751,169	47,98
751,601	47,91
752,032	47,82
752,464	47,65
752,896	47,76
753,327	47,47
753,758	47,62
754,19	47,59
754,621	47,53
755,052	47,64
755,483	47,37
755,914	47,55
756,344	47,29
756,775	47,4
757,206	47,2
757,636	47,31
758,066	47,15
758,497	47,08
758,927	47,27
759,357	46,97
759,787	47,3
760,217	47,04
760,647	47,04
761,076	47,45
761,506	46,97
761,935	46,95
762,365	47,02
762,794	46,89
763,223	46,32
763,653	46,95
764,082	46,46
764,51	46,59
764,939	46,71
765,368	46,47
765,797	46,59
766,225	46,51
766,654	46,96
767,082	46,44
767,51	46,6
767,938	46,32
768,367	46,51
768,795	46,33
769,222	46,03
769,65	46,22
770,078	46,53
770,505	46,49
770,933	46,16
771,36	46,26
771,788	46,43
772,215	46,24
772,642	46,2
773,069	46,18
773,496	46,15
773,923	46,03
774,349	46,34
774,776	46,29
775,203	46,16
775,629	46,06
776,055	45,83
776,482	45,77
776,908	46,34
777,334	45,99
777,76	45,78
778,186	46,05
778,611	45,56
779,037	46,02
779,463	45,79
779,888	45,82
780,314	46,06
780,739	45,67
781,164	45,76
781,589	45,72
782,014	45,72
782,439	45,62
782,864	45,59
783,289	45,51
783,713	45,77
784,138	45,72
784,562	45,42
784,987	45,82
785,411	45,85
785,835	45,69
786,259	45,62
786,683	45,59
787,107	45,52
787,531	45,51
787,954	45,61
788,378	45,47
788,802	45,25
789,225	45,6
789,648	45,49
790,071	45,53
790,495	45,38
790,918	45,07
791,34	45,64
791,763	45,5
792,186	45,33
792,609	45,53
793,031	45,06
793,454	45,47
793,876	45,41
794,298	45,36
794,721	45,41
795,143	45,17
795,565	45,24
795,986	45,12
796,408	45,06
796,83	45,2
797,252	45,6
797,673	45,38
798,094	45,43
798,516	45,27
798,937	45,12
799,358	45,23
799,779	45,38
800,2	45,06
800,621	45,03
801,042	45,26
801,462	45
801,883	44,79
802,303	45,14
802,724	44,99
803,144	45,21
803,564	45,25
803,984	45,02
804,404	45,15
804,824	44,96
805,244	45,08
805,664	45,16
806,084	45,3
806,503	45,18
806,923	45,15
807,342	45,13
807,761	45,11
808,18	45,02
808,599	45,08
809,018	45,05
809,437	45,19
809,856	45
810,275	45,14
810,693	45,05
811,112	45,06
811,53	45,01
811,949	45,02
812,367	44,83
812,785	45,01
813,203	45,16
813,621	44,97
814,039	44,7
814,457	44,97
814,874	44,87
815,292	44,91
815,709	44,93
816,127	44,96
816,544	45,18
816,961	44,72
817,378	44,94
817,795	44,96
818,212	45,06
818,629	44,74
819,046	45,18
819,462	45,09
819,879	44,86
820,295	44,76
820,712	44,92
821,128	44,93
821,544	44,82
821,96	45,01
822,376	44,84
822,792	44,78
823,208	44,83
823,624	44,77
824,039	44,72
824,455	44,79
824,87	44,99
825,286	44,82
825,701	44,62
826,116	44,73
826,531	44,66
826,946	44,73
827,361	44,91
827,776	44,6
828,19	44,76
828,605	44,86
829,02	44,65
829,434	44,85
829,848	44,63
830,263	44,73
830,677	44,63
831,091	44,83
831,505	44,73
831,919	44,63
832,332	44,82
832,746	45
833,16	44,48
833,573	44,63
833,987	44,74
834,4	44,43
834,813	44,62
835,226	44,82
835,639	44,29
836,052	44,55
836,465	44,57
836,878	44,85
837,29	44,79
837,703	44,46
838,116	44,44
838,528	44,47
838,94	44,76
