Data from D_5_0_Relative__8__00099.txt Node

Date: Mon Jan 29 12:58:28 CET 2024
User: diatiterra
Spectrometer: HDX00911
Trigger mode: 0
Integration Time (sec): 6,000000E-3
Scans to average: 2
Nonlinearity correction enabled: false
Boxcar width: 0
Storing dark spectrum: false
XAxis mode: Wavelengths
Number of Pixels in Spectrum: 2068
>>>>>Begin Spectral Data<<<<<
194,468	8,54
195,025	3,02
195,581	4,07
196,138	7,6
196,694	22,26
197,251	18,57
197,807	16,15
198,363	9,72
198,919	19,91
199,474	12,89
200,03	13,02
200,586	13,31
201,141	13,25
201,696	12,47
202,251	17,11
202,806	10,27
203,361	11,81
203,916	22,81
204,471	14,74
205,025	16,13
205,58	18,12
206,134	15,4
206,688	14,97
207,242	15,5
207,796	22,45
208,35	19,13
208,904	22,86
209,457	18,71
210,011	18,82
210,564	19,33
211,117	17,21
211,67	26,76
212,223	13,7
212,776	10,69
213,329	21,41
213,881	14,37
214,434	10,21
214,986	17,23
215,538	14,82
216,09	16,25
216,642	24,41
217,194	19,58
217,746	23,52
218,297	19,74
218,849	14,16
219,4	15,03
219,951	14,67
220,502	23,55
221,053	22,06
221,604	16,04
222,155	11,95
222,705	16,91
223,256	20,17
223,806	15,72
224,356	21,15
224,906	18,03
225,456	20,42
226,006	19,77
226,556	13,36
227,106	21,43
227,655	17,7
228,204	12,61
228,754	17,45
229,303	26,59
229,852	22,89
230,401	13,06
230,949	21,76
231,498	19,78
232,047	22,48
232,595	14,02
233,143	24,67
233,691	22,13
234,239	11,61
234,787	13,86
235,335	23,44
235,883	20,51
236,43	13,22
236,978	13,19
237,525	8,26
238,072	21,35
238,619	19,16
239,166	26,71
239,713	17,6
240,26	11,83
240,806	25,32
241,353	10,8
241,899	17,62
242,445	15,46
242,991	20,61
243,537	17,1
244,083	23,24
244,629	19,7
245,174	13,1
245,72	16,89
246,265	7,23
246,81	19,19
247,355	22,12
247,9	21,44
248,445	12,58
248,99	21,36
249,534	11,79
250,079	12
250,623	14,01
251,168	21,25
251,712	15,05
252,256	18,71
252,8	19,61
253,343	9,72
253,887	8,51
254,43	15,67
254,974	14,82
255,517	12,79
256,06	14,35
256,603	15
257,146	9,74
257,689	15,37
258,232	17,69
258,774	9,16
259,317	17,16
259,859	17,77
260,401	16,88
260,943	10,89
261,485	14,67
262,027	14,44
262,569	11,5
263,11	17,31
263,652	10,35
264,193	21,26
264,734	11,47
265,275	20,42
265,816	12,97
266,357	9,98
266,898	11,19
267,438	12,39
267,979	19,03
268,519	15,97
269,059	12,62
269,6	19,64
270,14	12,16
270,68	19,07
271,219	19,41
271,759	20,45
272,298	16,48
272,838	11,47
273,377	17,08
273,916	17,23
274,455	15,81
274,994	19,82
275,533	18,94
276,072	16,52
276,61	12,78
277,149	19,42
277,687	20,59
278,225	15,16
278,763	18,55
279,301	13,56
279,839	16,13
280,377	16,35
280,914	22,27
281,452	20,41
281,989	17,58
282,526	12,66
283,064	22,38
283,601	10,67
284,137	12,86
284,674	14,81
285,211	18,74
285,747	12,41
286,284	24,89
286,82	15,72
287,356	17
287,892	7,71
288,428	12,45
288,964	24
289,5	10,34
290,035	21,63
290,571	10,49
291,106	8,17
291,641	17,73
292,176	12,22
292,711	17,32
293,246	15,6
293,781	13,09
294,315	9,23
294,85	12,61
295,384	12,13
295,918	14,22
296,453	17,45
296,987	19,19
297,52	19,96
298,054	16,33
298,588	20,65
299,121	23,06
299,655	20,14
300,188	10,02
300,721	16,98
301,254	16,21
301,787	20,1
302,32	16,59
302,853	20,93
303,385	16,74
303,918	11,58
304,45	17,11
304,982	22,44
305,514	14,12
306,046	15,75
306,578	13,73
307,11	16,55
307,641	11,61
308,173	13,18
308,704	18,3
309,236	16,55
309,767	16,24
310,298	19,51
310,829	14,55
311,359	11,92
311,89	13,32
312,421	10,54
312,951	19,07
313,481	12,44
314,012	19,69
314,542	10,82
315,072	12,31
315,601	7,66
316,131	15,56
316,661	11,35
317,19	11,09
317,72	10,95
318,249	14,9
318,778	12,25
319,307	15,06
319,836	17,32
320,365	13,82
320,893	18,09
321,422	16,36
321,95	19,33
322,479	18,06
323,007	13,53
323,535	16,98
324,063	18,91
324,591	13,71
325,118	14,95
325,646	15,57
326,173	11,64
326,701	15,95
327,228	15,91
327,755	7,89
328,282	13,9
328,809	15,23
329,336	9,93
329,862	11,14
330,389	12,18
330,915	8,64
331,441	19,11
331,968	5,54
332,494	10
333,02	16,56
333,545	22,74
334,071	19,42
334,597	12,02
335,122	20,94
335,648	10,05
336,173	8,03
336,698	12,39
337,223	13,02
337,748	17,23
338,272	13,6
338,797	6,51
339,322	9,28
339,846	12,55
340,37	9,11
340,894	10,91
341,419	15,34
341,942	12,58
342,466	12,94
342,99	12,86
343,514	21,8
344,037	12,4
344,56	13,16
345,084	14,77
345,607	11,91
346,13	11,45
346,653	11,17
347,175	16,58
347,698	12,77
348,221	18,06
348,743	13,38
349,265	14,78
349,787	10,68
350,309	11,11
350,831	15,34
351,353	19,79
351,875	16,44
352,397	11,33
352,918	12,97
353,439	15,21
353,961	14,29
354,482	14,14
355,003	13,75
355,524	20,88
356,044	18,47
356,565	15,5
357,086	12,44
357,606	14,86
358,126	17,66
358,646	15,44
359,167	17,03
359,687	16,04
360,206	13,88
360,726	11,88
361,246	17,21
361,765	15,06
362,285	14,29
362,804	11,91
363,323	10,53
363,842	13,62
364,361	14,17
364,88	12,5
365,398	13,82
365,917	15,91
366,435	17,87
366,954	15,96
367,472	11,42
367,99	9,73
368,508	9,4
369,026	13,95
369,544	9,76
370,061	12,14
370,579	15,18
371,096	17,11
371,613	15,93
372,131	13,07
372,648	10,23
373,165	12,06
373,681	9,76
374,198	11,43
374,715	9,25
375,231	12,25
375,747	7,65
376,264	12,45
376,78	10,14
377,296	7,96
377,812	15,28
378,327	13,72
378,843	13,08
379,359	11,93
379,874	12,74
380,389	10,76
380,905	11,76
381,42	11,81
381,935	12,04
382,449	8,94
382,964	7,3
383,479	10,57
383,993	8,5
384,508	11,54
385,022	8,23
385,536	8,27
386,05	8,36
386,564	8,54
387,078	9,54
387,592	10,09
388,105	10,64
388,619	8,51
389,132	8,7
389,645	10,28
390,158	9,39
390,671	9,91
391,184	7,24
391,697	8,33
392,21	8,93
392,722	7,72
393,235	8,7
393,747	8,47
394,259	6,89
394,771	10,03
395,283	7,65
395,795	7,46
396,307	8,35
396,818	4,47
397,33	7,22
397,841	7,54
398,353	7,92
398,864	7,18
399,375	7,54
399,886	7,17
400,397	6,92
400,907	7,6
401,418	7,32
401,928	6,07
402,439	5,8
402,949	6,5
403,459	6,62
403,969	5,94
404,479	6,42
404,989	4,04
405,498	5,72
406,008	5,08
406,517	4,77
407,027	5,74
407,536	4,45
408,045	4,36
408,554	4,95
409,063	3,65
409,572	4,13
410,08	3,89
410,589	4,2
411,097	4,19
411,606	4,04
412,114	3,87
412,622	3,74
413,13	3,65
413,638	3,11
414,145	4,4
414,653	3,46
415,16	2,78
415,668	3,54
416,175	2,93
416,682	2,74
417,189	3,17
417,696	3,23
418,203	3,2
418,71	3,17
419,216	3,17
419,723	3,21
420,229	3,18
420,735	2,28
421,242	3,01
421,748	2,35
422,254	3,16
422,759	3
423,265	2,84
423,771	3,18
424,276	2,9
424,781	2,71
425,287	1,9
425,792	2,63
426,297	2,59
426,802	2,66
427,306	2,46
427,811	2,64
428,316	2,27
428,82	2,41
429,324	2,22
429,829	2,62
430,333	2,55
430,837	2,5
431,34	2,31
431,844	1,98
432,348	2,49
432,851	2,51
433,355	2,44
433,858	2,61
434,361	2,45
434,864	2,19
435,367	2,21
435,87	1,92
436,373	2,32
436,876	2,51
437,378	2,13
437,88	2,41
438,383	2,34
438,885	2,82
439,387	2,47
439,889	2,53
440,391	2,33
440,892	2,39
441,394	2,46
441,896	2,44
442,397	2,6
442,898	2,39
443,399	2,37
443,9	2,47
444,401	2,41
444,902	2,41
445,403	2,62
445,903	2,54
446,404	2,47
446,904	2,42
447,405	2,33
447,905	2,58
448,405	2,76
448,905	2,37
449,404	2,29
449,904	2,33
450,404	2,44
450,903	2,34
451,403	2,34
451,902	2,54
452,401	2,59
452,9	2,51
453,399	2,42
453,898	2,32
454,396	2,4
454,895	2,68
455,393	2,68
455,892	2,55
456,39	2,54
456,888	2,67
457,386	2,49
457,884	2,69
458,382	2,33
458,879	2,5
459,377	2,61
459,874	2,46
460,372	2,59
460,869	2,6
461,366	2,28
461,863	2,77
462,36	2,2
462,857	2,71
463,353	2,58
463,85	2,72
464,346	2,37
464,843	2,38
465,339	2,59
465,835	2,56
466,331	2,81
466,827	2,47
467,323	2,5
467,818	2,33
468,314	2,41
468,809	2,68
469,305	2,22
469,8	2,48
470,295	2,36
470,79	2,66
471,285	2,35
471,78	2,44
472,274	2,54
472,769	2,47
473,263	2,47
473,758	2,51
474,252	2,57
474,746	2,54
475,24	2,52
475,734	2,62
476,228	2,65
476,721	2,3
477,215	2,64
477,708	2,53
478,202	2,56
478,695	2,67
479,188	2,44
479,681	2,64
480,174	2,82
480,667	2,53
481,159	2,46
481,652	2,46
482,144	2,7
482,637	2,61
483,129	2,62
483,621	2,54
484,113	2,5
484,605	2,69
485,097	2,71
485,588	2,65
486,08	2,66
486,571	2,63
487,063	2,74
487,554	2,72
488,045	2,45
488,536	2,55
489,027	2,58
489,518	2,71
490,008	2,83
490,499	2,65
490,989	2,67
491,48	2,77
491,97	2,81
492,46	2,9
492,95	2,69
493,44	2,76
493,93	2,81
494,419	2,92
494,909	3,01
495,398	2,89
495,888	2,58
496,377	3,05
496,866	2,92
497,355	2,93
497,844	3,34
498,333	3,11
498,821	3,14
499,31	3,29
499,798	3,02
500,287	3,3
500,775	3,26
501,263	3,36
501,751	3,18
502,239	3,47
502,727	3,24
503,215	3,59
503,702	3,64
504,19	3,88
504,677	3,51
505,164	3,73
505,651	3,89
506,139	3,89
506,625	3,82
507,112	4,03
507,599	4,23
508,086	4,23
508,572	4,27
509,058	4,2
509,545	4,44
510,031	4,5
510,517	4,72
511,003	4,96
511,489	4,74
511,974	4,93
512,46	4,89
512,946	5,14
513,431	5,2
513,916	5,38
514,401	5,25
514,887	5,67
515,371	5,69
515,856	5,83
516,341	5,95
516,826	6,17
517,31	6,11
517,795	6,41
518,279	6,39
518,763	6,86
519,247	6,77
519,731	6,61
520,215	6,74
520,699	7,16
521,182	6,98
521,666	7,38
522,149	7,42
522,633	7,69
523,116	8,09
523,599	7,96
524,082	7,88
524,565	7,87
525,048	8,37
525,53	8,19
526,013	8,31
526,495	8,38
526,978	8,7
527,46	8,63
527,942	8,75
528,424	8,82
528,906	9,15
529,388	9,03
529,87	9,21
530,351	9,16
530,833	9,42
531,314	9,43
531,795	9,52
532,277	9,5
532,758	9,82
533,238	9,49
533,719	9,94
534,2	9,57
534,681	9,6
535,161	9,78
535,642	9,74
536,122	9,72
536,602	9,92
537,082	9,96
537,562	10,19
538,042	9,9
538,522	10,29
539,001	10,31
539,481	10,23
539,96	10,09
540,44	10,13
540,919	9,93
541,398	10,23
541,877	10,06
542,356	10,32
542,835	10,43
543,313	10,42
543,792	10,35
544,27	10,43
544,749	10,26
545,227	10,34
545,705	10,22
546,183	10,24
546,661	10,25
547,139	10,26
547,616	10,41
548,094	10,4
548,571	10,64
549,049	10,66
549,526	10,54
550,003	10,57
550,48	10,45
550,957	10,42
551,434	10,51
551,911	10,38
552,387	10,7
552,864	10,8
553,34	10,68
553,817	10,41
554,293	10,62
554,769	10,39
555,245	10,6
555,721	10,56
556,197	10,42
556,672	10,5
557,148	10,42
557,623	10,57
558,099	10,39
558,574	10,4
559,049	10,39
559,524	10,54
559,999	10,44
560,474	10,42
560,948	10,47
561,423	10,22
561,897	10,23
562,372	10,26
562,846	10,05
563,32	10,19
563,794	10,04
564,268	9,86
564,742	9,92
565,216	9,97
565,69	9,85
566,163	9,8
566,636	9,85
567,11	9,51
567,583	9,88
568,056	9,64
568,529	9,54
569,002	9,46
569,475	9,56
569,947	9,42
570,42	9,39
570,892	9,17
571,365	9,42
571,837	9,23
572,309	8,91
572,781	8,88
573,253	8,96
573,725	8,9
574,197	8,84
574,668	8,69
575,14	8,52
575,611	8,58
576,082	8,52
576,554	8,47
577,025	8,43
577,496	8,39
577,967	8,24
578,437	8,06
578,908	7,98
579,379	8,02
579,849	7,89
580,319	7,91
580,79	7,99
581,26	7,85
581,73	7,89
582,2	7,99
582,669	7,48
583,139	7,74
583,609	7,63
584,078	7,58
584,548	7,49
585,017	7,59
585,486	7,38
585,955	7,34
586,424	7,46
586,893	7,26
587,362	7,22
587,83	7,3
588,299	7,34
588,767	7,31
589,236	7,25
589,704	7,26
590,172	7,13
590,64	7,34
591,108	6,99
591,576	7,12
592,043	7,07
592,511	7,08
592,978	6,95
593,446	6,82
593,913	6,96
594,38	6,78
594,847	6,87
595,314	6,9
595,781	6,9
596,248	6,77
596,715	6,81
597,181	6,86
597,647	6,89
598,114	6,76
598,58	7,03
599,046	6,72
599,512	6,71
599,978	6,75
600,444	6,62
600,91	6,6
601,375	6,65
601,841	6,58
602,306	6,72
602,771	6,61
603,236	6,51
603,702	6,52
604,167	6,5
604,631	6,53
605,096	6,56
605,561	6,47
606,025	6,58
606,49	6,36
606,954	6,34
607,418	6,47
607,882	6,3
608,347	6,32
608,81	6,29
609,274	6,26
609,738	6,22
610,202	6,2
610,665	6,13
611,128	6,08
611,592	6,03
612,055	6,01
612,518	5,99
612,981	5,98
613,444	5,85
613,907	5,84
614,369	5,84
614,832	5,75
615,294	5,77
615,757	5,65
616,219	5,57
616,681	5,54
617,143	5,58
617,605	5,68
618,067	5,6
618,529	5,61
618,99	5,54
619,452	5,48
619,913	5,27
620,375	5,49
620,836	5,34
621,297	5,37
621,758	5,26
622,219	5,31
622,68	5,27
623,14	5,35
623,601	5,27
624,061	5,2
624,522	5,32
624,982	5,12
625,442	5,1
625,902	5,02
626,362	5,26
626,822	5,14
627,282	5,04
627,742	5,13
628,201	5,14
628,661	4,96
629,12	5,09
629,579	5,14
630,038	5,11
630,497	5,16
630,956	5,12
631,415	5,01
631,874	5,19
632,332	5,05
632,791	4,98
633,249	5,1
633,708	5,02
634,166	5,06
634,624	4,98
635,082	4,93
635,54	4,88
635,998	4,79
636,455	4,84
636,913	4,79
637,37	4,81
637,828	4,78
638,285	4,78
638,742	4,6
639,199	4,62
639,656	4,6
640,113	4,42
640,57	4,39
641,027	4,47
641,483	4,38
641,94	4,4
642,396	4,31
642,852	4,21
643,309	4,17
643,765	4,05
644,221	4,03
644,676	4,04
645,132	3,98
645,588	3,9
646,043	3,9
646,499	3,87
646,954	3,89
647,409	3,88
647,864	3,69
648,319	3,68
648,774	3,71
649,229	3,7
649,684	3,53
650,139	3,52
650,593	3,54
651,047	3,54
651,502	3,54
651,956	3,48
652,41	3,47
652,864	3,47
653,318	3,45
653,772	3,5
654,225	3,43
654,679	3,42
655,133	3,38
655,586	3,36
656,039	3,35
656,492	3,27
656,946	3,27
657,399	3,28
657,851	3,21
658,304	3,25
658,757	3,15
659,209	3,15
659,662	3,04
660,114	3,09
660,567	3,05
661,019	3,12
661,471	3
661,923	2,96
662,375	2,87
662,826	2,93
663,278	2,81
663,73	2,82
664,181	2,84
664,632	2,82
665,084	2,78
665,535	2,72
665,986	2,72
666,437	2,76
666,888	2,7
667,338	2,8
667,789	2,75
668,24	2,8
668,69	2,79
669,14	2,76
669,591	2,79
670,041	2,69
670,491	2,79
670,941	2,8
671,391	2,81
671,84	2,83
672,29	2,86
672,74	2,82
673,189	2,91
673,638	2,84
674,088	2,96
674,537	3,07
674,986	3,01
675,435	3,01
675,883	3,15
676,332	3,21
676,781	3,15
677,229	3,17
677,678	3,23
678,126	3,33
678,574	3,35
679,022	3,49
679,47	3,47
679,918	3,56
680,366	3,52
680,814	3,59
681,261	3,66
681,709	3,76
682,156	3,82
682,604	3,77
683,051	3,96
683,498	3,88
683,945	4,09
684,392	3,97
684,839	4,01
685,286	4,12
685,732	4,18
686,179	4,22
686,625	4,32
687,071	4,33
687,518	4,46
687,964	4,49
688,41	4,66
688,856	4,67
689,301	4,75
689,747	4,9
690,193	5,01
690,638	5,2
691,084	5,34
691,529	5,47
691,974	5,59
692,419	5,74
692,864	5,97
693,309	6,07
693,754	6,38
694,199	6,6
694,643	6,76
695,088	6,89
695,532	7,14
695,977	7,45
696,421	7,56
696,865	7,77
697,309	7,97
697,753	8,15
698,197	8,37
698,64	8,59
699,084	8,87
699,527	9,07
699,971	9,25
700,414	9,53
700,857	9,61
701,3	9,77
701,743	10,04
702,186	10,22
702,629	10,38
703,072	10,6
703,515	10,81
703,957	10,93
704,399	11,07
704,842	11,37
705,284	11,53
705,726	11,57
706,168	11,7
706,61	11,96
707,052	12,15
707,494	12,45
707,935	12,46
708,377	12,6
708,818	12,75
709,26	12,7
709,701	12,82
710,142	13,09
710,583	13,12
711,024	13,38
711,465	13,45
711,905	13,67
712,346	13,48
712,787	13,89
713,227	13,93
713,667	14,05
714,108	14,17
714,548	14,35
714,988	14,54
715,428	14,55
715,868	14,75
716,307	14,74
716,747	15,02
717,186	15,01
717,626	15,04
718,065	15,1
718,504	15,17
718,944	15,47
719,383	15,36
719,822	15,53
720,261	15,54
720,699	15,85
721,138	15,76
721,576	16,03
722,015	16,06
722,453	16,01
722,892	16,02
723,33	16,03
723,768	16,38
724,206	16,21
724,644	16,36
725,081	16,41
725,519	16,37
725,957	16,7
726,394	16,71
726,832	16,6
727,269	16,57
727,706	16,69
728,143	16,79
728,58	16,84
729,017	16,8
729,454	17
729,89	16,78
730,327	16,9
730,764	16,95
731,2	17,11
731,636	16,99
732,072	17,15
732,509	17,18
732,945	17,19
733,38	17,25
733,816	17,23
734,252	17,2
734,688	17,25
735,123	17,2
735,559	17,27
735,994	17,44
736,429	17,4
736,864	17,3
737,299	17,29
737,734	17,44
738,169	17,4
738,604	17,35
739,038	17,56
739,473	17,42
739,907	17,57
740,342	17,45
740,776	17,54
741,21	17,67
741,644	17,25
742,078	17,52
742,512	17,39
742,946	17,35
743,379	17,47
743,813	17,38
744,246	17,38
744,68	17,5
745,113	17,45
745,546	17,41
745,979	17,56
746,412	17,61
746,845	17,43
747,278	17,44
747,711	17,51
748,143	17,52
748,576	17,25
749,008	17,38
749,441	17,21
749,873	17,26
750,305	17,35
750,737	17,43
751,169	17,26
751,601	17,34
752,032	17,26
752,464	17,17
752,896	17,29
753,327	17,12
753,758	17,44
754,19	17,28
754,621	17,05
755,052	17,08
755,483	17,25
755,914	17,15
756,344	17,08
756,775	17,09
757,206	17,02
757,636	16,87
758,066	17,02
758,497	16,81
758,927	17,05
759,357	16,95
759,787	16,98
760,217	17,05
760,647	16,93
761,076	17,01
761,506	16,83
761,935	16,82
762,365	16,97
762,794	16,9
763,223	17,07
763,653	16,8
764,082	16,84
764,51	16,83
764,939	16,76
765,368	16,84
765,797	16,81
766,225	16,83
766,654	16,81
767,082	16,85
767,51	16,82
767,938	16,8
768,367	16,91
768,795	16,88
769,222	16,74
769,65	16,78
770,078	16,78
770,505	16,66
770,933	16,56
771,36	16,66
771,788	16,62
772,215	16,55
772,642	16,96
773,069	16,38
773,496	16,67
773,923	16,65
774,349	16,69
774,776	16,74
775,203	16,37
775,629	16,76
776,055	16,63
776,482	16,6
776,908	16,51
777,334	16,69
777,76	16,54
778,186	16,51
778,611	16,6
779,037	16,62
779,463	16,39
779,888	16,52
780,314	16,53
780,739	16,61
781,164	16,65
781,589	16,48
782,014	16,52
782,439	16,55
782,864	16,61
783,289	16,49
783,713	16,57
784,138	16,47
784,562	16,33
784,987	16,73
785,411	16,61
785,835	16,42
786,259	16,53
786,683	16,44
787,107	16,6
787,531	16,58
787,954	16,48
788,378	16,57
788,802	16,43
789,225	16,44
789,648	16,38
790,071	16,39
790,495	16,49
790,918	16,35
791,34	16,54
791,763	16,43
792,186	16,47
792,609	16,34
793,031	16,29
793,454	16,29
793,876	16,32
794,298	16,26
794,721	16,55
795,143	16,24
795,565	16,49
795,986	16,16
796,408	16,25
796,83	16,47
797,252	16,53
797,673	16,33
798,094	16,42
798,516	16,46
798,937	16,22
799,358	16,45
799,779	16,31
800,2	16,47
800,621	16,05
801,042	16,45
801,462	16,46
801,883	16,29
802,303	16,31
802,724	16,28
803,144	16,3
803,564	16,39
803,984	16,28
804,404	16,39
804,824	16,01
805,244	16,42
805,664	16,25
806,084	16,4
806,503	16,39
806,923	16,23
807,342	16,4
807,761	16,16
808,18	16,29
808,599	16,31
809,018	16,32
809,437	16,16
809,856	16,3
810,275	16,26
810,693	16,15
811,112	16,42
811,53	16,09
811,949	16,34
812,367	16,25
812,785	16,17
813,203	16,18
813,621	16,43
814,039	16,24
814,457	16,32
814,874	16,35
815,292	16,17
815,709	16,36
816,127	16,28
816,544	16,36
816,961	16,25
817,378	16,09
817,795	16,24
818,212	16,32
818,629	16,13
819,046	16,23
819,462	16,04
819,879	16,21
820,295	16,11
820,712	16,31
821,128	16,19
821,544	16,02
821,96	16,41
822,376	16,09
822,792	16,26
823,208	16,24
823,624	16,19
824,039	16,23
824,455	16,19
824,87	16,22
825,286	16,39
825,701	16,08
826,116	15,87
826,531	16,1
826,946	15,95
827,361	16,16
827,776	16,24
828,19	16,2
828,605	16,11
829,02	16,2
829,434	16,02
829,848	16,03
830,263	15,99
830,677	16,23
831,091	16,2
831,505	16,17
831,919	16,35
832,332	16,09
832,746	16,28
833,16	16,17
833,573	15,97
833,987	16,04
834,4	16,16
834,813	16,09
835,226	16,15
835,639	16,19
836,052	16,16
836,465	16,09
836,878	15,99
837,29	16,07
837,703	15,95
838,116	16,24
838,528	16,18
838,94	16,23
839,352	16,11
839,765	15,99
840,177	16,02
840,589	16,03
841	16,15
841,412	16,07
841,824	15,95
842,235	15,94
842,647	15,98
843,058	16,12
843,47	16,17
843,881	16,18
844,292	16,1
844,703	16,15
845,114	16,19
845,525	16,03
845,935	16,03
846,346	15,99
846,757	16,28
847,167	16,09
847,577	15,91
847,988	16,13
848,398	16,22
848,808	16,08
849,218	16,19
849,628	16,02
850,038	15,91
850,448	15,87
850,857	16
851,267	15,87
