Data from E_2_0_Relative__9__00110.txt Node

Date: Mon Jan 29 12:59:29 CET 2024
User: diatiterra
Spectrometer: HDX00911
Trigger mode: 0
Integration Time (sec): 6,000000E-3
Scans to average: 2
Nonlinearity correction enabled: false
Boxcar width: 0
Storing dark spectrum: false
XAxis mode: Wavelengths
Number of Pixels in Spectrum: 2068
>>>>>Begin Spectral Data<<<<<
194,468	13,41
195,025	24,12
195,581	21,51
196,138	13,45
196,694	16,77
197,251	18,04
197,807	17,1
198,363	11,45
198,919	21,2
199,474	12,89
200,03	11,26
200,586	16,22
201,141	9,83
201,696	11,61
202,251	13,44
202,806	9,45
203,361	8,02
203,916	7,89
204,471	7,48
205,025	7,53
205,58	10,51
206,134	11,29
206,688	13,67
207,242	10,83
207,796	15,51
208,35	16,4
208,904	16,33
209,457	20
210,011	10,36
210,564	13,1
211,117	15,67
211,67	15,9
212,223	9,42
212,776	12,3
213,329	8,08
213,881	9,45
214,434	15,22
214,986	12,7
215,538	8,63
216,09	12,19
216,642	19,7
217,194	16,67
217,746	16,31
218,297	8,15
218,849	12,45
219,4	22,13
219,951	16,89
220,502	12,85
221,053	17,86
221,604	7,71
222,155	3,22
222,705	13,57
223,256	11,93
223,806	16,14
224,356	10,9
224,906	11,32
225,456	16,63
226,006	9,77
226,556	13,78
227,106	15,62
227,655	22,81
228,204	3,32
228,754	14,99
229,303	16,04
229,852	12,96
230,401	6,31
230,949	9,01
231,498	3,78
232,047	13,06
232,595	10,25
233,143	14,1
233,691	16,39
234,239	11,61
234,787	12,05
235,335	14,41
235,883	10,78
236,43	13,64
236,978	6,25
237,525	5,58
238,072	7,84
238,619	18,69
239,166	18,76
239,713	13,46
240,26	12,24
240,806	18,4
241,353	12,64
241,899	22,03
242,445	8,45
242,991	9,33
243,537	15,22
244,083	14,94
244,629	22,25
245,174	6,99
245,72	16,44
246,265	14,69
246,81	13,77
247,355	4,24
247,9	12,69
248,445	7,04
248,99	14,37
249,534	14,97
250,079	10,22
250,623	9,66
251,168	6,94
251,712	13,33
252,256	8,82
252,8	13,94
253,343	4,5
253,887	9,36
254,43	10,09
254,974	6,82
255,517	8,96
256,06	17,88
256,603	1,36
257,146	13,46
257,689	11,47
258,232	11,79
258,774	6,68
259,317	12,64
259,859	13,67
260,401	14,29
260,943	12,67
261,485	1,78
262,027	10,5
262,569	-0,5
263,11	15,17
263,652	9,88
264,193	15,18
264,734	9,63
265,275	10,56
265,816	14,29
266,357	13,61
266,898	6,16
267,438	16,51
267,979	18,14
268,519	12,91
269,059	12,62
269,6	9,71
270,14	16,67
270,68	12,29
271,219	13,5
271,759	15,51
272,298	9,8
272,838	15,14
273,377	16,67
273,916	8,72
274,455	7,8
274,994	12,33
275,533	7,39
276,072	16,09
276,61	15,42
277,149	3,88
277,687	9,61
278,225	6,56
278,763	17,19
279,301	13,56
279,839	14,41
280,377	3,08
280,914	12,06
281,452	21,79
281,989	13,19
282,526	14,81
283,064	17,94
283,601	11,14
284,137	13,33
284,674	17,72
285,211	10,89
285,747	17,66
286,284	13,47
286,82	15,26
287,356	10,38
287,892	5,44
288,428	13,73
288,964	21,18
289,5	5,84
290,035	18,1
290,571	7,56
291,106	12,62
291,641	12,73
292,176	19,56
292,711	18,2
293,246	10,55
293,781	10,38
294,315	2,24
294,85	13,94
295,384	16,63
295,918	12,44
296,453	12,74
296,987	9,24
297,52	12,06
298,054	10,51
298,588	18,48
299,121	7,98
299,655	19,68
300,188	6,38
300,721	15,58
301,254	10,73
301,787	11,38
302,32	13,36
302,853	13,88
303,385	14,1
303,918	6,68
304,45	8,77
304,982	11,78
305,514	10,42
306,046	8,75
306,578	9,61
307,11	9,56
307,641	13,39
308,173	8,18
308,704	10,71
309,236	8,27
309,767	4,47
310,298	14,63
310,829	9,86
311,359	13,79
311,89	12,42
312,421	11,88
312,951	6,51
313,481	12,44
314,012	10,74
314,542	10,82
315,072	8,79
315,601	12,16
316,131	14,65
316,661	12,32
317,19	8,37
317,72	9,52
318,249	16,7
318,778	11,76
319,307	14,12
319,836	14,09
320,365	8,76
320,893	10,34
321,422	9,91
321,95	13,56
322,479	21,22
323,007	11,59
323,535	14,65
324,063	14,66
324,591	8,98
325,118	23,3
325,646	11,79
326,173	15,75
326,701	24,52
327,228	16,36
327,755	10,29
328,282	5,35
328,809	15,23
329,336	12,7
329,862	9,77
330,389	15,4
330,915	15,45
331,441	11,66
331,968	12,29
332,494	8
333,02	7,1
333,545	12,68
334,071	10,49
334,597	11,06
335,122	9,35
335,648	1,29
336,173	10,63
336,698	12,39
337,223	10,41
337,748	11,76
338,272	16,53
338,797	10,85
339,322	13,8
339,846	10,43
340,37	9,62
340,894	6,46
341,419	14,92
341,942	8,92
342,466	13,36
342,99	14,52
343,514	14,26
344,037	8,8
344,56	7,09
345,084	10,98
345,607	9,75
346,13	9,16
346,653	9,28
347,175	11,69
347,698	7,27
348,221	8,38
348,743	4,09
349,265	9,91
349,787	8,19
350,309	9,4
350,831	12,93
351,353	9,12
351,875	6,71
352,397	12
352,918	9,9
353,439	1,57
353,961	5,21
354,482	1,01
355,003	7,2
355,524	7,47
356,044	12,42
356,565	7,9
357,086	6,75
357,606	6,46
358,126	10,83
358,646	9,85
359,167	8,08
359,687	4,4
360,206	9,75
360,726	6,96
361,246	7,21
361,765	5,6
362,285	6,63
362,804	11,64
363,323	5,2
363,842	6,68
364,361	4,28
364,88	6,71
365,398	8,82
365,917	3,13
366,435	6,81
366,954	7,98
367,472	4,75
367,99	6,1
368,508	0,4
369,026	8,32
369,544	4,39
370,061	8,17
370,579	9,06
371,096	6,94
371,613	7,51
372,131	8,07
372,648	5,71
373,165	3,65
373,681	4,88
374,198	5,93
374,715	5,21
375,231	9,11
375,747	5,69
376,264	2,8
376,78	5,65
377,296	4,36
377,812	7,16
378,327	5,38
378,843	7,81
379,359	6,33
379,874	3,73
380,389	5,59
380,905	5,19
381,42	4,66
381,935	5,57
382,449	7,45
382,964	3,73
383,479	4,35
383,993	6,25
384,508	6,75
385,022	5
385,536	2,85
386,05	5,07
386,564	5,29
387,078	6,1
387,592	5,24
388,105	5,57
388,619	4,93
389,132	5,54
389,645	6,31
390,158	5,06
390,671	5,94
391,184	3,31
391,697	4,87
392,21	4,57
392,722	5,98
393,235	3,15
393,747	4,44
394,259	3,81
394,771	5,71
395,283	3,75
395,795	5,15
396,307	3,39
396,818	6,72
397,33	5,06
397,841	4,15
398,353	3,13
398,864	4,74
399,375	4,72
399,886	4,48
400,397	3,3
400,907	3,39
401,418	3,36
401,928	2,82
402,439	1,3
402,949	3,68
403,459	2,74
403,969	2,89
404,479	3,28
404,989	2,17
405,498	3,03
406,008	3,09
406,517	3,26
407,027	1,39
407,536	2,43
408,045	2,13
408,554	2,37
409,063	1,75
409,572	2,84
410,08	2,01
410,589	1,72
411,097	2,01
411,606	1,26
412,114	1,62
412,622	1,98
413,13	2,09
413,638	1,56
414,145	1,92
414,653	1,22
415,16	1,29
415,668	1,94
416,175	1,64
416,682	1,01
417,189	1,6
417,696	2,01
418,203	1,73
418,71	0,97
419,216	1,47
419,723	1,64
420,229	1,53
420,735	0,92
421,242	1,28
421,748	1,38
422,254	1,51
422,759	1,19
423,265	0,82
423,771	1,55
424,276	1,22
424,781	1,59
425,287	1,22
425,792	0,86
426,297	0,98
426,802	1,06
427,306	1,01
427,811	1,16
428,316	1,33
428,82	1,05
429,324	0,68
429,829	1,47
430,333	1,17
430,837	1,15
431,34	1,39
431,844	1
432,348	0,99
432,851	1,01
433,355	0,87
433,858	1,36
434,361	1,06
434,864	0,8
435,367	1,02
435,87	0,88
436,373	0,8
436,876	1,15
437,378	1,09
437,88	1,24
438,383	1,55
438,885	1,02
439,387	1,06
439,889	0,86
440,391	1,18
440,892	1,02
441,394	0,98
441,896	0,77
442,397	1,26
442,898	1,22
443,399	1,14
443,9	1,28
444,401	0,94
444,902	1,37
445,403	1,09
445,903	1,22
446,404	1,04
446,904	1,02
447,405	1,23
447,905	1,09
448,405	1,16
448,905	1,09
449,404	1,26
449,904	0,83
450,404	0,95
450,903	0,87
451,403	0,88
451,902	1,24
452,401	1,14
452,9	1,19
453,399	0,84
453,898	1,23
454,396	1,15
454,895	1,19
455,393	1,32
455,892	0,95
456,39	1,06
456,888	1,08
457,386	1,15
457,884	1,28
458,382	1,32
458,879	1
459,377	1,42
459,874	1,34
460,372	1,22
460,869	1
461,366	1,17
461,863	1,25
462,36	1,16
462,857	1,36
463,353	1,17
463,85	1,15
464,346	1,17
464,843	1,05
465,339	1,12
465,835	1,03
466,331	1,04
466,827	1,21
467,323	1,32
467,818	1,06
468,314	0,87
468,809	1,15
469,305	1,13
469,8	1,14
470,295	1,11
470,79	1,08
471,285	1,06
471,78	1,22
472,274	1,11
472,769	0,99
473,263	1,14
473,758	1,16
474,252	1,35
474,746	1,38
475,24	1,24
475,734	1,23
476,228	1,19
476,721	1,06
477,215	1,18
477,708	1,2
478,202	1,33
478,695	1,29
479,188	1,2
479,681	1,25
480,174	1,05
480,667	1,3
481,159	1,23
481,652	1,14
482,144	1,11
482,637	1,25
483,129	1,17
483,621	1,21
484,113	1,24
484,605	1,29
485,097	1,22
485,588	1,29
486,08	1,21
486,571	1,36
487,063	1,39
487,554	1,21
488,045	1,27
488,536	1,33
489,027	1,35
489,518	1,43
490,008	1,27
490,499	1,23
490,989	1,35
491,48	1,33
491,97	1,52
492,46	1,39
492,95	1,34
493,44	1,47
493,93	1,37
494,419	1,47
494,909	1,53
495,398	1,48
495,888	1,44
496,377	1,67
496,866	1,68
497,355	1,55
497,844	1,88
498,333	1,78
498,821	1,69
499,31	1,73
499,798	1,62
500,287	2,01
500,775	1,97
501,263	1,98
501,751	1,98
502,239	2,02
502,727	1,93
503,215	2,16
503,702	2,31
504,19	2,27
504,677	2,28
505,164	2,34
505,651	2,32
506,139	2,41
506,625	2,39
507,112	2,65
507,599	2,73
508,086	2,69
508,572	2,83
509,058	2,83
509,545	3,02
510,031	3,03
510,517	3,23
511,003	3,23
511,489	3,34
511,974	3,29
512,46	3,38
512,946	3,5
513,431	3,44
513,916	3,74
514,401	3,71
514,887	3,89
515,371	3,86
515,856	4,24
516,341	4,25
516,826	4,45
517,31	4,5
517,795	4,6
518,279	4,76
518,763	4,83
519,247	5,08
519,731	5
520,215	5,15
520,699	5,35
521,182	5,35
521,666	5,3
522,149	5,46
522,633	5,9
523,116	5,69
523,599	5,82
524,082	5,98
524,565	6,12
525,048	6,4
525,53	6,36
526,013	6,65
526,495	6,33
526,978	6,44
527,46	6,67
527,942	6,88
528,424	6,65
528,906	7,05
529,388	6,78
529,87	6,98
530,351	7,04
530,833	7,19
531,314	7,31
531,795	7,18
532,277	7,34
532,758	7,32
533,238	7,47
533,719	7,3
534,2	7,39
534,681	7,85
535,161	7,38
535,642	7,67
536,122	7,71
536,602	7,68
537,082	7,85
537,562	7,64
538,042	7,52
538,522	7,78
539,001	7,89
539,481	7,93
539,96	7,82
540,44	7,93
540,919	7,96
541,398	8,07
541,877	8,06
542,356	7,82
542,835	7,88
543,313	7,95
543,792	7,9
544,27	7,96
544,749	7,86
545,227	8,02
545,705	8,1
546,183	8,04
546,661	7,99
547,139	7,83
547,616	8,03
548,094	7,82
548,571	8,19
549,049	7,97
549,526	8,11
550,003	8,11
550,48	8,27
550,957	8,12
551,434	8,38
551,911	8,23
552,387	8,1
552,864	8,04
553,34	8,25
553,817	7,94
554,293	8,08
554,769	8,23
555,245	8,22
555,721	8,09
556,197	8,08
556,672	8,23
557,148	8,16
557,623	8,17
558,099	7,94
558,574	8,05
559,049	8,09
559,524	8,08
559,999	7,94
560,474	8,07
560,948	7,93
561,423	7,94
561,897	8,17
562,372	7,97
562,846	7,66
563,32	7,94
563,794	7,73
564,268	7,82
564,742	7,69
565,216	7,7
565,69	7,71
566,163	7,78
566,636	7,53
567,11	7,48
567,583	7,39
568,056	7,55
568,529	7,34
569,002	7,35
569,475	7,24
569,947	7,32
570,42	7,29
570,892	7,23
571,365	7,1
571,837	7,04
572,309	7,14
572,781	6,82
573,253	6,84
573,725	6,54
574,197	6,67
574,668	6,72
575,14	6,61
575,611	6,47
576,082	6,58
576,554	6,63
577,025	6,47
577,496	6,25
577,967	6,25
578,437	6,18
578,908	6,16
579,379	6,2
579,849	6,01
580,319	5,98
580,79	5,96
581,26	5,99
581,73	5,92
582,2	5,82
582,669	5,74
583,139	5,84
583,609	5,86
584,078	5,81
584,548	5,73
585,017	5,65
585,486	5,67
585,955	5,53
586,424	5,66
586,893	5,47
587,362	5,52
587,83	5,5
588,299	5,45
588,767	5,4
589,236	5,56
589,704	5,41
590,172	5,34
590,64	5,33
591,108	5,25
591,576	5,45
592,043	5,15
592,511	5,35
592,978	5,3
593,446	5,23
593,913	5,18
594,38	5,37
594,847	5,34
595,314	5,12
595,781	5,12
596,248	5,18
596,715	5,08
597,181	5,11
597,647	5,13
598,114	5,22
598,58	5,12
599,046	5,11
599,512	5,11
599,978	5,07
600,444	5,04
600,91	4,99
601,375	4,97
601,841	4,92
602,306	5,01
602,771	5,15
603,236	4,88
603,702	4,93
604,167	4,93
604,631	4,9
605,096	4,93
605,561	4,79
606,025	4,84
606,49	4,84
606,954	4,84
607,418	4,82
607,882	4,67
608,347	4,69
608,81	4,63
609,274	4,51
609,738	4,64
610,202	4,53
610,665	4,51
611,128	4,45
611,592	4,46
612,055	4,39
612,518	4,4
612,981	4,39
613,444	4,33
613,907	4,32
614,369	4,33
614,832	4,13
615,294	4,09
615,757	4,09
616,219	4,21
616,681	4,21
617,143	3,98
617,605	4
618,067	3,9
618,529	4,02
618,99	3,93
619,452	3,93
619,913	3,84
620,375	3,83
620,836	3,84
621,297	3,75
621,758	3,77
622,219	3,78
622,68	3,8
623,14	3,82
623,601	3,78
624,061	3,68
624,522	3,8
624,982	3,77
625,442	3,67
625,902	3,56
626,362	3,68
626,822	3,77
627,282	3,56
627,742	3,67
628,201	3,62
628,661	3,56
629,12	3,52
629,579	3,63
630,038	3,63
630,497	3,72
630,956	3,55
631,415	3,7
631,874	3,58
632,332	3,61
632,791	3,54
633,249	3,54
633,708	3,55
634,166	3,41
634,624	3,56
635,082	3,51
635,54	3,5
635,998	3,39
636,455	3,45
636,913	3,37
637,37	3,36
637,828	3,23
638,285	3,34
638,742	3,3
639,199	3,22
639,656	3,13
640,113	3,12
640,57	3,1
641,027	3
641,483	3
641,94	3,01
642,396	2,92
642,852	2,9
643,309	2,83
643,765	2,76
644,221	2,72
644,676	2,79
645,132	2,74
645,588	2,67
646,043	2,62
646,499	2,5
646,954	2,5
647,409	2,4
647,864	2,48
648,319	2,4
648,774	2,34
649,229	2,37
649,684	2,27
650,139	2,22
650,593	2,16
651,047	2,14
651,502	2,25
651,956	2,14
652,41	2,13
652,864	2,07
653,318	2,13
653,772	2,13
654,225	2,13
654,679	2,1
655,133	2,01
655,586	2,06
656,039	2,02
656,492	1,93
656,946	1,99
657,399	1,99
657,851	1,88
658,304	1,91
658,757	1,88
659,209	1,82
659,662	1,83
660,114	1,82
660,567	1,79
661,019	1,74
661,471	1,69
661,923	1,74
662,375	1,6
662,826	1,63
663,278	1,6
663,73	1,55
664,181	1,58
664,632	1,5
665,084	1,48
665,535	1,42
665,986	1,51
666,437	1,47
666,888	1,43
667,338	1,42
667,789	1,39
668,24	1,45
668,69	1,43
669,14	1,48
669,591	1,45
670,041	1,44
670,491	1,45
670,941	1,51
671,391	1,5
671,84	1,5
672,29	1,53
672,74	1,56
673,189	1,62
673,638	1,6
674,088	1,63
674,537	1,63
674,986	1,71
675,435	1,72
675,883	1,81
676,332	1,78
676,781	1,81
677,229	1,92
677,678	1,87
678,126	1,91
678,574	2
679,022	2,12
679,47	2,07
679,918	2,16
680,366	2,2
680,814	2,18
681,261	2,26
681,709	2,32
682,156	2,35
682,604	2,48
683,051	2,45
683,498	2,54
683,945	2,6
684,392	2,56
684,839	2,71
685,286	2,66
685,732	2,84
686,179	2,82
686,625	2,89
687,071	2,92
687,518	2,97
687,964	3,11
688,41	3,18
688,856	3,29
689,301	3,45
689,747	3,52
690,193	3,63
690,638	3,73
691,084	3,9
691,529	4,1
691,974	4,2
692,419	4,35
692,864	4,44
693,309	4,68
693,754	4,86
694,199	4,93
694,643	5,16
695,088	5,39
695,532	5,62
695,977	5,72
696,421	6,07
696,865	6,2
697,309	6,34
697,753	6,47
698,197	6,63
698,64	6,88
699,084	7,02
699,527	7,21
699,971	7,38
700,414	7,62
700,857	7,75
701,3	7,72
701,743	8,16
702,186	8,24
702,629	8,4
703,072	8,53
703,515	8,76
703,957	8,75
704,399	9,01
704,842	9,12
705,284	9,22
705,726	9,41
706,168	9,54
706,61	9,63
707,052	9,75
707,494	9,89
707,935	10
708,377	10,13
708,818	10,2
709,26	10,35
709,701	10,41
710,142	10,52
710,583	10,63
711,024	10,53
711,465	10,75
711,905	10,99
712,346	11,07
712,787	11,06
713,227	11,17
713,667	11,27
714,108	11,41
714,548	11,47
714,988	11,42
715,428	11,59
715,868	11,63
716,307	11,73
716,747	11,86
717,186	11,86
717,626	11,95
718,065	12
718,504	12,12
718,944	12,24
719,383	12,22
719,822	12,31
720,261	12,38
720,699	12,64
721,138	12,43
721,576	12,56
722,015	12,67
722,453	12,74
722,892	12,71
723,33	12,62
723,768	12,79
724,206	12,82
724,644	12,93
725,081	12,95
725,519	12,92
725,957	13,01
726,394	13,15
726,832	13,17
727,269	13,04
727,706	13,09
728,143	13,25
728,58	13,14
729,017	13,37
729,454	13,43
729,89	13,29
730,327	13,49
730,764	13,4
731,2	13,34
731,636	13,4
732,072	13,48
732,509	13,28
732,945	13,51
733,38	13,37
733,816	13,43
734,252	13,46
734,688	13,54
735,123	13,54
735,559	13,48
735,994	13,57
736,429	13,69
736,864	13,62
737,299	13,66
737,734	13,63
738,169	13,64
738,604	13,66
739,038	13,54
739,473	13,66
739,907	13,86
740,342	13,53
740,776	13,6
741,21	13,62
741,644	13,57
742,078	13,7
742,512	13,67
742,946	13,65
743,379	13,65
743,813	13,48
744,246	13,75
744,68	13,7
745,113	13,68
745,546	13,58
745,979	13,65
746,412	13,63
746,845	13,54
747,278	13,64
747,711	13,7
748,143	13,66
748,576	13,57
749,008	13,51
749,441	13,65
749,873	13,63
750,305	13,52
750,737	13,44
751,169	13,43
751,601	13,46
752,032	13,38
752,464	13,54
752,896	13,36
753,327	13,36
753,758	13,36
754,19	13,46
754,621	13,42
755,052	13,42
755,483	13,36
755,914	13,26
756,344	13,53
756,775	13,38
757,206	13,23
757,636	13,39
758,066	13,23
758,497	13,16
758,927	13,26
759,357	13,29
759,787	13,16
760,217	13,26
760,647	13,29
761,076	13,34
761,506	13,27
761,935	13,08
762,365	13,09
762,794	13,17
763,223	13,24
763,653	13,27
764,082	13,19
764,51	13,14
764,939	13,07
765,368	13,03
765,797	13,13
766,225	13,04
766,654	13,05
767,082	13,16
767,51	13,03
767,938	13,15
768,367	12,94
768,795	13,17
769,222	13,05
769,65	13,12
770,078	12,99
770,505	13,17
770,933	12,84
771,36	12,98
771,788	13,2
772,215	12,94
772,642	13,01
773,069	12,93
773,496	13,08
773,923	12,84
774,349	12,94
774,776	13,01
775,203	13
775,629	13,1
776,055	12,89
776,482	12,97
776,908	13,05
777,334	12,91
777,76	12,8
778,186	12,93
778,611	12,95
779,037	12,98
779,463	12,95
779,888	13
780,314	13,07
780,739	12,91
781,164	12,93
781,589	12,87
782,014	12,94
782,439	12,72
782,864	12,95
783,289	12,83
783,713	12,88
784,138	12,93
784,562	12,88
784,987	12,99
785,411	12,79
785,835	12,79
786,259	12,83
786,683	12,72
787,107	13,03
787,531	12,87
787,954	12,82
788,378	12,85
788,802	12,92
789,225	12,72
789,648	12,8
790,071	12,7
790,495	12,79
790,918	12,9
791,34	12,81
791,763	12,76
792,186	12,77
792,609	12,8
793,031	12,79
793,454	12,84
793,876	12,81
794,298	12,74
794,721	12,8
795,143	12,6
795,565	12,74
795,986	12,7
796,408	12,86
796,83	12,6
797,252	12,84
797,673	12,78
798,094	12,73
798,516	12,77
798,937	12,66
799,358	12,83
799,779	12,71
800,2	12,67
800,621	12,75
801,042	12,69
801,462	12,67
801,883	12,58
802,303	12,71
802,724	12,75
803,144	12,74
803,564	12,82
803,984	12,68
804,404	12,68
804,824	12,69
805,244	12,89
805,664	12,74
806,084	12,72
806,503	12,61
806,923	12,69
807,342	12,78
807,761	12,84
808,18	12,69
808,599	12,56
809,018	12,8
809,437	12,72
809,856	12,68
810,275	12,7
810,693	12,87
811,112	12,8
811,53	12,55
811,949	12,76
812,367	12,6
812,785	12,67
813,203	12,66
813,621	12,66
814,039	12,44
814,457	12,73
814,874	12,78
815,292	12,62
815,709	12,71
816,127	12,67
816,544	12,59
816,961	12,56
817,378	12,61
817,795	12,43
818,212	12,74
818,629	12,62
819,046	12,57
819,462	12,7
819,879	12,56
820,295	12,55
820,712	12,55
821,128	12,7
821,544	12,68
821,96	12,63
822,376	12,86
822,792	12,71
823,208	12,41
823,624	12,66
824,039	12,7
824,455	12,74
824,87	12,44
825,286	12,67
825,701	12,68
826,116	12,66
826,531	12,55
826,946	12,72
827,361	12,37
827,776	12,51
828,19	12,65
828,605	12,65
829,02	12,63
829,434	12,6
829,848	12,67
830,263	12,6
830,677	12,47
831,091	12,64
831,505	12,63
831,919	12,65
832,332	12,56
832,746	12,56
833,16	12,44
833,573	12,8
833,987	12,65
834,4	12,52
834,813	12,56
835,226	12,53
835,639	12,58
836,052	12,53
836,465	12,61
836,878	12,57
837,29	12,64
837,703	12,6
838,116	12,49
838,528	12,7
838,94	12,55
839,352	12,67
839,765	12,52
840,177	12,55
840,589	12,57
841	12,42
841,412	12,56
841,824	12,44
842,235	12,43
842,647	12,49
843,058	12,56
843,47	12,66
843,881	12,57
844,292	12,59
844,703	12,4
845,114	12,55
845,525	12,49
845,935	12,58
846,346	12,54
846,757	12,5
847,167	12,55
847,577	12,5
847,988	12,56
848,398	12,64
848,808	12,45
849,218	12,46
849,628	12,53
850,038	12,46
850,448	12,55
850,857	12,5
851,267	12,41
851,676	12,49
852,086	12,55
852,495	12,41
852,904	12,32
853,313	12,42
853,722	12,5
854,131	12,55
854,54	12,44
854,949	12,47
855,357	12,57
855,766	12,58
856,174	12,53
856,583	12,27
856,991	12,63
