Data from E_2_0_Relative__0__00101.txt Node

Date: Mon Jan 29 12:58:50 CET 2024
User: diatiterra
Spectrometer: HDX00911
Trigger mode: 0
Integration Time (sec): 6,000000E-3
Scans to average: 2
Nonlinearity correction enabled: false
Boxcar width: 0
Storing dark spectrum: false
XAxis mode: Wavelengths
Number of Pixels in Spectrum: 2068
>>>>>Begin Spectral Data<<<<<
194,468	15,85
195,025	17,09
195,581	12,21
196,138	8,77
196,694	23,48
197,251	24,4
197,807	24,7
198,363	20,09
198,919	23,77
199,474	25,78
200,03	9,93
200,586	21,21
201,141	25,64
201,696	19,78
202,251	21,18
202,806	20,94
203,361	17,72
203,916	16,42
204,471	17,91
205,025	32,9
205,58	22,15
206,134	17,86
206,688	21,48
207,242	16,35
207,796	20
208,35	25,51
208,904	24,49
209,457	28,6
210,011	20,51
210,564	26,4
211,117	24,18
211,67	19,92
212,223	20,13
212,776	24,4
213,329	25,45
213,881	25,46
214,434	25,63
214,986	22,22
215,538	30,75
216,09	30,7
216,642	22,7
217,194	24,58
217,746	30,3
218,297	27,47
218,849	21,89
219,4	25,05
219,951	21,33
220,502	23,55
221,053	30,88
221,604	27,71
222,155	21,61
222,705	25,68
223,256	26,68
223,806	29,14
224,356	22,86
224,906	33,12
225,456	22,53
226,006	20,23
226,556	29,65
227,106	31,7
227,655	24,95
228,204	25,44
228,754	19,51
229,303	29,67
229,852	24,62
230,401	32,43
230,949	29,23
231,498	23,78
232,047	25,48
232,595	28,66
233,143	21,15
233,691	21,31
234,239	18,3
234,787	27,05
235,335	29,89
235,883	16,28
236,43	21,07
236,978	20,14
237,525	17,63
238,072	19,61
238,619	22,43
239,166	32,01
239,713	24,22
240,26	20,12
240,806	26,62
241,353	20
241,899	24,23
242,445	24,95
242,991	21,48
243,537	16,16
244,083	24,48
244,629	32,84
245,174	29,69
245,72	27,11
246,265	26,34
246,81	30,47
247,355	17,88
247,9	30,63
248,445	17,27
248,99	30,8
249,534	17,23
250,079	26,22
250,623	19,81
251,168	20,36
251,712	21,08
252,256	22,58
252,8	23,53
253,343	22,04
253,887	21,28
254,43	21,67
254,974	18,59
255,517	24,31
256,06	19,65
256,603	18,64
257,146	15,78
257,689	28,79
258,232	23,13
258,774	21,53
259,317	17,61
259,859	27,33
260,401	24,24
260,943	21,56
261,485	23,11
262,027	19,69
262,569	18,5
263,11	27,99
263,652	22,12
264,193	22,99
264,734	17,89
265,275	21,83
265,816	19,56
266,357	24,94
266,898	24,89
267,438	26,15
267,979	30,09
268,519	25,16
269,059	22,43
269,6	21,44
270,14	21,17
270,68	22,88
271,219	21,1
271,759	27,19
272,298	13,81
272,838	18,81
273,377	25,31
273,916	19,91
274,455	19,82
274,994	19,82
275,533	22,17
276,072	23,39
276,61	22,47
277,149	19,42
277,687	22,88
278,225	20,14
278,763	17,19
279,301	21,11
279,839	17,42
280,377	23,46
280,914	28,31
281,452	18,12
281,989	21,98
282,526	24,25
283,064	20,77
283,601	19,49
284,137	25,71
284,674	21,6
285,211	26,58
285,747	21,48
286,284	21,69
286,82	23,92
287,356	25,39
287,892	24,49
288,428	15,02
288,964	30,12
289,5	22,92
290,035	24,28
290,571	27,07
291,106	9,65
291,641	17,27
292,176	28,85
292,711	26,97
293,246	28,44
293,781	21,22
294,315	21,2
294,85	27,65
295,384	17,08
295,918	22,22
296,453	21,23
296,987	15,4
297,52	23,9
298,054	21,25
298,588	25
299,121	22,62
299,655	17,87
300,188	16,86
300,721	31,4
301,254	21,23
301,787	34,14
302,32	19,35
302,853	26,65
303,385	24,67
303,918	18,71
304,45	18,86
304,982	26,89
305,514	21,06
306,046	21,44
306,578	20,59
307,11	19,81
307,641	20,09
308,173	16,82
308,704	18,3
309,236	26,28
309,767	20,94
310,298	26,61
310,829	23,94
311,359	25,47
311,89	21,9
312,421	23,99
312,951	20,93
313,481	14,29
314,012	26,4
314,542	17,88
315,072	15,33
315,601	32,88
316,131	24,71
316,661	18,12
317,19	21,04
317,72	18,57
318,249	23,48
318,778	21,08
319,307	19,29
319,836	21,94
320,365	21,2
320,893	16,54
321,422	22,35
321,95	26
322,479	20,77
323,007	20,77
323,535	19,77
324,063	14,66
324,591	14,66
325,118	22,86
325,646	24,06
326,173	18,95
326,701	19,76
327,228	21,36
327,755	14,11
328,282	27,27
328,809	23,18
329,336	10,39
329,862	20,23
330,389	22,3
330,915	16,36
331,441	21,45
331,968	10,36
332,494	14,5
333,02	17,42
333,545	20,32
334,071	16,74
334,597	19,71
335,122	18,26
335,648	15,21
336,173	11,5
336,698	13,3
337,223	17,79
337,748	17,23
338,272	14,85
338,797	16,92
339,322	20,59
339,846	15,11
340,37	24,3
340,894	14,92
341,419	22,9
341,942	17,85
342,466	19,21
342,99	23,24
343,514	21,38
344,037	14
344,56	15,99
345,084	21,21
345,607	20,94
346,13	12,21
346,653	19,51
347,175	16,58
347,698	20,63
348,221	19,93
348,743	23,42
349,265	20
349,787	21
350,309	15,21
350,831	15,69
351,353	16,7
351,875	19,46
352,397	20
352,918	20,82
353,439	20,1
353,961	21,01
354,482	15,82
355,003	18,99
355,524	19,66
356,044	22,29
356,565	23,4
357,086	18,74
357,606	18,74
358,126	26,56
358,646	26,27
359,167	22,8
359,687	21,38
360,206	17,13
360,726	23,48
361,246	25,44
361,765	17,07
362,285	24,59
362,804	21,38
363,323	23,46
363,842	26,7
364,361	26,47
364,88	26,71
365,398	24,61
365,917	22,69
366,435	26,09
366,954	25,19
367,472	21,69
367,99	24,77
368,508	21,32
369,026	24,48
369,544	24,39
370,061	23,34
370,579	24,01
371,096	27,75
371,613	25,94
372,131	27,84
372,648	25,3
373,165	26,66
373,681	22,62
374,198	25,05
374,715	26,67
375,231	29,84
375,747	23,16
376,264	23,26
376,78	21,83
377,296	26,73
377,812	27,47
378,327	28,36
378,843	20,63
379,359	26,22
379,874	23,31
380,389	23,84
380,905	24,39
381,42	25,62
381,935	23,51
382,449	25
382,964	28,11
383,479	25,8
383,993	26,56
384,508	27,07
385,022	22,34
385,536	22,81
386,05	21,78
386,564	21,69
387,078	22,27
387,592	25,54
388,105	20,92
388,619	21,45
389,132	23,05
389,645	23,39
390,158	20,71
390,671	21,46
391,184	20,82
391,697	21,97
392,21	21,48
392,722	20,61
393,235	21,29
393,747	18,8
394,259	20,88
394,771	20,51
395,283	20,85
395,795	21,32
396,307	20,65
396,818	19,87
397,33	20,43
397,841	18,28
398,353	18,78
398,864	17,04
399,375	19,81
399,886	20,3
400,397	19,89
400,907	18,67
401,418	18,15
401,928	17,56
402,439	16,96
402,949	18,49
403,459	16,66
403,969	15,72
404,479	16,32
404,989	14
405,498	14,86
406,008	16,31
406,517	14,54
407,027	14,39
407,536	13,67
408,045	12,26
408,554	13,58
409,063	12,25
409,572	12,06
410,08	12,76
410,589	11,88
411,097	10,93
411,606	10,86
412,114	11,81
412,622	10,65
413,13	10,8
413,638	10,23
414,145	10,51
414,653	9,54
415,16	9,23
415,668	9,82
416,175	9,05
416,682	9,23
417,189	7,7
417,696	9,01
418,203	8,96
418,71	8,22
419,216	8,58
419,723	7,96
420,229	8,23
420,735	7,86
421,242	7,69
421,748	7,94
422,254	8,4
422,759	8
423,265	7,76
423,771	7,31
424,276	8,12
424,781	8,03
425,287	7,48
425,792	7,59
426,297	7,12
426,802	7,37
427,306	7,39
427,811	7,17
428,316	7,25
428,82	7,15
429,324	7,3
429,829	7,81
430,333	7,44
430,837	7,08
431,34	7,08
431,844	6,92
432,348	6,71
432,851	7,19
433,355	6,74
433,858	7,04
434,361	6,75
434,864	6,97
435,367	7,08
435,87	7,1
436,373	6,52
436,876	7
437,378	6,89
437,88	7,25
438,383	7,34
438,885	7,32
439,387	6,63
439,889	6,87
440,391	7,34
440,892	7,16
441,394	6,94
441,896	7,03
442,397	6,97
442,898	7,56
443,399	7,04
443,9	7,06
444,401	7,05
444,902	7,24
445,403	7,42
445,903	7,36
446,404	7,32
446,904	7,09
447,405	7,06
447,905	7,23
448,405	7,38
448,905	7,32
449,404	7,49
449,904	7,25
450,404	7,11
450,903	7,26
451,403	7,65
451,902	7,42
452,401	7,38
452,9	7,35
453,399	7,18
453,898	7,68
454,396	7,46
454,895	7,37
455,393	7,6
455,892	7,16
456,39	7,59
456,888	7,6
457,386	7,55
457,884	7,93
458,382	7,91
458,879	7,84
459,377	7,78
459,874	7,22
460,372	7,49
460,869	7,66
461,366	7,4
461,863	7,5
462,36	7,65
462,857	7,52
463,353	7,51
463,85	7,67
464,346	7,79
464,843	7,78
465,339	7,62
465,835	7,69
466,331	7,81
466,827	7,47
467,323	7,83
467,818	7,6
468,314	7,44
468,809	7,6
469,305	7,47
469,8	7,7
470,295	7,72
470,79	7,66
471,285	7,68
471,78	7,87
472,274	7,8
472,769	7,93
473,263	8,01
473,758	7,82
474,252	8,2
474,746	7,84
475,24	7,8
475,734	7,81
476,228	7,67
476,721	7,53
477,215	8,02
477,708	8,22
478,202	7,93
478,695	8
479,188	7,78
479,681	7,76
480,174	8,1
480,667	8,05
481,159	7,62
481,652	7,82
482,144	7,63
482,637	7,67
483,129	7,98
483,621	8,25
484,113	7,91
484,605	8,07
485,097	8,25
485,588	8,35
486,08	7,83
486,571	8,24
487,063	7,97
487,554	8,41
488,045	8,14
488,536	8,35
489,027	8,27
489,518	8,13
490,008	8,47
490,499	8,4
490,989	8,3
491,48	8,4
491,97	8,38
492,46	8,13
492,95	8,37
493,44	8,87
493,93	8,44
494,419	8,67
494,909	8,59
495,398	8,57
495,888	8,57
496,377	8,72
496,866	8,63
497,355	8,88
497,844	9,07
498,333	8,93
498,821	9,16
499,31	9,23
499,798	9,2
500,287	9,25
500,775	9,41
501,263	9,23
501,751	9,35
502,239	9,86
502,727	9,56
503,215	9,61
503,702	9,79
504,19	9,94
504,677	9,76
505,164	9,79
505,651	10,09
506,139	10,18
506,625	9,99
507,112	10,42
507,599	10,39
508,086	10,95
508,572	10,75
509,058	10,9
509,545	10,71
510,031	11,29
510,517	11,15
511,003	11,29
511,489	11,42
511,974	11,64
512,46	11,83
512,946	11,85
513,431	11,56
513,916	11,94
514,401	12,11
514,887	12,36
515,371	12,46
515,856	12,73
516,341	12,7
516,826	12,83
517,31	13,15
517,795	13,27
518,279	13,58
518,763	13,5
519,247	13,39
519,731	13,66
520,215	14,04
520,699	14,44
521,182	14,15
521,666	14,29
522,149	14,83
522,633	14,9
523,116	14,75
523,599	15,12
524,082	14,88
524,565	15,14
525,048	15,47
525,53	15,73
526,013	15,6
526,495	15,98
526,978	15,8
527,46	16
527,942	16,04
528,424	16,3
528,906	16,13
529,388	16,27
529,87	16,32
530,351	16,56
530,833	16,45
531,314	16,93
531,795	16,6
532,277	16,77
532,758	17,01
533,238	17,05
533,719	16,8
534,2	17,28
534,681	17,1
535,161	17,05
535,642	17,15
536,122	17,35
536,602	17,3
537,082	17,65
537,562	17,5
538,042	17,17
538,522	17,3
539,001	17,19
539,481	17,47
539,96	17,46
540,44	17,36
540,919	17,51
541,398	17,59
541,877	17,61
542,356	17,31
542,835	17,64
543,313	17,6
543,792	17,68
544,27	17,74
544,749	17,79
545,227	17,59
545,705	17,61
546,183	17,58
546,661	17,64
547,139	17,72
547,616	17,7
548,094	17,6
548,571	17,91
549,049	18,03
549,526	17,85
550,003	17,68
550,48	17,48
550,957	17,58
551,434	18,06
551,911	17,77
552,387	17,68
552,864	17,82
553,34	17,58
553,817	17,88
554,293	17,58
554,769	17,79
555,245	18,07
555,721	17,98
556,197	17,76
556,672	17,72
557,148	17,66
557,623	17,99
558,099	17,74
558,574	17,87
559,049	17,71
559,524	17,73
559,999	17,75
560,474	17,78
560,948	17,42
561,423	17,8
561,897	17,52
562,372	17,77
562,846	17,56
563,32	17,73
563,794	17,54
564,268	17,58
564,742	17,47
565,216	17,61
565,69	17,34
566,163	17,22
566,636	17,2
567,11	17,19
567,583	17,32
568,056	17,01
568,529	17
569,002	17,12
569,475	16,9
569,947	17,1
570,42	16,52
570,892	16,69
571,365	16,6
571,837	16,59
572,309	16,54
572,781	16,36
573,253	16,23
573,725	16,24
574,197	16,11
574,668	16,02
575,14	15,84
575,611	15,85
576,082	15,71
576,554	15,79
577,025	15,6
577,496	15,46
577,967	15,61
578,437	15,35
578,908	15,31
579,379	15,17
579,849	15,37
580,319	15,18
580,79	15,36
581,26	15,17
581,73	15,19
582,2	15,03
582,669	15,03
583,139	15,09
583,609	14,92
584,078	14,64
584,548	14,97
585,017	14,77
585,486	14,57
585,955	14,59
586,424	14,59
586,893	14,49
587,362	14,48
587,83	14,52
588,299	14,46
588,767	14,34
589,236	14,4
589,704	14,33
590,172	14,35
590,64	14
591,108	13,97
591,576	14,14
592,043	14,12
592,511	14,24
592,978	13,86
593,446	14,14
593,913	14,03
594,38	13,86
594,847	13,88
595,314	14,01
595,781	13,84
596,248	14,01
596,715	13,8
597,181	13,93
597,647	13,98
598,114	13,68
598,58	13,54
599,046	13,73
599,512	13,77
599,978	13,76
600,444	13,73
600,91	13,53
601,375	13,57
601,841	13,75
602,306	13,66
602,771	13,89
603,236	13,61
603,702	13,75
604,167	13,57
604,631	13,51
605,096	13,83
605,561	13,21
606,025	13,14
606,49	13,31
606,954	13,51
607,418	13,35
607,882	13,44
608,347	13,1
608,81	13,39
609,274	13,23
609,738	12,85
610,202	13,17
610,665	13,11
611,128	12,98
611,592	12,9
612,055	12,64
612,518	12,73
612,981	12,71
613,444	12,79
613,907	12,53
614,369	12,74
614,832	12,49
615,294	12,62
615,757	12,3
616,219	12,66
616,681	12,45
617,143	12,29
617,605	12,34
618,067	12,28
618,529	12,27
618,99	12,24
619,452	12,02
619,913	12,12
620,375	12,11
620,836	11,82
621,297	12,07
621,758	11,97
622,219	12,23
622,68	12,06
623,14	11,93
623,601	11,87
624,061	11,84
624,522	11,84
624,982	12,04
625,442	11,57
625,902	11,74
626,362	11,74
626,822	12,1
627,282	11,78
627,742	11,77
628,201	11,73
628,661	11,8
629,12	11,61
629,579	11,73
630,038	11,77
630,497	11,73
630,956	11,64
631,415	11,76
631,874	11,76
632,332	11,67
632,791	11,64
633,249	11,5
633,708	11,6
634,166	11,51
634,624	11,53
635,082	11,38
635,54	11,35
635,998	11,4
636,455	11,33
636,913	11,18
637,37	11,2
637,828	11,05
638,285	11,18
638,742	11,03
639,199	10,87
639,656	10,91
640,113	10,81
640,57	10,68
641,027	10,7
641,483	10,73
641,94	10,91
642,396	10,47
642,852	10,6
643,309	10,44
643,765	10,4
644,221	10,47
644,676	10,35
645,132	10,33
645,588	10,06
646,043	10,15
646,499	9,82
646,954	9,91
647,409	9,87
647,864	9,72
648,319	9,78
648,774	9,74
649,229	9,68
649,684	9,57
650,139	9,62
650,593	9,43
651,047	9,47
651,502	9,39
651,956	9,45
652,41	9,33
652,864	9,32
653,318	9,35
653,772	9,31
654,225	9,2
654,679	9,34
655,133	9,19
655,586	9,22
656,039	9,18
656,492	9,1
656,946	9,02
657,399	8,87
657,851	8,95
658,304	8,96
658,757	8,79
659,209	8,88
659,662	8,68
660,114	8,86
660,567	8,51
661,019	8,57
661,471	8,46
661,923	8,37
662,375	8,3
662,826	8,26
663,278	8,36
663,73	8,33
664,181	8,18
664,632	8,26
665,084	8,01
665,535	8,07
665,986	7,9
666,437	7,97
666,888	7,95
667,338	7,9
667,789	7,76
668,24	7,86
668,69	7,89
669,14	7,85
669,591	7,82
670,041	7,75
670,491	7,8
670,941	7,8
671,391	7,8
671,84	7,77
672,29	7,81
672,74	7,77
673,189	7,7
673,638	7,84
674,088	7,83
674,537	7,89
674,986	7,87
675,435	7,91
675,883	8,16
676,332	8,05
676,781	7,93
677,229	8,11
677,678	8,18
678,126	8,17
678,574	8,27
679,022	8,1
679,47	8,31
679,918	8,4
680,366	8,45
680,814	8,54
681,261	8,45
681,709	8,7
682,156	8,64
682,604	8,96
683,051	8,84
683,498	8,87
683,945	9,16
684,392	9,05
684,839	9,12
685,286	9,34
685,732	9,51
686,179	9,49
686,625	9,63
687,071	9,76
687,518	9,88
687,964	10
688,41	10,16
688,856	10,2
689,301	10,49
689,747	10,64
690,193	11,03
690,638	11,07
691,084	11,27
691,529	11,35
691,974	11,66
692,419	11,96
692,864	12,09
693,309	12,38
693,754	12,5
694,199	12,9
694,643	13,06
695,088	13,33
695,532	13,57
695,977	13,75
696,421	14,01
696,865	13,99
697,309	14,66
697,753	14,58
698,197	14,81
698,64	15,01
699,084	15,45
699,527	15,66
699,971	15,84
700,414	16,14
700,857	16,44
701,3	16,41
701,743	16,69
702,186	16,89
702,629	17,11
703,072	17,14
703,515	17,27
703,957	17,56
704,399	17,46
704,842	17,88
705,284	18
705,726	18,07
706,168	18,28
706,61	18,67
707,052	18,56
707,494	18,75
707,935	18,82
708,377	18,9
708,818	19,36
709,26	19,35
709,701	19,39
710,142	19,56
710,583	19,7
711,024	19,73
711,465	19,97
711,905	20,07
712,346	20,21
712,787	20,27
713,227	20,37
713,667	20,67
714,108	20,58
714,548	20,66
714,988	20,79
715,428	20,86
715,868	21,18
716,307	21
716,747	21,33
717,186	21,33
717,626	21,53
718,065	21,43
718,504	21,58
718,944	21,93
719,383	21,7
719,822	21,75
720,261	21,86
720,699	22,22
721,138	22,04
721,576	22,21
722,015	22,3
722,453	22,41
722,892	22,51
723,33	22,28
723,768	22,56
724,206	22,51
724,644	22,58
725,081	22,71
725,519	22,77
725,957	22,64
726,394	22,67
726,832	22,89
727,269	22,97
727,706	23,11
728,143	23,08
728,58	23,07
729,017	23,28
729,454	22,91
729,89	23,23
730,327	23,16
730,764	23,14
731,2	23,46
731,636	23,24
732,072	23,35
732,509	23,24
732,945	23,4
733,38	23,39
733,816	23,29
734,252	23,3
734,688	23,47
735,123	23,44
735,559	23,5
735,994	23,62
736,429	23,65
736,864	23,54
737,299	23,45
737,734	23,67
738,169	23,48
738,604	23,55
739,038	23,33
739,473	23,68
739,907	23,55
740,342	23,47
740,776	23,6
741,21	23,61
741,644	23,63
742,078	23,42
742,512	23,65
742,946	23,46
743,379	23,57
743,813	23,49
744,246	23,56
744,68	23,56
745,113	23,39
745,546	23,38
745,979	23,46
746,412	23,55
746,845	23,32
747,278	23,5
747,711	23,27
748,143	23,44
748,576	23,29
749,008	23,31
749,441	23,49
749,873	23,27
750,305	23,35
750,737	23,29
751,169	23,3
751,601	23,18
752,032	23,11
752,464	23,2
752,896	23,09
753,327	23,04
753,758	23,11
754,19	23,4
754,621	23,16
755,052	22,97
755,483	22,95
755,914	22,82
756,344	23,05
756,775	23,13
757,206	23,15
757,636	22,99
758,066	23,21
758,497	22,91
758,927	23
759,357	22,79
759,787	22,99
760,217	22,91
760,647	22,69
761,076	23,02
761,506	22,77
761,935	23,05
762,365	23,04
762,794	22,81
763,223	22,73
763,653	22,73
764,082	22,74
764,51	22,77
764,939	22,66
765,368	22,65
765,797	22,88
766,225	22,81
766,654	22,71
767,082	22,64
767,51	22,79
767,938	22,79
768,367	22,69
768,795	22,76
769,222	22,74
769,65	22,62
770,078	22,41
770,505	22,66
770,933	22,65
771,36	22,5
771,788	22,37
772,215	22,38
772,642	22,64
773,069	22,59
773,496	22,44
773,923	22,46
774,349	22,6
774,776	22,59
775,203	22,55
775,629	22,49
776,055	22,52
776,482	22,32
776,908	22,29
777,334	22,43
777,76	22,5
778,186	22,53
778,611	22,45
779,037	22,55
779,463	22,45
779,888	22,2
780,314	22,33
780,739	22,47
781,164	22,41
781,589	22,27
782,014	22,42
782,439	22,33
782,864	22,23
783,289	22,36
783,713	22,47
784,138	22,4
784,562	22,46
784,987	22,33
785,411	22,24
785,835	22,39
786,259	22,28
786,683	22,28
787,107	22,15
787,531	22,18
787,954	22,25
788,378	22,16
788,802	22,24
789,225	22,36
789,648	22,33
790,071	22,16
790,495	22,22
790,918	22,13
791,34	22,33
791,763	22,31
792,186	22,43
792,609	22,13
793,031	22,28
793,454	22,1
793,876	22,03
794,298	22,11
794,721	22,1
795,143	22,1
795,565	22,19
795,986	22,07
796,408	22,02
796,83	22,14
797,252	22,26
797,673	21,95
798,094	22,23
798,516	22,12
798,937	22,14
799,358	22,01
799,779	21,95
800,2	22,16
800,621	21,95
801,042	22,22
801,462	22,06
801,883	21,94
802,303	22,04
802,724	22,09
803,144	22,06
803,564	22,14
803,984	22,08
804,404	21,96
804,824	21,88
805,244	22,04
805,664	21,96
806,084	22,01
806,503	22,02
806,923	22,04
807,342	21,89
807,761	22,22
808,18	21,94
808,599	21,97
809,018	21,96
809,437	22,1
809,856	22,09
810,275	21,91
810,693	21,97
811,112	21,93
811,53	22,14
811,949	22,13
812,367	21,94
812,785	22,01
813,203	22
813,621	21,84
814,039	21,89
814,457	21,88
814,874	21,89
815,292	22,01
815,709	21,86
816,127	22,06
816,544	21,96
816,961	21,88
817,378	21,84
817,795	22,02
818,212	21,68
818,629	22,17
819,046	21,92
819,462	21,87
819,879	21,94
820,295	21,72
820,712	22,18
821,128	21,96
821,544	21,89
821,96	22,02
822,376	22,16
822,792	22,06
823,208	21,84
823,624	22,02
824,039	22,09
824,455	21,93
824,87	21,89
825,286	22,08
825,701	21,91
826,116	21,8
826,531	21,78
826,946	21,8
827,361	21,97
827,776	22,01
828,19	21,97
828,605	22,13
829,02	21,94
829,434	21,74
829,848	21,85
830,263	21,96
830,677	22,05
831,091	21,86
831,505	21,9
831,919	21,93
832,332	21,93
832,746	21,79
833,16	21,84
833,573	21,94
833,987	22,07
834,4	22,11
834,813	21,89
835,226	21,8
835,639	21,73
836,052	21,88
836,465	21,84
836,878	21,73
837,29	21,95
837,703	21,8
838,116	21,88
838,528	21,9
838,94	21,99
839,352	21,79
839,765	21,65
840,177	21,6
840,589	21,75
841	21,62
841,412	21,85
841,824	21,61
842,235	21,91
842,647	21,86
