Data from E_4_0_Relative__1__00112.txt Node

Date: Mon Jan 29 13:01:12 CET 2024
User: diatiterra
Spectrometer: HDX00911
Trigger mode: 0
Integration Time (sec): 6,000000E-3
Scans to average: 2
Nonlinearity correction enabled: false
Boxcar width: 0
Storing dark spectrum: false
XAxis mode: Wavelengths
Number of Pixels in Spectrum: 2068
>>>>>Begin Spectral Data<<<<<
194,468	25,61
195,025	15,08
195,581	33,14
196,138	20,47
196,694	17,38
197,251	29,71
197,807	27,08
198,363	24,41
198,919	28,91
199,474	27,11
200,03	27,15
200,586	24,12
201,141	23,93
201,696	21,08
202,251	22,81
202,806	20,53
203,361	27,43
203,916	27,93
204,471	22
205,025	30,32
205,58	29,75
206,134	24,02
206,688	34,06
207,242	18,05
207,796	27,76
208,35	26,42
208,904	33,47
209,457	23,01
210,011	28,12
210,564	27,65
211,117	28,05
211,67	28,77
212,223	30,41
212,776	26,41
213,329	26,67
213,881	16,84
214,434	25,24
214,986	23,58
215,538	24,12
216,09	27,54
216,642	19,27
217,194	25
217,746	25,21
218,297	27,47
218,849	27,04
219,4	25,89
219,951	22,67
220,502	26,55
221,053	27,1
221,604	26,88
222,155	24,37
222,705	21,5
223,256	29,28
223,806	22,01
224,356	29,27
224,906	27,25
225,456	22,11
226,006	25,68
226,556	23,38
227,106	24,55
227,655	30,06
228,204	18,81
228,754	18,69
229,303	26,15
229,852	25,49
230,401	18,92
230,949	33,63
231,498	30,44
232,047	29,34
232,595	21,55
233,143	25,55
233,691	22,13
234,239	26,79
234,787	29,77
235,335	20,43
235,883	23,89
236,43	19,42
236,978	22,92
237,525	15,4
238,072	30,94
238,619	29,44
239,166	30,24
239,713	27,95
240,26	25,1
240,806	22,29
241,353	17,7
241,899	22,03
242,445	19,18
242,991	23,64
243,537	20,84
244,083	28,63
244,629	25,21
245,174	21,83
245,72	21,33
246,265	24,01
246,81	25,06
247,355	26,82
247,9	27,57
248,445	17,27
248,99	28,34
249,534	19,5
250,079	19,56
250,623	27,05
251,168	22,15
251,712	27,96
252,256	27,74
252,8	20,04
253,343	13,51
253,887	23,4
254,43	20,39
254,974	28
255,517	20,04
256,06	26,71
256,603	16,82
257,146	20,42
257,689	21,43
258,232	21,32
258,774	22,52
259,317	20,77
259,859	22,78
260,401	21,65
260,943	18,89
261,485	23,56
262,027	22,32
262,569	18,5
263,11	25
263,652	16
264,193	26,9
264,734	17,89
265,275	27,93
265,816	27,91
266,357	24,04
266,898	17,58
267,438	22,94
267,979	19,03
268,519	33,92
269,059	24,3
269,6	18,74
270,14	23,42
270,68	31,36
271,219	24,05
271,759	28,54
272,298	17,37
272,838	14,22
273,377	22,84
273,916	18,12
274,455	21,16
274,994	21,59
275,533	27,71
276,072	22,96
276,61	16,74
277,149	12,14
277,687	19,22
278,225	12,44
278,763	19,46
279,301	21,56
279,839	19,57
280,377	15,88
280,914	20,42
281,452	24,54
281,989	27,25
282,526	19,53
283,064	24,8
283,601	18,56
284,137	25,24
284,674	14,81
285,211	21,35
285,747	20,05
286,284	21,23
286,82	26,65
287,356	23,62
287,892	19,05
288,428	20,17
288,964	31,06
289,5	14,38
290,035	21,63
290,571	29,51
291,106	24,5
291,641	21,82
292,176	23,96
292,711	23,46
293,246	26,61
293,781	18,96
294,315	17,21
294,85	18,81
295,384	22,47
295,918	22,67
296,453	28,77
296,987	23,46
297,52	19,52
298,054	19,91
298,588	18,91
299,121	17,74
299,655	12,44
300,188	20,05
300,721	28,6
301,254	24,89
301,787	26,88
302,32	23,04
302,853	18,28
303,385	26,43
303,918	20,94
304,45	22,81
304,982	18
305,514	20,6
306,046	24,51
306,578	28,38
307,11	22,14
307,641	13,84
308,173	20,91
308,704	24,55
309,236	19,95
309,767	16,24
310,298	18,18
310,829	30,05
311,359	23,6
311,89	18,74
312,421	21,3
312,951	21,86
313,481	18,43
314,012	20,58
314,542	27,29
315,072	15,83
315,601	18,47
316,131	15,1
316,661	20,53
317,19	23,3
317,72	18,57
318,249	20,32
318,778	17,65
319,307	22,12
319,836	24,71
320,365	24,88
320,893	19,12
321,422	21,43
321,95	22,44
322,479	20,32
323,007	18,36
323,535	22,09
324,063	18,44
324,591	22,22
325,118	22,86
325,646	19,34
326,173	22,15
326,701	26,9
327,228	21,82
327,755	17,94
328,282	12,3
328,809	19,65
329,336	21,02
329,862	23,41
330,389	25,06
330,915	23,18
331,441	17,25
331,968	21,93
332,494	21
333,02	21,29
333,545	25,96
334,071	22,54
334,597	25
335,122	20,04
335,648	20,88
336,173	18
336,698	16,97
337,223	16,05
337,748	26,05
338,272	25,73
338,797	21,69
339,322	16,06
339,846	24,04
340,37	22,28
340,894	15,37
341,419	16,6
341,942	17,44
342,466	19,21
342,99	30,71
343,514	30,61
344,037	16,8
344,56	18,42
345,084	21,97
345,607	19,86
346,13	19,47
346,653	24,05
347,175	23,56
347,698	22,2
348,221	24,39
348,743	24,54
349,265	26,26
349,787	16,37
350,309	22,74
350,831	23,97
351,353	24,27
351,875	25,5
352,397	24,67
352,918	20,14
353,439	20,1
353,961	21,01
354,482	16,84
355,003	15,71
355,524	18,45
356,044	15,61
356,565	20,97
357,086	18,14
357,606	16,8
358,126	25,67
358,646	22,66
359,167	19,05
359,687	20,75
360,206	23,93
360,726	20,58
361,246	20,15
361,765	20,23
362,285	18,11
362,804	21,38
363,323	19,52
363,842	24,57
364,361	20,59
364,88	21,97
365,398	18,29
365,917	20,08
366,435	15,04
366,954	16,96
367,472	19,9
367,99	20,62
368,508	14,17
369,026	17,87
369,544	18,29
370,061	19,37
370,579	15,86
371,096	13,41
371,613	20,93
372,131	21,48
372,648	15,39
373,165	17,59
373,681	15,3
374,198	16,04
374,715	16,05
375,231	20,42
375,747	14,52
376,264	14,96
376,78	18,91
377,296	15,36
377,812	17,02
378,327	18,91
378,843	19,93
379,359	15,37
379,874	15,86
380,389	15,58
380,905	20,07
381,42	15,14
381,935	16,24
382,449	16,72
382,964	13,82
383,479	15,7
383,993	15,27
384,508	17,92
385,022	12,05
385,536	14,68
386,05	15,62
386,564	14,1
387,078	14,45
387,592	15,19
388,105	12,75
388,619	15,29
389,132	15,27
389,645	14,97
390,158	16,5
390,671	14,64
391,184	14,42
391,697	13,2
392,21	12,12
392,722	14,48
393,235	10,91
393,747	10,95
394,259	14,51
394,771	13,21
395,283	12,95
395,795	14
396,307	12,45
396,818	13,89
397,33	12,84
397,841	13,66
398,353	11,87
398,864	14,51
399,375	11,87
399,886	12,64
400,397	11,87
400,907	11,44
401,418	12,92
401,928	11,2
402,439	11,45
402,949	11,85
403,459	9,11
403,969	10,29
404,479	10,1
404,989	10,51
405,498	11,1
406,008	10
406,517	9,77
407,027	8
407,536	10,18
408,045	8,37
408,554	7,73
409,063	7,95
409,572	8,22
410,08	8,5
410,589	7,33
411,097	7,03
411,606	7,66
412,114	7,08
412,622	6,2
413,13	7,15
413,638	6,78
414,145	6,74
414,653	6,33
415,16	6,65
415,668	6,71
416,175	6,05
416,682	5,38
417,189	5,67
417,696	6,41
418,203	5,34
418,71	5,71
419,216	5,73
419,723	5,43
420,229	5,6
420,735	5,27
421,242	5,08
421,748	5,08
422,254	5,64
422,759	5
423,265	5,22
423,771	5,07
424,276	5,31
424,781	5,04
425,287	5,3
425,792	4,78
426,297	4,79
426,802	4,88
427,306	4,62
427,811	4,69
428,316	4,77
428,82	5,14
429,324	4,85
429,829	4,87
430,333	5,26
430,837	4,76
431,34	4,79
431,844	4,87
432,348	4,7
432,851	4,53
433,355	4,87
433,858	4,77
434,361	4,92
434,864	4,7
435,367	4,76
435,87	4,22
436,373	4,47
436,876	4,87
437,378	4,51
437,88	4,37
438,383	4,84
438,885	4,47
439,387	4,63
439,889	5,05
440,391	4,53
440,892	4,55
441,394	4,21
441,896	4,3
442,397	4,66
442,898	4,67
443,399	4,56
443,9	4,51
444,401	4,59
444,902	4,8
445,403	4,5
445,903	4,45
446,404	4,41
446,904	4,62
447,405	4,75
447,905	4,35
448,405	4,86
448,905	4,78
449,404	4,16
449,904	4,3
450,404	4,47
450,903	4,46
451,403	4,68
451,902	4,79
452,401	4,85
452,9	4,46
453,399	4,55
453,898	4,82
454,396	4,45
454,895	4,65
455,393	4,88
455,892	4,54
456,39	4,8
456,888	4,73
457,386	4,53
457,884	4,55
458,382	4,66
458,879	4,53
459,377	4,55
459,874	4,6
460,372	4,91
460,869	4,62
461,366	4,9
461,863	4,54
462,36	4,54
462,857	4,97
463,353	4,97
463,85	5,04
464,346	4,38
464,843	4,49
465,339	4,88
465,835	4,85
466,331	4,78
466,827	4,58
467,323	4,89
467,818	5,12
468,314	4,48
468,809	4,73
469,305	4,53
469,8	4,87
470,295	4,65
470,79	4,76
471,285	4,54
471,78	4,69
472,274	4,59
472,769	4,49
473,263	4,71
473,758	4,63
474,252	4,82
474,746	4,9
475,24	4,66
475,734	4,92
476,228	4,63
476,721	4,41
477,215	4,78
477,708	4,81
478,202	4,6
478,695	4,8
479,188	4,54
479,681	4,69
480,174	4,96
480,667	4,5
481,159	4,52
481,652	4,8
482,144	4,51
482,637	4,84
483,129	4,5
483,621	4,8
484,113	4,86
484,605	5,13
485,097	4,69
485,588	4,81
486,08	4,77
486,571	4,88
487,063	4,78
487,554	4,89
488,045	4,7
488,536	4,78
489,027	5,01
489,518	4,73
490,008	4,77
490,499	4,77
490,989	4,92
491,48	5,08
491,97	4,86
492,46	5,07
492,95	5,09
493,44	4,92
493,93	5,09
494,419	4,91
494,909	5,23
495,398	5,15
495,888	5,12
496,377	5,13
496,866	5,22
497,355	5,17
497,844	5,31
498,333	5,34
498,821	5,21
499,31	5,28
499,798	5,3
500,287	5,5
500,775	5,58
501,263	5,54
501,751	5,46
502,239	5,61
502,727	5,86
503,215	5,82
503,702	5,98
504,19	6,18
504,677	5,91
505,164	6,08
505,651	6,37
506,139	6,14
506,625	6,34
507,112	6,58
507,599	6,51
508,086	6,6
508,572	6,87
509,058	6,66
509,545	6,99
510,031	7,06
510,517	7
511,003	7,53
511,489	7,52
511,974	7,51
512,46	7,88
512,946	7,68
513,431	8,09
513,916	8,08
514,401	8,3
514,887	7,99
515,371	8,77
515,856	8,76
516,341	8,8
516,826	8,87
517,31	9,26
517,795	9,7
518,279	9,46
518,763	9,69
519,247	10,02
519,731	10,11
520,215	10,2
520,699	10,87
521,182	10,86
521,666	10,8
522,149	10,92
522,633	11,33
523,116	11,35
523,599	11,62
524,082	11,92
524,565	12
525,048	12,14
525,53	12,26
526,013	12,42
526,495	12,49
526,978	12,78
527,46	12,91
527,942	12,78
528,424	13,02
528,906	13,59
529,388	13,32
529,87	13,23
530,351	13,8
530,833	13,79
531,314	13,8
531,795	13,77
532,277	13,91
532,758	14,23
533,238	14,38
533,719	14,24
534,2	14,29
534,681	14,28
535,161	14,7
535,642	14,49
536,122	14,7
536,602	14,43
537,082	14,84
537,562	14,84
538,042	14,91
538,522	15,02
539,001	15,06
539,481	15,02
539,96	15,14
540,44	15,03
540,919	15,15
541,398	15,1
541,877	15,16
542,356	15,26
542,835	15,11
543,313	15,1
543,792	15,3
544,27	15,35
544,749	14,94
545,227	15,01
545,705	15,63
546,183	15,13
546,661	15,19
547,139	15,5
547,616	15,33
548,094	15,12
548,571	15,53
549,049	15,51
549,526	15,74
550,003	15,46
550,48	15,43
550,957	15,65
551,434	15,7
551,911	15,45
552,387	15,59
552,864	15,46
553,34	15,68
553,817	15,3
554,293	15,59
554,769	15,55
555,245	15,82
555,721	15,65
556,197	15,63
556,672	15,32
557,148	15,56
557,623	15,51
558,099	15,18
558,574	15,53
559,049	15,38
559,524	15,45
559,999	15,1
560,474	15,46
560,948	15,11
561,423	15,23
561,897	15,03
562,372	15,27
562,846	14,68
563,32	15,21
563,794	14,99
564,268	14,82
564,742	14,94
565,216	14,83
565,69	14,76
566,163	14,51
566,636	14,62
567,11	14,49
567,583	14,26
568,056	14,48
568,529	13,94
569,002	14,22
569,475	14,31
569,947	13,96
570,42	13,71
570,892	13,66
571,365	13,34
571,837	13,37
572,309	13,45
572,781	13,45
573,253	13,04
573,725	13,09
574,197	13,1
574,668	12,88
575,14	12,7
575,611	12,67
576,082	12,59
576,554	12,54
577,025	12,61
577,496	12,18
577,967	12,19
578,437	12,06
578,908	11,91
579,379	12,25
579,849	11,69
580,319	11,72
580,79	11,63
581,26	11,82
581,73	11,78
582,2	11,44
582,669	11,27
583,139	11,52
583,609	11,47
584,078	11,46
584,548	11,31
585,017	11,25
585,486	11,11
585,955	11,31
586,424	11,1
586,893	11
587,362	10,9
587,83	11,01
588,299	10,81
588,767	10,89
589,236	10,8
589,704	10,91
590,172	10,69
590,64	10,64
591,108	10,55
591,576	10,62
592,043	10,48
592,511	10,53
592,978	10,52
593,446	10,19
593,913	10,59
594,38	10,22
594,847	10,17
595,314	10,26
595,781	10,43
596,248	10,33
596,715	10,27
597,181	10,34
597,647	10,14
598,114	10,09
598,58	10,13
599,046	10,26
599,512	10,28
599,978	9,94
600,444	10,19
600,91	9,94
601,375	10
601,841	10,11
602,306	10,07
602,771	9,98
603,236	9,96
603,702	9,78
604,167	9,89
604,631	9,83
605,096	9,8
605,561	9,78
606,025	9,74
606,49	9,58
606,954	9,58
607,418	9,59
607,882	9,69
608,347	9,55
608,81	9,51
609,274	9,3
609,738	9,41
610,202	9,16
610,665	9,2
611,128	9,36
611,592	9,09
612,055	9,02
612,518	8,8
612,981	8,88
613,444	9
613,907	8,86
614,369	8,7
614,832	8,63
615,294	8,61
615,757	8,55
616,219	8,56
616,681	8,52
617,143	8,49
617,605	8,49
618,067	8,27
618,529	8,3
618,99	8,51
619,452	8,28
619,913	8,12
620,375	8,13
620,836	8,15
621,297	8,04
621,758	8,08
622,219	8,08
622,68	7,95
623,14	8,01
623,601	7,98
624,061	7,93
624,522	7,91
624,982	7,98
625,442	7,86
625,902	7,73
626,362	7,8
626,822	7,93
627,282	7,78
627,742	7,84
628,201	7,74
628,661	7,91
629,12	7,73
629,579	7,72
630,038	7,57
630,497	7,81
630,956	7,76
631,415	7,73
631,874	7,66
632,332	7,67
632,791	7,74
633,249	7,7
633,708	7,54
634,166	7,55
634,624	7,46
635,082	7,53
635,54	7,44
635,998	7,48
636,455	7,48
636,913	7,37
637,37	7,35
637,828	7,39
638,285	7,07
638,742	7,14
639,199	7,23
639,656	7,18
640,113	7,07
640,57	6,97
641,027	6,94
641,483	6,8
641,94	6,81
642,396	6,71
642,852	6,76
643,309	6,58
643,765	6,53
644,221	6,41
644,676	6,36
645,132	6,43
645,588	6,43
646,043	6,17
646,499	6,17
646,954	6,15
647,409	6,04
647,864	5,97
648,319	5,91
648,774	5,92
649,229	5,92
649,684	5,83
650,139	5,8
650,593	5,76
651,047	5,71
651,502	5,7
651,956	5,59
652,41	5,63
652,864	5,64
653,318	5,69
653,772	5,53
654,225	5,57
654,679	5,56
655,133	5,58
655,586	5,42
656,039	5,52
656,492	5,41
656,946	5,48
657,399	5,34
657,851	5,45
658,304	5,27
658,757	5,27
659,209	5,15
659,662	5,01
660,114	5,2
660,567	5,01
661,019	5,04
661,471	4,98
661,923	4,86
662,375	4,97
662,826	4,86
663,278	4,92
663,73	4,87
664,181	4,86
664,632	4,9
665,084	4,82
665,535	4,78
665,986	4,89
666,437	4,72
666,888	4,78
667,338	4,73
667,789	4,71
668,24	4,71
668,69	4,77
669,14	4,74
669,591	4,72
670,041	4,86
670,491	4,79
670,941	4,77
671,391	4,95
671,84	4,93
672,29	4,95
672,74	4,91
673,189	4,99
673,638	5,1
674,088	5,09
674,537	5,06
674,986	5,2
675,435	5,27
675,883	5,33
676,332	5,26
676,781	5,36
677,229	5,43
677,678	5,57
678,126	5,56
678,574	5,64
679,022	5,55
679,47	5,8
679,918	5,91
680,366	5,8
680,814	5,91
681,261	5,97
681,709	6,01
682,156	6,09
682,604	6,26
683,051	6,27
683,498	6,31
683,945	6,38
684,392	6,44
684,839	6,54
685,286	6,46
685,732	6,74
686,179	6,67
686,625	6,79
687,071	6,82
687,518	6,93
687,964	6,87
688,41	7,11
688,856	7,18
689,301	7,33
689,747	7,49
690,193	7,5
690,638	7,72
691,084	7,84
691,529	7,99
691,974	8,33
692,419	8,48
692,864	8,72
693,309	9,09
693,754	9,25
694,199	9,56
694,643	9,86
695,088	10,11
695,532	10,49
695,977	10,65
696,421	11,04
696,865	11,26
697,309	11,68
697,753	11,93
698,197	12,13
698,64	12,41
699,084	12,9
699,527	13,14
699,971	13,54
700,414	13,92
700,857	13,92
701,3	14,21
701,743	14,57
702,186	14,87
702,629	15,09
703,072	15,43
703,515	15,72
703,957	16,16
704,399	16,11
704,842	16,61
705,284	16,69
705,726	17,08
706,168	17,28
706,61	17,55
707,052	17,72
707,494	17,84
707,935	18,09
708,377	18,41
708,818	18,55
709,26	18,83
709,701	18,79
710,142	19,14
710,583	19,43
711,024	19,56
711,465	19,73
711,905	19,91
712,346	20,16
712,787	20,44
713,227	20,59
713,667	20,66
714,108	20,69
714,548	21,04
714,988	21,21
715,428	21,42
715,868	21,57
716,307	21,71
716,747	22,09
717,186	22,2
717,626	22,06
718,065	22,19
718,504	22,46
718,944	22,76
719,383	22,65
719,822	23,02
720,261	23,02
720,699	23,1
721,138	23,4
721,576	23,17
722,015	23,51
722,453	23,64
722,892	23,56
723,33	23,73
723,768	23,86
724,206	24,11
724,644	24,21
725,081	24,19
725,519	24,25
725,957	24,44
726,394	24,51
726,832	24,71
727,269	24,65
727,706	24,83
728,143	24,8
728,58	24,85
729,017	25,03
729,454	25,19
729,89	24,98
730,327	25,08
730,764	25,22
731,2	25,25
731,636	25,04
732,072	25,53
732,509	25,28
732,945	25,47
733,38	25,36
733,816	25,72
734,252	25,44
734,688	25,57
735,123	25,66
735,559	25,61
735,994	25,78
736,429	25,75
736,864	25,71
737,299	25,68
737,734	25,7
738,169	25,92
738,604	25,65
739,038	25,71
739,473	25,7
739,907	25,99
740,342	25,88
740,776	25,91
741,21	25,76
741,644	25,81
742,078	25,63
742,512	25,72
742,946	25,8
743,379	25,62
743,813	25,78
744,246	25,72
744,68	25,79
745,113	25,81
745,546	25,88
745,979	25,76
746,412	25,85
746,845	25,73
747,278	26,01
747,711	25,64
748,143	25,77
748,576	25,74
749,008	25,61
749,441	25,79
749,873	25,66
750,305	25,5
750,737	25,55
751,169	25,51
751,601	25,6
752,032	25,57
752,464	25,67
752,896	25,58
753,327	25,56
753,758	25,44
754,19	25,46
754,621	25,47
755,052	25,51
755,483	25,42
755,914	25,5
756,344	25,3
756,775	25,58
757,206	25,44
757,636	25,34
758,066	25,53
758,497	25,13
758,927	24,98
759,357	25,16
759,787	25,16
760,217	25,07
760,647	25,18
761,076	25,26
761,506	25,01
761,935	25,26
762,365	25,12
762,794	25,16
763,223	25,11
763,653	25,17
764,082	24,98
764,51	24,97
764,939	24,87
765,368	24,86
765,797	25,09
766,225	24,95
766,654	24,98
767,082	25,08
767,51	24,95
767,938	24,85
768,367	24,8
768,795	24,9
769,222	24,64
769,65	24,95
770,078	24,92
770,505	24,75
770,933	24,74
771,36	24,75
771,788	24,94
772,215	24,62
772,642	24,87
773,069	24,67
773,496	24,58
773,923	24,56
774,349	24,72
774,776	24,79
775,203	24,71
775,629	24,83
776,055	24,69
776,482	24,58
776,908	24,78
777,334	24,62
777,76	24,68
778,186	24,58
778,611	24,58
779,037	24,45
779,463	24,56
779,888	24,57
780,314	24,63
780,739	24,51
781,164	24,44
781,589	24,56
782,014	24,38
782,439	24,51
782,864	24,64
783,289	24,43
783,713	24,42
784,138	24,54
784,562	24,65
784,987	24,54
785,411	24,13
785,835	24,45
786,259	24,42
786,683	24,49
787,107	24,46
787,531	24,58
787,954	24,5
788,378	24,3
788,802	24,31
789,225	24,64
789,648	24,57
790,071	24,08
790,495	24,49
790,918	24,24
791,34	24,37
791,763	24,22
792,186	24,21
792,609	24,18
793,031	24,24
793,454	24,46
793,876	24,2
794,298	24,08
794,721	24,27
795,143	24,14
795,565	24,23
795,986	24,24
796,408	24,22
796,83	24,19
797,252	24,28
797,673	24,24
798,094	24,37
798,516	24,16
798,937	24,16
799,358	24,28
799,779	24,28
800,2	24,16
800,621	24,05
801,042	24,17
801,462	24,11
801,883	24,19
802,303	24,13
802,724	24,28
803,144	24,36
803,564	24,27
803,984	24,25
804,404	24,25
804,824	24,09
805,244	24,11
805,664	24,01
806,084	24,15
806,503	24,24
806,923	23,92
807,342	24,23
807,761	23,95
808,18	24,1
808,599	24,3
809,018	24,17
809,437	24,2
809,856	24
810,275	24,21
810,693	24,09
811,112	24,13
811,53	24,2
811,949	24,08
812,367	24,08
812,785	24,1
813,203	24,32
813,621	24,16
814,039	23,96
814,457	24,1
814,874	24,16
815,292	24,08
815,709	24,11
816,127	24,36
816,544	24,11
816,961	24,2
817,378	24,21
817,795	24,25
818,212	24,1
818,629	24,23
819,046	23,91
819,462	23,88
819,879	24
820,295	24,09
820,712	24,18
821,128	23,99
821,544	24,13
821,96	24,05
822,376	23,97
822,792	24,04
823,208	24,07
823,624	24,21
824,039	23,99
824,455	24,12
824,87	23,99
825,286	24,13
825,701	24,1
826,116	24,07
826,531	23,98
826,946	24
827,361	24,02
827,776	24,04
828,19	23,9
828,605	23,99
829,02	24,17
829,434	24,08
829,848	24,1
830,263	23,72
830,677	24
831,091	23,87
831,505	24,15
831,919	24,26
832,332	24,03
832,746	23,95
833,16	23,77
833,573	24,06
833,987	23,9
834,4	23,87
834,813	24,04
835,226	23,89
835,639	24,11
836,052	23,91
836,465	23,91
836,878	23,92
837,29	24,16
837,703	23,92
838,116	24,09
838,528	23,92
838,94	23,95
839,352	23,76
839,765	23,71
840,177	23,87
840,589	23,94
841	23,79
841,412	23,91
841,824	23,97
842,235	23,76
842,647	23,99
843,058	24,08
843,47	23,9
843,881	23,96
844,292	23,93
844,703	23,88
845,114	23,88
845,525	23,9
845,935	23,68
846,346	23,95
846,757	23,65
