Data from F_1_0_Relative__0__00130.txt Node

Date: Mon Jan 29 13:03:09 CET 2024
User: diatiterra
Spectrometer: HDX00911
Trigger mode: 0
Integration Time (sec): 6,000000E-3
Scans to average: 2
Nonlinearity correction enabled: false
Boxcar width: 0
Storing dark spectrum: false
XAxis mode: Wavelengths
Number of Pixels in Spectrum: 2068
>>>>>Begin Spectral Data<<<<<
194,468	26,83
195,025	25,13
195,581	15,7
196,138	27,49
196,694	29,57
197,251	38,2
197,807	33,25
198,363	27,43
198,919	28,91
199,474	34,22
200,03	26,71
200,586	31,19
201,141	30,34
201,696	29,68
202,251	25,25
202,806	27,52
203,361	31,22
203,916	36,03
204,471	29,71
205,025	30,32
205,58	31,1
206,134	25,67
206,688	22,34
207,242	37,15
207,796	26,53
208,35	37,81
208,904	36,73
209,457	31,18
210,011	23,89
210,564	39,29
211,117	29,21
211,67	31,99
212,223	36,4
212,776	34,88
213,329	25,45
213,881	29,57
214,434	35,26
214,986	35,83
215,538	33,41
216,09	27,99
216,642	33,4
217,194	28,75
217,746	40,04
218,297	34,33
218,849	38,2
219,4	38
219,951	31,11
220,502	36,4
221,053	31,72
221,604	34,38
222,155	36,32
222,705	24,43
223,256	41,87
223,806	36,27
224,356	32,26
224,906	36,48
225,456	33,47
226,006	32,5
226,556	34,24
227,106	46,43
227,655	41,15
228,204	28,1
228,754	32,24
229,303	30,99
229,852	34,99
230,401	31,53
230,949	35,82
231,498	38,44
232,047	34,48
232,595	31,17
233,143	27,75
233,691	34,02
234,239	24,11
234,787	32,5
235,335	36,77
235,883	30,66
236,43	24,38
236,978	37,27
237,525	31,92
238,072	33,55
238,619	41,59
239,166	32,45
239,713	33,33
240,26	35,48
240,806	38,74
241,353	32,41
241,899	34,8
242,445	34,02
242,991	31,45
243,537	31,62
244,083	31,54
244,629	37,08
245,174	28,38
245,72	37,78
246,265	34,27
246,81	34,09
247,355	38,59
247,9	31,51
248,445	23,67
248,99	30,8
249,534	32,2
250,079	31,11
250,623	32,85
251,168	22,6
251,712	30,11
252,256	33,33
252,8	31,37
253,343	23,93
253,887	33,62
254,43	34,55
254,974	39,29
255,517	28,14
256,06	35,1
256,603	27,73
257,146	28,77
257,689	34,42
258,232	30,39
258,774	24,01
259,317	35,21
259,859	27,79
260,401	36,36
260,943	21,56
261,485	28,89
262,027	23,63
262,569	34,5
263,11	30,13
263,652	33,41
264,193	36,88
264,734	29,82
265,275	34,04
265,816	27,47
266,357	29,48
266,898	32,19
267,438	36,7
267,979	32,3
268,519	35,67
269,059	25,7
269,6	36,34
270,14	27,93
270,68	34,75
271,219	31,22
271,759	36,63
272,298	30,29
272,838	32,11
273,377	34,77
273,916	34,23
274,455	26,95
274,994	28,63
275,533	29,56
276,072	31,97
276,61	28,63
277,149	27,18
277,687	30,66
278,225	19,23
278,763	33,94
279,301	29,56
279,839	33,33
280,377	26,3
280,914	30,63
281,452	28,67
281,989	24,62
282,526	32,83
283,064	28,83
283,601	35,27
284,137	30
284,674	24,51
285,211	38,78
285,747	29,12
286,284	30,37
286,82	36,22
287,356	36,87
287,892	25,4
288,428	25,32
288,964	38,12
289,5	34,16
290,035	35,32
290,571	33,9
291,106	29,46
291,641	28,18
292,176	30,81
292,711	28,29
293,246	18,81
293,781	28,89
294,315	22,19
294,85	23,23
295,384	31,01
295,918	27,56
296,453	24,06
296,987	21,09
297,52	25,22
298,054	32,89
298,588	30,65
299,121	31,04
299,655	34,62
300,188	34,17
300,721	36,05
301,254	27,63
301,787	31,72
302,32	34,56
302,853	26,21
303,385	23,35
303,918	27,62
304,45	28,07
304,982	24,67
305,514	23,84
306,046	21,44
306,578	20,59
307,11	28,21
307,641	25,45
308,173	28,18
308,704	27,23
309,236	22,87
309,767	21,41
310,298	34,15
310,829	30,52
311,359	25,93
311,89	29,57
312,421	24,89
312,951	28,37
313,481	26,73
314,012	25,06
314,542	22,12
315,072	21,86
315,601	28,83
316,131	29,75
316,661	19,57
317,19	30,54
317,72	26,67
318,249	16,7
318,778	26,96
319,307	26,35
319,836	33,03
320,365	32,72
320,893	27,91
321,422	27,88
321,95	30
322,479	27,54
323,007	33,33
323,535	28,14
324,063	35,46
324,591	34,52
325,118	28,57
325,646	30,66
326,173	25,8
326,701	35,48
327,228	28,64
327,755	25,12
328,282	26,74
328,809	25,83
329,336	26,56
329,862	38,86
330,389	39,31
330,915	28,64
331,441	28,44
331,968	33,01
332,494	37
333,02	25,16
333,545	29,18
334,071	31,92
334,597	27,4
335,122	38,31
335,648	21,91
336,173	23,64
336,698	32,11
337,223	26,46
337,748	28,99
338,272	28,24
338,797	29,07
339,322	29,19
339,846	27,87
340,37	27,85
340,894	20,27
341,419	30,04
341,942	25,56
342,466	27,56
342,99	34,44
343,514	26
344,037	26
344,56	17,21
345,084	28,79
345,607	28,16
346,13	21,37
346,653	27,84
347,175	27,05
347,698	29,27
348,221	26,63
348,743	25,28
349,265	29,04
349,787	22,78
350,309	27,18
350,831	23,28
351,353	28,06
351,875	25,17
352,397	26,67
352,918	23,55
353,439	25,7
353,961	24,71
354,482	21,21
355,003	19,64
355,524	22,71
356,044	25,16
356,565	21,28
357,086	22,94
357,606	21,32
358,126	31,6
358,646	28,57
359,167	23,09
359,687	23,58
360,206	17,73
360,726	25,51
361,246	24,85
361,765	21,95
362,285	24,3
362,804	20,57
363,323	26,54
363,842	27,77
364,361	20,05
364,88	27,24
365,398	26,97
365,917	20,86
366,435	25,32
366,954	25,44
367,472	19,9
367,99	21,4
368,508	24,24
369,026	24,24
369,544	23,17
370,061	25,44
370,579	21,29
371,096	24,51
371,613	27,53
372,131	24,66
372,648	24,65
373,165	22,23
373,681	26,16
374,198	26,59
374,715	25,19
375,231	23,35
375,747	21,2
376,264	21,72
376,78	26,12
377,296	18,58
377,812	23,21
378,327	20,76
378,843	23,97
379,359	18,44
379,874	23,31
380,389	25,73
380,905	22,84
381,42	18,97
381,935	22,7
382,449	21,85
382,964	18,32
383,479	24,4
383,993	20,39
384,508	22,57
385,022	21,6
385,536	19,39
386,05	17,67
386,564	19,53
387,078	19,22
387,592	22,4
388,105	19,18
388,619	17,51
389,132	20,86
389,645	16,9
390,158	21,31
390,671	20,8
391,184	16,89
391,697	18,51
392,21	15,1
392,722	16,52
393,235	15,84
393,747	18,08
394,259	16,87
394,771	16,09
395,283	16,35
395,795	15,45
396,307	15,98
396,818	17,12
397,33	16,49
397,841	14,98
398,353	15,65
398,864	14,69
399,375	14,87
399,886	18,02
400,397	14,86
400,907	14,32
401,418	14,19
401,928	13,44
402,439	13,7
402,949	14,37
403,459	12,3
403,969	14,02
404,479	13,64
404,989	12,84
405,498	11,1
406,008	11,56
406,517	11,11
407,027	11,54
407,536	11,38
408,045	10,65
408,554	10,3
409,063	9,95
409,572	9,8
410,08	8,82
410,589	8,39
411,097	8,83
411,606	9,05
412,114	8,52
412,622	8,04
413,13	8,15
413,638	7,86
414,145	7,72
414,653	6,7
415,16	7,23
415,668	7,39
416,175	6,05
416,682	6,2
417,189	6,71
417,696	6,55
418,203	6,84
418,71	5,9
419,216	6,45
419,723	6,37
420,229	5,95
420,735	5,65
421,242	6,31
421,748	6,2
422,254	5,96
422,759	5,3
423,265	5,87
423,771	5,92
424,276	6,04
424,781	6,1
425,287	5,47
425,792	5,8
426,297	5,58
426,802	5,66
427,306	5,63
427,811	5,07
428,316	5,58
428,82	5,1
429,324	5,04
429,829	5,54
430,333	5
430,837	5,13
431,34	5,22
431,844	4,89
432,348	5,02
432,851	5,09
433,355	5,27
433,858	5,37
434,361	5,54
434,864	5,1
435,367	5,18
435,87	5,23
436,373	4,75
436,876	5,52
437,378	5
437,88	4,9
438,383	4,71
438,885	5,03
439,387	4,89
439,889	5,02
440,391	5
440,892	5,35
441,394	4,98
441,896	4,95
442,397	5,23
442,898	5,25
443,399	5,37
443,9	5,1
444,401	5,12
444,902	4,99
445,403	4,87
445,903	5,01
446,404	5,04
446,904	5,26
447,405	4,71
447,905	5,19
448,405	5,55
448,905	5,35
449,404	5
449,904	4,87
450,404	5,19
450,903	4,98
451,403	5,11
451,902	5,38
452,401	5,34
452,9	5,19
453,399	5,11
453,898	5,28
454,396	5,4
454,895	5,37
455,393	5,43
455,892	5,23
456,39	5,23
456,888	5,25
457,386	5,34
457,884	5,31
458,382	5,41
458,879	5,07
459,377	5,31
459,874	5,4
460,372	5,41
460,869	5,33
461,366	5,03
461,863	5,46
462,36	5,3
462,857	5,08
463,353	5,63
463,85	5,18
464,346	5,19
464,843	5,26
465,339	5,32
465,835	5,58
466,331	5,22
466,827	5,34
467,323	5,42
467,818	5,27
468,314	5,23
468,809	5,28
469,305	4,95
469,8	5,38
470,295	5,21
470,79	5,16
471,285	5,46
471,78	5,24
472,274	5,36
472,769	5,56
473,263	5,57
473,758	5,48
474,252	5,33
474,746	5,45
475,24	5,45
475,734	5,17
476,228	5,36
476,721	5,24
477,215	5,54
477,708	5,24
478,202	5,49
478,695	5,81
479,188	5,42
479,681	5,47
480,174	5,57
480,667	5,5
481,159	5,12
481,652	5,51
482,144	5,19
482,637	5,76
483,129	5,24
483,621	5,6
484,113	5,57
484,605	5,46
485,097	5,56
485,588	5,4
486,08	5,56
486,571	5,65
487,063	5,71
487,554	5,73
488,045	5,52
488,536	5,64
489,027	5,73
489,518	5,87
490,008	5,63
490,499	5,98
490,989	5,92
491,48	5,73
491,97	5,79
492,46	6,09
492,95	6,08
493,44	6,04
493,93	5,74
494,419	5,9
494,909	6,02
495,398	6,13
495,888	5,94
496,377	6,46
496,866	6,53
497,355	6,43
497,844	6,22
498,333	6,37
498,821	6,6
499,31	6,75
499,798	6,57
500,287	7,09
500,775	6,64
501,263	7,13
501,751	7,17
502,239	6,93
502,727	7,17
503,215	7,46
503,702	7,71
504,19	7,73
504,677	7,68
505,164	7,74
505,651	7,93
506,139	8,19
506,625	8,19
507,112	8,44
507,599	8,77
508,086	8,94
508,572	8,93
509,058	9,08
509,545	9,32
510,031	9,63
510,517	9,47
511,003	9,87
511,489	10,28
511,974	9,95
512,46	10,05
512,946	10,71
513,431	11,07
513,916	11,14
514,401	11,19
514,887	11,46
515,371	11,77
515,856	12,26
516,341	12,42
516,826	12,69
517,31	12,89
517,795	13,27
518,279	13,15
518,763	13,63
519,247	13,88
519,731	13,94
520,215	14,7
520,699	14,54
521,182	14,84
521,666	14,96
522,149	15,23
522,633	15,81
523,116	15,97
523,599	16,21
524,082	16,6
524,565	16,72
525,048	17,12
525,53	16,85
526,013	17,43
526,495	17,69
526,978	17,62
527,46	18,33
527,942	18,28
528,424	18,59
528,906	18,92
529,388	19,08
529,87	19,16
530,351	19,45
530,833	19,22
531,314	19,47
531,795	19,42
532,277	19,61
532,758	19,91
533,238	19,63
533,719	20,22
534,2	20,63
534,681	20,29
535,161	20,58
535,642	20,31
536,122	20,65
536,602	20,62
537,082	20,71
537,562	21,12
538,042	20,88
538,522	20,94
539,001	21,02
539,481	21,23
539,96	20,95
540,44	21,67
540,919	21,06
541,398	21,39
541,877	21,5
542,356	21,24
542,835	21,23
543,313	21,32
543,792	21,15
544,27	21,19
544,749	21,49
545,227	21,49
545,705	21,42
546,183	21,53
546,661	21,4
547,139	21,67
547,616	21,51
548,094	21,47
548,571	21,81
549,049	21,85
549,526	21,94
550,003	21,72
550,48	21,72
550,957	21,67
551,434	21,98
551,911	21,98
552,387	21,86
552,864	21,81
553,34	21,88
553,817	22,35
554,293	21,91
554,769	21,71
555,245	21,95
555,721	21,93
556,197	21,92
556,672	21,86
557,148	21,94
557,623	22,2
558,099	21,63
558,574	22,09
559,049	21,62
559,524	21,54
559,999	21,66
560,474	21,59
560,948	21,35
561,423	21,52
561,897	21,28
562,372	21,5
562,846	21,21
563,32	21,26
563,794	21,11
564,268	20,97
564,742	21,08
565,216	20,62
565,69	20,76
566,163	20,98
566,636	20,44
567,11	20,01
567,583	19,85
568,056	19,7
568,529	19,91
569,002	20,1
569,475	19,86
569,947	19,75
570,42	19,15
570,892	19,34
571,365	18,91
571,837	19,03
572,309	19,06
572,781	18,53
573,253	18,6
573,725	18,09
574,197	18,3
574,668	18,04
575,14	17,89
575,611	17,84
576,082	17,8
576,554	17,47
577,025	17,69
577,496	17,11
577,967	17,25
578,437	16,9
578,908	17
579,379	16,77
579,849	16,76
580,319	16,96
580,79	16,57
581,26	16,41
581,73	16,19
582,2	16,11
582,669	16,07
583,139	16,03
583,609	15,92
584,078	15,76
584,548	15,69
585,017	15,38
585,486	15,45
585,955	15,31
586,424	15,32
586,893	15,19
587,362	15,14
587,83	15,36
588,299	15,06
588,767	15,05
589,236	14,81
589,704	14,82
590,172	14,77
590,64	14,85
591,108	14,8
591,576	14,64
592,043	14,5
592,511	14,53
592,978	14,51
593,446	14,52
593,913	14,41
594,38	14,41
594,847	14,27
595,314	14,28
595,781	14,31
596,248	14,38
596,715	14,34
597,181	14,24
597,647	14,21
598,114	14,21
598,58	14,18
599,046	14,15
599,512	14,07
599,978	13,98
600,444	14
600,91	13,89
601,375	14,04
601,841	13,9
602,306	13,82
602,771	13,65
603,236	13,6
603,702	13,81
604,167	13,74
604,631	13,59
605,096	13,63
605,561	13,37
606,025	13,22
606,49	13,43
606,954	13,27
607,418	13,13
607,882	13,13
608,347	13,05
608,81	13
609,274	12,9
609,738	12,95
610,202	12,79
610,665	12,65
611,128	12,45
611,592	12,42
612,055	12,45
612,518	12,29
612,981	12,31
613,444	12,19
613,907	12,06
614,369	12
614,832	11,74
615,294	11,83
615,757	11,86
616,219	11,89
616,681	11,59
617,143	11,64
617,605	11,41
618,067	11,48
618,529	11,32
618,99	11,51
619,452	11,32
619,913	11,27
620,375	11,27
620,836	11,14
621,297	11,01
621,758	11,17
622,219	11,15
622,68	10,96
623,14	11,01
623,601	10,98
624,061	11,02
624,522	10,67
624,982	10,76
625,442	10,64
625,902	10,56
626,362	10,62
626,822	10,77
627,282	10,63
627,742	10,77
628,201	10,68
628,661	10,58
629,12	10,53
629,579	10,5
630,038	10,6
630,497	10,59
630,956	10,71
631,415	10,58
631,874	10,57
632,332	10,38
632,791	10,41
633,249	10,28
633,708	10,26
634,166	10,4
634,624	10,36
635,082	10,33
635,54	10,22
635,998	10,07
636,455	10,13
636,913	9,93
637,37	9,8
637,828	9,72
638,285	9,71
638,742	9,56
639,199	9,53
639,656	9,49
640,113	9,17
640,57	9,18
641,027	9,03
641,483	9,05
641,94	9,05
642,396	8,85
642,852	8,76
643,309	8,63
643,765	8,44
644,221	8,33
644,676	8,37
645,132	8,18
645,588	8,2
646,043	7,99
646,499	7,86
646,954	7,89
647,409	7,84
647,864	7,82
648,319	7,61
648,774	7,61
649,229	7,54
649,684	7,51
650,139	7,62
650,593	7,49
651,047	7,25
651,502	7,28
651,956	7,25
652,41	7,29
652,864	7,12
653,318	7,22
653,772	7,11
654,225	7,09
654,679	7,02
655,133	7,01
655,586	6,99
656,039	6,93
656,492	6,88
656,946	6,95
657,399	6,79
657,851	6,74
658,304	6,73
658,757	6,56
659,209	6,62
659,662	6,35
660,114	6,54
660,567	6,32
661,019	6,31
661,471	6,28
661,923	6,23
662,375	6,07
662,826	6,07
663,278	6,07
663,73	6,07
664,181	5,94
664,632	5,96
665,084	5,85
665,535	5,8
665,986	5,86
666,437	5,82
666,888	5,76
667,338	5,73
667,789	5,75
668,24	5,74
668,69	5,8
669,14	5,82
669,591	5,79
670,041	5,75
670,491	5,89
670,941	5,84
671,391	5,89
671,84	5,96
672,29	6
672,74	6,08
673,189	6,13
673,638	6,22
674,088	6,32
674,537	6,35
674,986	6,43
675,435	6,52
675,883	6,56
676,332	6,57
676,781	6,7
677,229	6,74
677,678	6,83
678,126	7,08
678,574	7,04
679,022	7,19
679,47	7,19
679,918	7,39
680,366	7,45
680,814	7,61
681,261	7,8
681,709	7,75
682,156	7,87
682,604	8,03
683,051	8,07
683,498	8,25
683,945	8,35
684,392	8,27
684,839	8,49
685,286	8,63
685,732	8,83
686,179	8,75
686,625	8,92
687,071	9,13
687,518	9,19
687,964	9,24
688,41	9,59
688,856	9,7
689,301	10,12
689,747	10,27
690,193	10,53
690,638	10,69
691,084	11,3
691,529	11,32
691,974	11,69
692,419	12,03
692,864	12,63
693,309	12,85
693,754	13,22
694,199	13,58
694,643	14,14
695,088	14,42
695,532	14,86
695,977	15,6
696,421	15,84
696,865	16,31
697,309	16,63
697,753	17,25
698,197	17,7
698,64	18,21
699,084	18,6
699,527	19,01
699,971	19,48
700,414	19,85
700,857	20,22
701,3	20,59
701,743	20,98
702,186	21,49
702,629	21,94
703,072	22,22
703,515	22,58
703,957	23,11
704,399	23,15
704,842	23,75
705,284	24,03
705,726	24,63
706,168	24,8
706,61	25,07
707,052	25,46
707,494	25,89
707,935	26,14
708,377	26,16
708,818	26,62
709,26	27,02
709,701	27,27
710,142	27,45
710,583	27,78
711,024	28,04
711,465	28,18
711,905	28,77
712,346	28,95
712,787	28,9
713,227	29,36
713,667	29,41
714,108	29,92
714,548	29,94
714,988	30,36
715,428	30,6
715,868	30,75
716,307	30,94
716,747	31,05
717,186	31,25
717,626	31,63
718,065	31,59
718,504	31,79
718,944	32,05
719,383	32,35
719,822	32,53
720,261	32,61
720,699	32,83
721,138	32,95
721,576	33,43
722,015	33,17
722,453	33,41
722,892	33,51
723,33	33,67
723,768	33,74
724,206	34,06
724,644	34,2
725,081	34,45
725,519	34,26
725,957	34,48
726,394	34,43
726,832	34,67
727,269	34,67
727,706	35,13
728,143	35,03
728,58	35,23
729,017	35,21
729,454	35,35
729,89	35,55
730,327	35,22
730,764	35,63
731,2	35,64
731,636	35,64
732,072	35,82
732,509	35,57
732,945	35,74
733,38	35,71
733,816	35,92
734,252	35,86
734,688	35,92
735,123	36,25
735,559	36,01
735,994	36,31
736,429	36,14
736,864	36,12
737,299	36,51
737,734	36,49
738,169	36,21
738,604	36,47
739,038	36,33
739,473	36,45
739,907	36,57
740,342	36,23
740,776	36,3
741,21	36,37
741,644	36,43
742,078	36,11
742,512	36,25
742,946	36,3
743,379	36,18
743,813	36,31
744,246	36,49
744,68	36,45
745,113	36,27
745,546	36,39
745,979	36,14
746,412	36,53
746,845	36,4
747,278	36,12
747,711	36,2
748,143	36,12
748,576	36,19
749,008	36,07
749,441	36,21
749,873	36,03
750,305	36,21
750,737	35,91
751,169	36,06
751,601	36,12
752,032	35,96
752,464	36,06
752,896	35,82
753,327	35,93
753,758	35,71
754,19	35,83
754,621	36,07
755,052	35,61
755,483	35,67
755,914	35,66
756,344	35,66
756,775	35,7
757,206	35,65
757,636	35,76
758,066	35,63
758,497	35,46
758,927	35,46
759,357	35,42
759,787	35,51
760,217	35,4
760,647	35,32
761,076	35,61
761,506	35,48
761,935	35,39
762,365	35,34
762,794	35,3
763,223	34,96
763,653	35,12
764,082	35,18
764,51	35,09
764,939	35,1
765,368	35
765,797	35,03
766,225	34,9
766,654	35,12
767,082	35,2
767,51	34,76
767,938	34,87
768,367	34,93
768,795	35,08
769,222	34,96
769,65	35,31
770,078	34,93
770,505	34,89
770,933	34,89
771,36	34,89
771,788	34,78
772,215	34,76
772,642	34,72
773,069	34,72
773,496	34,77
773,923	34,6
774,349	34,75
774,776	34,61
775,203	34,78
775,629	34,6
776,055	34,57
776,482	34,53
776,908	34,6
777,334	34,49
777,76	34,26
778,186	34,63
778,611	34,23
779,037	34,51
779,463	34,39
779,888	34,67
780,314	34,52
780,739	34,35
781,164	34,32
781,589	34,54
782,014	34,57
782,439	34,4
782,864	34,49
783,289	34,47
783,713	34,36
784,138	34,19
784,562	34,39
784,987	34,42
785,411	34,53
785,835	34,12
786,259	34,18
786,683	34,34
787,107	34,05
787,531	34,19
787,954	34,34
788,378	34,08
788,802	34,02
789,225	34,39
789,648	33,94
790,071	34,24
790,495	34,22
790,918	34,13
791,34	34,47
791,763	34
792,186	34,38
792,609	34,26
793,031	34,2
793,454	34,27
793,876	34,13
794,298	34,05
794,721	34,17
795,143	33,94
795,565	34,36
795,986	34,24
796,408	34,25
796,83	34,22
797,252	34,26
797,673	34,17
798,094	33,98
798,516	33,8
798,937	34,06
799,358	34,03
799,779	33,98
800,2	33,99
800,621	34,1
801,042	34,16
801,462	33,94
801,883	33,83
802,303	33,81
802,724	34,32
803,144	34,12
803,564	33,81
803,984	33,99
804,404	33,91
804,824	33,82
805,244	33,86
805,664	33,92
806,084	33,64
806,503	33,91
806,923	34,02
807,342	34,27
807,761	33,9
808,18	33,94
808,599	33,79
809,018	34,05
809,437	33,89
809,856	34
810,275	33,87
810,693	33,98
811,112	33,94
811,53	33,92
811,949	33,8
812,367	33,88
812,785	33,82
813,203	33,75
813,621	33,99
814,039	33,74
814,457	33,68
814,874	33,99
815,292	33,88
815,709	33,79
816,127	33,9
816,544	33,48
816,961	33,83
817,378	33,65
817,795	33,84
818,212	33,61
818,629	33,87
819,046	33,6
819,462	33,88
819,879	33,87
820,295	33,66
820,712	33,66
821,128	34,12
821,544	33,86
821,96	33,81
822,376	33,67
822,792	33,76
823,208	33,62
823,624	33,79
824,039	33,61
824,455	33,56
824,87	33,71
825,286	33,81
825,701	33,88
826,116	33,82
826,531	33,56
826,946	33,74
827,361	33,79
827,776	33,76
828,19	33,67
828,605	33,65
829,02	33,35
829,434	33,55
829,848	33,49
830,263	33,7
830,677	33,63
831,091	33,73
831,505	33,36
831,919	33,67
832,332	33,71
832,746	33,8
833,16	33,52
833,573	33,81
833,987	33,78
834,4	33,6
834,813	33,51
835,226	33,46
835,639	33,33
836,052	33,44
836,465	33,75
836,878	33,66
837,29	33,71
837,703	33,79
838,116	33,78
838,528	33,71
838,94	33,57
839,352	33,57
839,765	33,56
840,177	33,29
840,589	33,71
841	33,55
841,412	33,51
841,824	33,68
842,235	33,45
842,647	33,49
843,058	33,52
843,47	33,6
