Data from F_1_0_Relative__5__00135.txt Node

Date: Mon Jan 29 13:03:39 CET 2024
User: diatiterra
Spectrometer: HDX00911
Trigger mode: 0
Integration Time (sec): 6,000000E-3
Scans to average: 2
Nonlinearity correction enabled: false
Boxcar width: 0
Storing dark spectrum: false
XAxis mode: Wavelengths
Number of Pixels in Spectrum: 2068
>>>>>Begin Spectral Data<<<<<
194,468	25,61
195,025	25,13
195,581	25
196,138	26,32
196,694	30,18
197,251	31,3
197,807	29,45
198,363	21,81
198,919	31,05
199,474	30,67
200,03	28,92
200,586	19,96
201,141	19,66
201,696	30,54
202,251	30,14
202,806	26,69
203,361	27,85
203,916	20,26
204,471	23,36
205,025	30,32
205,58	26,17
206,134	25,26
206,688	29,28
207,242	23,57
207,796	24,9
208,35	20,05
208,904	22,86
209,457	26,88
210,011	32,35
210,564	23,49
211,117	29,59
211,67	27,57
212,223	27,41
212,776	23,99
213,329	29,49
213,881	25,05
214,434	19,08
214,986	26,3
215,538	28,54
216,09	31,6
216,642	29,12
217,194	33,75
217,746	30,3
218,297	31,33
218,849	30,04
219,4	29,23
219,951	24
220,502	25,7
221,053	24,16
221,604	22,71
222,155	36,78
222,705	26,93
223,256	26,25
223,806	28,72
224,356	29,27
224,906	33,12
225,456	26,74
226,006	33,41
226,556	31,73
227,106	33,04
227,655	38,17
228,204	27,21
228,754	31,01
229,303	28,35
229,852	33,26
230,401	27,03
230,949	34,07
231,498	31,78
232,047	34,05
232,595	30,75
233,143	37
233,691	27,05
234,239	32,14
234,787	28,41
235,335	32,47
235,883	20,51
236,43	25,62
236,978	27,08
237,525	26,56
238,072	28,76
238,619	28,5
239,166	35,1
239,713	26,71
240,26	28,42
240,806	31,82
241,353	19,54
241,899	29,96
242,445	27,01
242,991	32,32
243,537	26,46
244,083	29,46
244,629	33,26
245,174	21,4
245,72	26,67
246,265	21,21
246,81	27,77
247,355	34,82
247,9	31,07
248,445	20,26
248,99	29,16
249,534	27,66
250,079	31,56
250,623	25,6
251,168	21,7
251,712	28,82
252,256	26,02
252,8	27,89
253,343	25,36
253,887	23,83
254,43	28,97
254,974	29,41
255,517	30,7
256,06	28,04
256,603	24,55
257,146	26,91
257,689	24,89
258,232	31,29
258,774	33,42
259,317	32,96
259,859	32,35
260,401	29
260,943	22
261,485	21,33
262,027	19,69
262,569	22
263,11	35,26
263,652	26,82
264,193	38,61
264,734	21,1
265,275	28,4
265,816	32,31
266,357	27,21
266,898	25,34
267,438	36,7
267,979	33,19
268,519	33,04
269,059	23,36
269,6	29,57
270,14	28,38
270,68	30,51
271,219	30,8
271,759	30,34
272,298	29,4
272,838	24,31
273,377	33,95
273,916	19,02
274,455	24,28
274,994	27,75
275,533	31,41
276,072	28,54
276,61	35,24
277,149	24,27
277,687	24,71
278,225	27,38
278,763	25,34
279,301	21,56
279,839	25,16
280,377	24,88
280,914	27,38
281,452	28,21
281,989	30,77
282,526	28,54
283,064	27,62
283,601	27,84
284,137	23,81
284,674	23,54
285,211	30,94
285,747	25,78
286,284	22,6
286,82	32,12
287,356	29,36
287,892	24,04
288,428	22,75
288,964	32
289,5	20,22
290,035	29,58
290,571	23,66
291,106	24,01
291,641	30,91
292,176	37,16
292,711	24,34
293,246	31,65
293,781	20,77
294,315	26,68
294,85	23,67
295,384	22,02
295,918	25,33
296,453	30,66
296,987	26,78
297,52	22,59
298,054	29,31
298,588	25,43
299,121	24,83
299,655	24,21
300,188	20,5
300,721	28,6
301,254	31,28
301,787	25,42
302,32	27,19
302,853	23,57
303,385	24,23
303,918	20,94
304,45	21,05
304,982	28,22
305,514	25,69
306,046	24,95
306,578	19,68
307,11	25,87
307,641	22,77
308,173	25,45
308,704	30,36
309,236	31,63
309,767	21,41
310,298	24,39
310,829	35,21
311,359	34,81
311,89	22,35
312,421	18,16
312,951	34,88
313,481	25,81
314,012	23,71
314,542	24,94
315,072	32,91
315,601	22,97
316,131	25,63
316,661	20,05
317,19	22,85
317,72	29,52
318,249	32,51
318,778	30,88
319,307	24
319,836	23,79
320,365	30,41
320,893	28,94
321,422	26,96
321,95	31,78
322,479	26,19
323,007	26,57
323,535	22,09
324,063	27,42
324,591	31,21
325,118	31,65
325,646	26,89
326,173	25,8
326,701	35,48
327,228	34,09
327,755	27,03
328,282	29,95
328,809	37,31
329,336	26,56
329,862	28,86
330,389	29,66
330,915	28,18
331,441	25,17
331,968	20,48
332,494	29,5
333,02	22,15
333,545	31,19
334,071	21,21
334,597	22,6
335,122	23,61
335,648	13,66
336,173	19,74
336,698	27,06
337,223	23,43
337,748	26,89
338,272	26,99
338,797	27,33
339,322	24,21
339,846	23,19
340,37	27,34
340,894	25,17
341,419	24,58
341,942	29,21
342,466	33,4
342,99	31,12
343,514	26,42
344,037	23,2
344,56	22,47
345,084	28,03
345,607	21,3
346,13	21,37
346,653	19,13
347,175	24,61
347,698	27,7
348,221	27,75
348,743	18,22
349,265	21,39
349,787	23,84
350,309	21,03
350,831	25,69
351,353	25,65
351,875	21,48
352,397	21
352,918	25,26
353,439	26,75
353,961	23,36
354,482	17,51
355,003	18,66
355,524	22,41
356,044	19,43
356,565	24,32
357,086	21,74
357,606	25,2
358,126	26,56
358,646	25,29
359,167	22,8
359,687	27,04
360,206	21,86
360,726	17,1
361,246	23,38
361,765	19,94
362,285	23,42
362,804	20,57
363,323	23,17
363,842	18,69
364,361	21,12
364,88	20,13
365,398	20,66
365,917	20,6
366,435	19,41
366,954	17,71
367,472	17,07
367,99	17,51
368,508	14,17
369,026	18,6
369,544	20,24
370,061	24,5
370,579	23,56
371,096	21,27
371,613	19,8
372,131	20,11
372,648	20,34
373,165	23,34
373,681	18,85
374,198	23,52
374,715	21,15
375,231	18,12
375,747	18,25
376,264	14,38
376,78	18,52
377,296	17,82
377,812	19,54
378,327	18,72
378,843	18,17
379,359	17,36
379,874	17,76
380,389	18,67
380,905	22,84
381,42	16,47
381,935	16,88
382,449	18,05
382,964	15,22
383,479	18,18
383,993	16,93
384,508	18,8
385,022	18,81
385,536	14,68
386,05	17,4
386,564	17,22
387,078	17,23
387,592	15,85
388,105	13,37
388,619	14,92
389,132	15,51
389,645	17,86
390,158	14,81
390,671	15,19
391,184	14,65
391,697	14,83
392,21	13,61
392,722	15,19
393,235	15,84
393,747	13,95
394,259	12,55
394,771	12,9
395,283	12,35
395,795	13,33
396,307	13,59
396,818	14,38
397,33	13,96
397,841	12,44
398,353	12,89
398,864	12,52
399,375	12,84
399,886	13,13
400,397	13,21
400,907	11,88
401,418	11,35
401,928	10,99
402,439	10,29
402,949	10,47
403,459	10,63
403,969	11,1
404,479	11,63
404,989	8,89
405,498	9,85
406,008	9,52
406,517	9,36
407,027	9,92
407,536	9,3
408,045	7,9
408,554	9,09
409,063	8,3
409,572	7,4
410,08	8,32
410,589	7,33
411,097	7,62
411,606	7,7
412,114	7
412,622	6,85
413,13	6,48
413,638	6,02
414,145	6,85
414,653	6,33
415,16	6,88
415,668	5,59
416,175	6,55
416,682	5,83
417,189	5,75
417,696	5,43
418,203	5,45
418,71	4,88
419,216	5,73
419,723	5,12
420,229	4,97
420,735	4,74
421,242	5,62
421,748	4,79
422,254	5,55
422,759	5,37
423,265	4,54
423,771	4,42
424,276	5,15
424,781	4,76
425,287	4,81
425,792	4,65
426,297	4,47
426,802	4,72
427,306	4,53
427,811	4,5
428,316	4,6
428,82	4,47
429,324	4,06
429,829	4,41
430,333	4,31
430,837	4,57
431,34	4,19
431,844	4,29
432,348	4,22
432,851	4,53
433,355	4,29
433,858	4,37
434,361	4,43
434,864	4,24
435,367	4,49
435,87	4,24
436,373	4,47
436,876	4,65
437,378	4,27
437,88	4,18
438,383	4,76
438,885	4,15
439,387	4,24
439,889	4,79
440,391	4,52
440,892	4,52
441,394	4,12
441,896	3,9
442,397	4,31
442,898	4,21
443,399	4,2
443,9	4,41
444,401	4,48
444,902	4,2
445,403	4,69
445,903	4,33
446,404	4,59
446,904	4,25
447,405	4,48
447,905	4,64
448,405	4,83
448,905	4,54
449,404	4,38
449,904	4,48
450,404	4,43
450,903	4,22
451,403	4,57
451,902	4,6
452,401	4,54
452,9	4,59
453,399	4,48
453,898	4,52
454,396	4,37
454,895	4,37
455,393	4,79
455,892	4,44
456,39	4,45
456,888	4,64
457,386	4,54
457,884	4,59
458,382	4,46
458,879	4,48
459,377	4,65
459,874	4,34
460,372	4,51
460,869	4,62
461,366	4,56
461,863	4,63
462,36	4,61
462,857	4,73
463,353	4,6
463,85	4,38
464,346	4,42
464,843	4,41
465,339	4,47
465,835	4,87
466,331	4,59
466,827	4,65
467,323	4,57
467,818	4,87
468,314	4,54
468,809	4,72
469,305	4,49
469,8	4,6
470,295	4,57
470,79	4,44
471,285	4,53
471,78	4,78
472,274	4,52
472,769	4,54
473,263	4,75
473,758	4,66
474,252	4,72
474,746	4,4
475,24	4,47
475,734	4,38
476,228	4,62
476,721	4,54
477,215	4,67
477,708	4,72
478,202	4,75
478,695	4,34
479,188	4,51
479,681	4,65
480,174	4,59
480,667	4,67
481,159	4,43
481,652	4,63
482,144	4,67
482,637	4,81
483,129	4,55
483,621	4,74
484,113	4,6
484,605	4,83
485,097	4,67
485,588	4,68
486,08	4,67
486,571	4,74
487,063	4,83
487,554	4,82
488,045	4,6
488,536	4,54
489,027	4,98
489,518	4,84
490,008	4,79
490,499	4,99
490,989	4,85
491,48	4,99
491,97	5,11
492,46	4,97
492,95	4,77
493,44	4,76
493,93	4,94
494,419	5,14
494,909	4,99
495,398	5,02
495,888	4,89
496,377	5,26
496,866	5,01
497,355	5,03
497,844	5,23
498,333	5,31
498,821	5,3
499,31	5,58
499,798	5,37
500,287	5,72
500,775	5,46
501,263	5,74
501,751	5,68
502,239	5,64
502,727	5,81
503,215	5,71
503,702	5,9
504,19	5,86
504,677	6,16
505,164	6,17
505,651	6,28
506,139	6,48
506,625	6,55
507,112	6,55
507,599	6,5
508,086	6,77
508,572	7,05
509,058	6,92
509,545	7,22
510,031	7,14
510,517	7,58
511,003	7,96
511,489	7,77
511,974	8,24
512,46	8,08
512,946	8,23
513,431	8,73
513,916	8,65
514,401	8,84
514,887	9,05
515,371	9,13
515,856	9,03
516,341	9,38
516,826	9,92
517,31	9,9
517,795	10,29
518,279	10,36
518,763	10,58
519,247	11,12
519,731	11,17
520,215	11,25
520,699	11,77
521,182	12,09
521,666	12,03
522,149	12,44
522,633	12,56
523,116	12,6
523,599	12,8
524,082	12,94
524,565	13,47
525,048	13,34
525,53	13,51
526,013	13,9
526,495	13,96
526,978	14,25
527,46	14,64
527,942	14,98
528,424	14,7
528,906	15,13
529,388	15,44
529,87	15,05
530,351	15,4
530,833	15,47
531,314	15,9
531,795	15,9
532,277	15,75
532,758	15,95
533,238	15,81
533,719	16,26
534,2	16,54
534,681	16,51
535,161	16,41
535,642	16,7
536,122	16,65
536,602	16,83
537,082	16,7
537,562	16,86
538,042	16,95
538,522	16,93
539,001	16,89
539,481	16,77
539,96	16,97
540,44	17,03
540,919	17,01
541,398	17,45
541,877	17,05
542,356	17,28
542,835	17,28
543,313	17,12
543,792	17,23
544,27	17,04
544,749	17,24
545,227	17,34
545,705	17,45
546,183	17,38
546,661	17,41
547,139	17,39
547,616	17,43
548,094	17,39
548,571	17,41
549,049	17,72
549,526	17,52
550,003	17,59
550,48	17,68
550,957	17,96
551,434	17,55
551,911	17,63
552,387	17,68
552,864	17,52
553,34	17,73
553,817	17,83
554,293	17,85
554,769	17,58
555,245	17,9
555,721	17,86
556,197	17,78
556,672	17,62
557,148	17,44
557,623	17,27
558,099	17,34
558,574	17,34
559,049	17,67
559,524	17,62
559,999	17,45
560,474	17,41
560,948	17,52
561,423	17,19
561,897	17,28
562,372	17,22
562,846	16,87
563,32	16,93
563,794	17,23
564,268	17,04
564,742	16,76
565,216	16,88
565,69	16,55
566,163	16,62
566,636	16,06
567,11	16,24
567,583	16,13
568,056	16,3
568,529	16,12
569,002	16,05
569,475	15,83
569,947	15,49
570,42	15,33
570,892	15,29
571,365	15,34
571,837	15,07
572,309	15,33
572,781	14,82
573,253	14,9
573,725	14,72
574,197	14,75
574,668	14,19
575,14	14,06
575,611	14,29
576,082	14,07
576,554	13,86
577,025	14,03
577,496	13,9
577,967	13,65
578,437	13,68
578,908	13,26
579,379	13,5
579,849	13,24
580,319	13,41
580,79	13,27
581,26	13,06
581,73	12,97
582,2	12,84
582,669	12,7
583,139	12,86
583,609	12,72
584,078	12,61
584,548	12,4
585,017	12,24
585,486	12,22
585,955	12,22
586,424	12,17
586,893	12,39
587,362	12,2
587,83	12,05
588,299	12,06
588,767	11,78
589,236	11,96
589,704	11,67
590,172	11,59
590,64	11,58
591,108	11,6
591,576	11,52
592,043	11,45
592,511	11,47
592,978	11,51
593,446	11,49
593,913	11,52
594,38	11,15
594,847	11,36
595,314	11,17
595,781	11,41
596,248	11,31
596,715	11,22
597,181	11,47
597,647	11,23
598,114	11,08
598,58	11,23
599,046	10,93
599,512	11,35
599,978	11,15
600,444	10,92
600,91	11,19
601,375	10,93
601,841	10,94
602,306	11,13
602,771	10,83
603,236	11,03
603,702	10,76
604,167	10,59
604,631	10,84
605,096	10,83
605,561	10,7
606,025	10,59
606,49	10,59
606,954	10,65
607,418	10,51
607,882	10,18
608,347	10,3
608,81	10,16
609,274	10,17
609,738	9,88
610,202	10,06
610,665	10,16
611,128	9,8
611,592	10,03
612,055	9,82
612,518	9,71
612,981	9,73
613,444	9,63
613,907	9,64
614,369	9,37
614,832	9,32
615,294	9,23
615,757	9,3
616,219	9,29
616,681	9,19
617,143	9,17
617,605	8,98
618,067	8,91
618,529	8,87
618,99	8,96
619,452	8,74
619,913	8,81
620,375	8,94
620,836	8,75
621,297	8,58
621,758	8,67
622,219	8,71
622,68	8,54
623,14	8,56
623,601	8,61
624,061	8,47
624,522	8,56
624,982	8,3
625,442	8,27
625,902	8,44
626,362	8,37
626,822	8,45
627,282	8,31
627,742	8,32
628,201	8,3
628,661	8,42
629,12	8,34
629,579	8,28
630,038	8,36
630,497	8,26
630,956	8,32
631,415	8,15
631,874	8,19
632,332	8,13
632,791	8,18
633,249	8,14
633,708	8,16
634,166	8,13
634,624	8,15
635,082	8
635,54	8,15
635,998	7,93
636,455	8,04
636,913	7,85
637,37	7,7
637,828	7,79
638,285	7,65
638,742	7,57
639,199	7,56
639,656	7,37
640,113	7,39
640,57	7,23
641,027	7,28
641,483	7,17
641,94	7,2
642,396	7,04
642,852	7,03
643,309	6,92
643,765	6,85
644,221	6,8
644,676	6,67
645,132	6,63
645,588	6,53
646,043	6,46
646,499	6,45
646,954	6,29
647,409	6,25
647,864	6,25
648,319	6,18
648,774	6,11
649,229	6,08
649,684	6,01
650,139	6,03
650,593	6,04
651,047	5,89
651,502	5,74
651,956	5,85
652,41	5,68
652,864	5,75
653,318	5,56
653,772	5,78
654,225	5,68
654,679	5,72
655,133	5,63
655,586	5,57
656,039	5,57
656,492	5,44
656,946	5,42
657,399	5,39
657,851	5,44
658,304	5,43
658,757	5,32
659,209	5,29
659,662	5,22
660,114	5,13
660,567	5,13
661,019	5,11
661,471	4,98
661,923	5,02
662,375	4,94
662,826	5,02
663,278	4,84
663,73	4,77
664,181	4,9
664,632	4,79
665,084	4,75
665,535	4,79
665,986	4,78
666,437	4,71
666,888	4,77
667,338	4,8
667,789	4,74
668,24	4,78
668,69	4,75
669,14	4,75
669,591	4,82
670,041	4,86
670,491	4,75
670,941	4,91
671,391	4,85
671,84	4,96
672,29	5,03
672,74	5,01
673,189	5,08
673,638	5,07
674,088	5,18
674,537	5,15
674,986	5,21
675,435	5,34
675,883	5,37
676,332	5,48
676,781	5,46
677,229	5,56
677,678	5,6
678,126	5,71
678,574	5,65
679,022	5,83
679,47	5,75
679,918	6,13
680,366	6,01
680,814	6,1
681,261	6,29
681,709	6,23
682,156	6,32
682,604	6,43
683,051	6,53
683,498	6,62
683,945	6,71
684,392	6,82
684,839	6,76
685,286	6,82
685,732	7,08
686,179	7,04
686,625	7,16
687,071	7,25
687,518	7,43
687,964	7,28
688,41	7,56
688,856	7,67
689,301	7,82
689,747	7,86
690,193	8,24
690,638	8,39
691,084	8,59
691,529	8,73
691,974	9,02
692,419	9,36
692,864	9,63
693,309	9,83
693,754	10,26
694,199	10,52
694,643	10,74
695,088	11,23
695,532	11,71
695,977	12,02
696,421	12,4
696,865	12,76
697,309	13,19
697,753	13,54
698,197	13,9
698,64	14,25
699,084	14,51
699,527	15,15
699,971	15,37
700,414	15,64
700,857	15,98
701,3	16,51
701,743	16,79
702,186	17,25
702,629	17,46
703,072	17,83
703,515	18,32
703,957	18,44
704,399	18,81
704,842	19
705,284	19,38
705,726	19,77
706,168	19,88
706,61	20,3
707,052	20,53
707,494	21,11
707,935	21,41
708,377	21,62
708,818	21,83
709,26	22,01
709,701	22,22
710,142	22,52
710,583	22,88
711,024	23,17
711,465	23,05
711,905	23,66
712,346	23,7
712,787	24,08
713,227	24,45
713,667	24,46
714,108	24,73
714,548	24,95
714,988	25,33
715,428	25,38
715,868	25,75
716,307	25,65
716,747	26,01
717,186	26,22
717,626	26,35
718,065	26,64
718,504	26,93
718,944	27,33
719,383	27,07
719,822	27,7
720,261	27,43
720,699	27,88
721,138	27,79
721,576	28,11
722,015	28,17
722,453	28,28
722,892	28,53
723,33	28,58
723,768	28,57
724,206	28,74
724,644	29,15
725,081	29,13
725,519	29,25
725,957	29,36
726,394	29,66
726,832	29,83
727,269	29,79
727,706	29,85
728,143	29,78
728,58	29,93
729,017	30,15
729,454	30,12
729,89	30,25
730,327	30,44
730,764	30,33
731,2	30,37
731,636	30,64
732,072	30,3
732,509	30,8
732,945	30,57
733,38	30,47
733,816	30,92
734,252	30,82
734,688	30,83
735,123	30,95
735,559	31,03
735,994	31,25
736,429	31,27
736,864	31,14
737,299	31,14
737,734	31,34
738,169	31,22
738,604	31,28
739,038	31,1
739,473	31,26
739,907	31,36
740,342	31,25
740,776	31,26
741,21	31,6
741,644	31,15
742,078	31,26
742,512	31,3
742,946	31,36
743,379	31,32
743,813	31,28
744,246	31,43
744,68	31,29
745,113	31,26
745,546	31,17
745,979	31,45
746,412	31,36
746,845	31,25
747,278	31,28
747,711	31,32
748,143	31,41
748,576	31,26
749,008	31,07
749,441	31,17
749,873	30,88
750,305	31,03
750,737	31,06
751,169	31,08
751,601	31,25
752,032	31,22
752,464	31,2
752,896	30,99
753,327	30,98
753,758	30,97
754,19	30,97
754,621	30,82
755,052	30,82
755,483	30,63
755,914	30,77
756,344	30,94
756,775	30,71
757,206	30,65
757,636	30,87
758,066	30,75
758,497	30,7
758,927	30,86
759,357	30,59
759,787	30,59
760,217	30,7
760,647	30,43
761,076	30,45
761,506	30,4
761,935	30,42
762,365	30,53
762,794	30,45
763,223	30,42
763,653	30,45
764,082	30,52
764,51	30,6
764,939	30,17
765,368	30,16
765,797	30,04
766,225	30,15
766,654	30,17
767,082	30,28
767,51	30,03
767,938	30,28
768,367	30,23
768,795	30,12
769,222	30,24
769,65	30,17
770,078	30,26
770,505	30,29
770,933	30,39
771,36	29,88
771,788	30,11
772,215	30
772,642	30,01
773,069	29,84
773,496	29,93
773,923	29,86
774,349	30,2
774,776	29,8
775,203	29,88
775,629	30,04
776,055	29,9
776,482	29,98
776,908	30,01
777,334	29,85
777,76	29,66
778,186	29,71
778,611	30,08
779,037	29,68
779,463	29,75
779,888	29,81
780,314	29,84
780,739	29,74
781,164	29,76
781,589	29,73
782,014	29,76
782,439	29,85
782,864	29,59
783,289	29,7
783,713	29,84
784,138	29,72
784,562	29,77
784,987	29,59
785,411	29,55
785,835	29,57
786,259	29,85
786,683	29,74
787,107	29,77
787,531	29,79
787,954	29,35
788,378	29,55
788,802	29,44
789,225	29,69
789,648	29,62
790,071	29,48
790,495	29,6
790,918	29,47
791,34	29,8
791,763	29,65
792,186	29,62
792,609	29,42
793,031	29,47
793,454	29,54
793,876	29,35
794,298	29,49
794,721	29,43
795,143	29,67
795,565	29,55
795,986	29,38
796,408	29,29
796,83	29,46
797,252	29,4
797,673	29,42
798,094	29,48
798,516	29,45
798,937	29,53
799,358	29,6
799,779	29,43
800,2	29,47
800,621	29,29
801,042	29,43
801,462	29,54
801,883	29,55
802,303	29,39
802,724	29,56
803,144	29,21
803,564	29,53
803,984	29,45
804,404	29,36
804,824	29,5
805,244	29,14
805,664	29,37
806,084	29,41
806,503	29,6
806,923	29,28
807,342	29,24
807,761	29,18
808,18	29,41
808,599	29,1
809,018	29,13
809,437	29,36
809,856	29,41
810,275	29,56
810,693	29,34
811,112	29,28
811,53	29,21
811,949	29,28
812,367	29,31
812,785	29,23
813,203	29,44
813,621	29,31
814,039	29,14
814,457	29,27
814,874	29,52
815,292	29,35
815,709	29,48
816,127	29,38
816,544	29,25
816,961	29,42
817,378	29,33
817,795	29,34
818,212	29,34
818,629	29,38
819,046	29,42
819,462	29,33
819,879	29,09
820,295	29,08
820,712	29,28
821,128	29,52
821,544	29,22
821,96	29,23
822,376	29,17
822,792	29,39
823,208	29,23
823,624	29,42
824,039	29,2
824,455	29,27
824,87	29,29
825,286	29,12
825,701	28,98
826,116	29,03
826,531	29,3
826,946	29,24
827,361	29,28
827,776	29,31
828,19	29,07
828,605	29,32
829,02	29,18
829,434	29,18
829,848	29,11
830,263	29,12
830,677	29,04
831,091	29,18
831,505	29,16
831,919	29,27
832,332	29,15
832,746	29,11
833,16	29,01
833,573	29,19
833,987	28,98
834,4	28,97
834,813	29,1
835,226	29,04
835,639	29,12
836,052	29,37
836,465	29,05
836,878	29,15
837,29	29,26
837,703	29,11
838,116	29,16
838,528	28,93
838,94	29,04
839,352	29,03
839,765	28,88
840,177	29,11
840,589	29
841	29,12
841,412	29,33
841,824	28,96
842,235	28,77
842,647	28,94
843,058	29,25
843,47	29,24
843,881	29,03
844,292	28,84
844,703	29,04
845,114	29,02
