Data from G_6_0_Relative__1__00161.txt Node

Date: Mon Jan 29 13:07:05 CET 2024
User: diatiterra
Spectrometer: HDX00911
Trigger mode: 0
Integration Time (sec): 6,000000E-3
Scans to average: 2
Nonlinearity correction enabled: false
Boxcar width: 0
Storing dark spectrum: false
XAxis mode: Wavelengths
Number of Pixels in Spectrum: 2068
>>>>>Begin Spectral Data<<<<<
194,468	15,85
195,025	10,05
195,581	13,37
196,138	8,77
196,694	27,74
197,251	28,65
197,807	29,93
198,363	27
198,919	26,34
199,474	28
200,03	17,44
200,586	27,03
201,141	19,66
201,696	30,54
202,251	25,25
202,806	18,89
203,361	19,41
203,916	26,23
204,471	22,45
205,025	23,44
205,58	27,52
206,134	27,72
206,688	30,15
207,242	18,47
207,796	20
208,35	25,97
208,904	28,57
209,457	25,16
210,011	25,16
210,564	27,65
211,117	21,47
211,67	27,16
212,223	26,98
212,776	31,25
213,329	25,45
213,881	28,75
214,434	22,54
214,986	29,02
215,538	26,77
216,09	31,15
216,642	30,41
217,194	29,17
217,746	27,75
218,297	20,6
218,849	29,61
219,4	34,24
219,951	33,33
220,502	23,13
221,053	29,2
221,604	26,04
222,155	23,91
222,705	29,44
223,256	30,59
223,806	31,24
224,356	32,26
224,906	31,87
225,456	30,53
226,006	33,41
226,556	24,22
227,106	28,57
227,655	30,49
228,204	28,1
228,754	33,06
229,303	33,63
229,852	34,56
230,401	26,13
230,949	30,11
231,498	31,33
232,047	30,19
232,595	33,68
233,143	26,43
233,691	30,74
234,239	20,98
234,787	23,41
235,335	34,19
235,883	31,92
236,43	28,51
236,978	26,16
237,525	23,44
238,072	30,07
238,619	30,84
239,166	33,33
239,713	30,43
240,26	27,18
240,806	33,12
241,353	32,41
241,899	30,84
242,445	23,3
242,991	25,38
243,537	26
244,083	34,85
244,629	27,75
245,174	26,2
245,72	25,78
246,265	23,08
246,81	21,9
247,355	24
247,9	30,2
248,445	26,65
248,99	23,41
249,534	28,57
250,079	27,11
250,623	21,74
251,168	30,65
251,712	25,81
252,256	20
252,8	26,58
253,343	25,36
253,887	23,4
254,43	19,53
254,974	19,53
255,517	26,44
256,06	21,41
256,603	28,64
257,146	19,49
257,689	24,46
258,232	29,93
258,774	23,02
259,317	26,64
259,859	31,44
260,401	22,08
260,943	23,78
261,485	21,33
262,027	26,7
262,569	15,5
263,11	32,26
263,652	27,29
264,193	23,86
264,734	22,02
265,275	24,18
265,816	24,4
266,357	29,02
266,898	28,08
267,438	26,61
267,979	25,22
268,519	22,98
269,059	26,64
269,6	11,51
270,14	23,87
270,68	24,58
271,219	19,83
271,759	20
272,298	18,26
272,838	19,72
273,377	26,13
273,916	24,83
274,455	20,27
274,994	23,35
275,533	21,25
276,072	31,12
276,61	21,59
277,149	21,84
277,687	26,54
278,225	23,3
278,763	20,36
279,301	23,78
279,839	20
280,377	25,36
280,914	19,03
281,452	20,41
281,989	30,77
282,526	27,68
283,064	19,56
283,601	23,2
284,137	17,14
284,674	25
285,211	34,86
285,747	22,91
286,284	23,06
286,82	18,45
287,356	23,62
287,892	24,04
288,428	20,17
288,964	25,41
289,5	19,78
290,035	27,37
290,571	21,71
291,106	25,5
291,641	21,82
292,176	21,52
292,711	22,15
293,246	21,1
293,781	23,48
294,315	19,7
294,85	14,82
295,384	26,52
295,918	24
296,453	16,98
296,987	24,88
297,52	18,2
298,054	20,36
298,588	28,48
299,121	22,17
299,655	18,33
300,188	19,59
300,721	28,6
301,254	25,8
301,787	24,46
302,32	31,8
302,853	21,81
303,385	22,03
303,918	24,05
304,45	21,93
304,982	22,89
305,514	26,16
306,046	23,63
306,578	21,51
307,11	21,68
307,641	18,75
308,173	25
308,704	21,43
309,236	23,36
309,767	24,71
310,298	23,5
310,829	24,88
311,359	17,06
311,89	18,28
312,421	21,75
312,951	23,26
313,481	21,66
314,012	20,13
314,542	24
315,072	13,82
315,601	22,97
316,131	22,88
316,661	21,98
317,19	23,3
317,72	25,24
318,249	24,38
318,778	19,12
319,307	20,71
319,836	21,02
320,365	21,2
320,893	25,32
321,422	21,89
321,95	21,11
322,479	23,48
323,007	15,94
323,535	20,7
324,063	20,8
324,591	18,44
325,118	30,33
325,646	26,89
326,173	23,97
326,701	27,86
327,228	21,36
327,755	18,9
328,282	13,37
328,809	23,62
329,336	18,71
329,862	27,95
330,389	20,46
330,915	25
331,441	24,71
331,968	28,67
332,494	29
333,02	21,29
333,545	28,77
334,071	18,08
334,597	22,12
335,122	17,37
335,648	31,7
336,173	13,67
336,698	24,77
337,223	18,66
337,748	20,17
338,272	19,04
338,797	19,96
339,322	21,49
339,846	16,81
340,37	27,85
340,894	16,7
341,419	20,8
341,942	16,23
342,466	22,96
342,99	21,99
343,514	21,8
344,037	12,8
344,56	18,83
345,084	21,21
345,607	20,22
346,13	15,27
346,653	17,99
347,175	15,88
347,698	21,81
348,221	21,79
348,743	14,87
349,265	17,91
349,787	10,68
350,309	17,26
350,831	19,48
351,353	21,17
351,875	15,77
352,397	19,67
352,918	17,06
353,439	14,16
353,961	23,36
354,482	15,15
355,003	17,68
355,524	20,27
356,044	15,61
356,565	18,24
357,086	15,14
357,606	16,16
358,126	18,84
358,646	13,79
359,167	21,36
359,687	13,21
360,206	17,73
360,726	13,91
361,246	18,38
361,765	15,06
362,285	16,94
362,804	13,53
363,323	14,75
363,842	21,09
364,361	14,97
364,88	15,92
365,398	18,29
365,917	13,04
366,435	9,9
366,954	13,97
367,472	14,51
367,99	16,73
368,508	13,11
369,026	10,28
369,544	11,22
370,061	15,87
370,579	15,86
371,096	13,87
371,613	18,89
372,131	17,39
372,648	13,67
373,165	15,6
373,681	11,97
374,198	13,41
374,715	14,56
375,231	14,55
375,747	11,19
376,264	10,52
376,78	13,84
377,296	12,13
377,812	15,28
378,327	13,35
378,843	12,55
379,359	14,47
379,874	12,22
380,389	10,93
380,905	14,19
381,42	11,81
381,935	11,55
382,449	12,75
382,964	6,99
383,479	10,57
383,993	10,91
384,508	15,17
385,022	7,64
385,536	10,55
386,05	11,64
386,564	12,2
387,078	12,06
387,592	10,35
388,105	10,52
388,619	10,97
389,132	11,01
389,645	9,44
390,158	10,11
390,671	9,47
391,184	8,92
391,697	10,17
392,21	10,42
392,722	9,67
393,235	8,29
393,747	9,5
394,259	10,7
394,771	9,82
395,283	9,35
395,795	9,58
396,307	8,63
396,818	6,82
397,33	8,72
397,841	7,25
398,353	7,73
398,864	9,08
399,375	8,95
399,886	9,38
400,397	7,63
400,907	7,45
401,418	7,84
401,928	6,51
402,439	8,41
402,949	8,16
403,459	6,89
403,969	6,96
404,479	7,29
404,989	6,95
405,498	7,1
406,008	6,16
406,517	5,87
407,027	5,39
407,536	5,76
408,045	5,46
408,554	5,86
409,063	5,65
409,572	5
410,08	4,62
410,589	4,73
411,097	5,11
411,606	4,46
412,114	4,71
412,622	4,47
413,13	4,32
413,638	4,55
414,145	4,68
414,653	4,09
415,16	4,49
415,668	4,09
416,175	3,43
416,682	3,47
417,189	3,08
417,696	3,26
418,203	3,26
418,71	3,03
419,216	3,3
419,723	3,42
420,229	4,02
420,735	3,36
421,242	3,4
421,748	2,93
422,254	3,37
422,759	3,54
423,265	2,8
423,771	3,16
424,276	2,87
424,781	2,93
425,287	3,49
425,792	2,48
426,297	2,99
426,802	2,72
427,306	2,78
427,811	2,78
428,316	2,71
428,82	2,63
429,324	2,74
429,829	3,06
430,333	2,95
430,837	3,06
431,34	2,86
431,844	2,72
432,348	2,31
432,851	2,67
433,355	2,51
433,858	2,96
434,361	2,59
434,864	2,8
435,367	2,56
435,87	2,79
436,373	2,81
436,876	3,08
437,378	2,71
437,88	2,62
438,383	3,21
438,885	2,63
439,387	2,68
439,889	2,76
440,391	2,65
440,892	3,13
441,394	2,88
441,896	2,83
442,397	2,53
442,898	2,9
443,399	3,1
443,9	2,44
444,401	2,51
444,902	2,84
445,403	3,08
445,903	2,84
446,404	2,91
446,904	2,86
447,405	2,78
447,905	2,46
448,405	2,74
448,905	2,9
449,404	2,63
449,904	2,33
450,404	2,56
450,903	2,83
451,403	2,73
451,902	2,84
452,401	3,02
452,9	3,03
453,399	2,64
453,898	2,81
454,396	3,03
454,895	3,13
455,393	2,97
455,892	2,9
456,39	2,85
456,888	3,18
457,386	2,95
457,884	3,2
458,382	2,77
458,879	2,55
459,377	2,87
459,874	3,17
460,372	2,78
460,869	3,12
461,366	3,07
461,863	2,73
462,36	2,67
462,857	3,05
463,353	2,81
463,85	2,87
464,346	2,63
464,843	2,77
465,339	3,04
465,835	2,82
466,331	2,69
466,827	3,03
467,323	2,71
467,818	2,78
468,314	2,81
468,809	3,04
469,305	2,6
469,8	2,93
470,295	2,93
470,79	2,85
471,285	2,82
471,78	3,08
472,274	2,95
472,769	2,85
473,263	2,81
473,758	2,89
474,252	2,97
474,746	2,73
475,24	2,71
475,734	2,8
476,228	3,06
476,721	2,79
477,215	2,91
477,708	2,99
478,202	2,84
478,695	3,05
479,188	2,88
479,681	2,72
480,174	2,96
480,667	3,29
481,159	2,82
481,652	2,98
482,144	3,09
482,637	2,95
483,129	2,95
483,621	2,83
484,113	2,97
484,605	3,1
485,097	2,98
485,588	2,96
486,08	2,8
486,571	3
487,063	3,06
487,554	3,29
488,045	2,95
488,536	3,02
489,027	3,19
489,518	3,39
490,008	3,24
490,499	3,17
490,989	3,5
491,48	3,23
491,97	3,41
492,46	3,32
492,95	3,44
493,44	3,41
493,93	3,31
494,419	3,52
494,909	3,48
495,398	3,55
495,888	3,48
496,377	3,64
496,866	3,56
497,355	3,71
497,844	3,83
498,333	3,7
498,821	3,84
499,31	3,91
499,798	3,78
500,287	3,99
500,775	4,11
501,263	4,2
501,751	4,19
502,239	4,16
502,727	4,32
503,215	4,55
503,702	4,47
504,19	4,65
504,677	4,65
505,164	4,83
505,651	5,14
506,139	4,94
506,625	5,3
507,112	5,12
507,599	5,26
508,086	5,55
508,572	5,43
509,058	5,71
509,545	5,94
510,031	6,11
510,517	6,25
511,003	6,16
511,489	6,52
511,974	6,51
512,46	6,79
512,946	6,97
513,431	6,95
513,916	7,37
514,401	7,71
514,887	7,64
515,371	7,79
515,856	8,23
516,341	8,4
516,826	8,54
517,31	8,46
517,795	9,1
518,279	9,09
518,763	9,16
519,247	9,57
519,731	9,46
520,215	9,93
520,699	10,15
521,182	10,25
521,666	10,38
522,149	10,86
522,633	10,92
523,116	11,1
523,599	11,25
524,082	11,57
524,565	11,43
525,048	11,95
525,53	12,01
526,013	12,37
526,495	12,18
526,978	12,64
527,46	12,25
527,942	12,87
528,424	12,76
528,906	13,24
529,388	13,44
529,87	13,5
530,351	13,43
530,833	14,12
531,314	13,75
531,795	14,22
532,277	13,92
532,758	13,98
533,238	14,25
533,719	14,23
534,2	14,36
534,681	14,53
535,161	14,27
535,642	14,79
536,122	14,55
536,602	14,61
537,082	14,79
537,562	14,72
538,042	14,65
538,522	15,17
539,001	15,09
539,481	15,12
539,96	14,86
540,44	14,97
540,919	14,94
541,398	15,1
541,877	15,16
542,356	15,27
542,835	15,28
543,313	15,3
543,792	14,96
544,27	15,32
544,749	15,12
545,227	15,38
545,705	15,55
546,183	15,23
546,661	15,39
547,139	15,39
547,616	15,45
548,094	15,54
548,571	15,62
549,049	15,49
549,526	15,93
550,003	15,61
550,48	15,43
550,957	15,67
551,434	15,6
551,911	15,49
552,387	15,89
552,864	15,6
553,34	15,51
553,817	15,81
554,293	15,46
554,769	15,45
555,245	15,86
555,721	15,65
556,197	15,65
556,672	15,81
557,148	15,44
557,623	15,45
558,099	15,74
558,574	15,47
559,049	15,41
559,524	15,37
559,999	15,24
560,474	15,58
560,948	15,31
561,423	15,4
561,897	15,26
562,372	15,34
562,846	15,01
563,32	15,01
563,794	15,07
564,268	14,79
564,742	14,75
565,216	14,71
565,69	14,65
566,163	14,54
566,636	14,55
567,11	14,18
567,583	14,51
568,056	14,35
568,529	14,23
569,002	13,9
569,475	13,71
569,947	13,74
570,42	13,56
570,892	13,65
571,365	13,61
571,837	13,39
572,309	13,28
572,781	12,96
573,253	13,07
573,725	13,02
574,197	12,94
574,668	12,6
575,14	12,77
575,611	12,5
576,082	12,42
576,554	12,33
577,025	12,08
577,496	11,95
577,967	11,99
578,437	11,96
578,908	11,84
579,379	11,55
579,849	11,66
580,319	11,51
580,79	11,62
581,26	11,46
581,73	11,34
582,2	11,19
582,669	11,3
583,139	11,19
583,609	10,88
584,078	11,16
584,548	10,91
585,017	10,79
585,486	10,86
585,955	10,72
586,424	10,7
586,893	10,59
587,362	10,38
587,83	10,35
588,299	10,6
588,767	10,43
589,236	10,51
589,704	10,31
590,172	10,35
590,64	10,24
591,108	10,09
591,576	10,36
592,043	10,13
592,511	9,98
592,978	9,88
593,446	9,97
593,913	10,06
594,38	9,89
594,847	9,82
595,314	9,86
595,781	9,83
596,248	9,89
596,715	9,76
597,181	9,81
597,647	9,77
598,114	9,62
598,58	9,68
599,046	9,66
599,512	9,67
599,978	9,73
600,444	9,8
600,91	9,49
601,375	9,58
601,841	9,55
602,306	9,5
602,771	9,57
603,236	9,44
603,702	9,43
604,167	9,36
604,631	9,22
605,096	9,18
605,561	9,29
606,025	8,94
606,49	9,23
606,954	9,16
607,418	8,99
607,882	8,85
608,347	8,92
608,81	8,7
609,274	8,86
609,738	8,76
610,202	8,6
610,665	8,61
611,128	8,56
611,592	8,53
612,055	8,36
612,518	8,29
612,981	8,3
613,444	8,14
613,907	8,25
614,369	8,12
614,832	8,08
615,294	7,93
615,757	7,94
616,219	7,87
616,681	7,81
617,143	7,72
617,605	7,88
618,067	7,69
618,529	7,7
618,99	7,7
619,452	7,54
619,913	7,46
620,375	7,45
620,836	7,5
621,297	7,4
621,758	7,54
622,219	7,41
622,68	7,37
623,14	7,22
623,601	7,15
624,061	7,14
624,522	7,19
624,982	7,04
625,442	7,27
625,902	7,09
626,362	7,08
626,822	6,96
627,282	7,11
627,742	7,06
628,201	7,14
628,661	7,08
629,12	7,1
629,579	7,04
630,038	6,98
630,497	7,04
630,956	6,98
631,415	7,02
631,874	6,85
632,332	6,92
632,791	6,91
633,249	6,85
633,708	6,81
634,166	6,94
634,624	6,76
635,082	6,71
635,54	6,82
635,998	6,62
636,455	6,64
636,913	6,5
637,37	6,44
637,828	6,45
638,285	6,35
638,742	6,3
639,199	6,19
639,656	6,19
640,113	6,05
640,57	6,06
641,027	6,17
641,483	5,88
641,94	5,84
642,396	5,71
642,852	5,68
643,309	5,65
643,765	5,52
644,221	5,48
644,676	5,31
645,132	5,3
645,588	5,15
646,043	5,16
646,499	5,09
646,954	4,96
647,409	4,84
647,864	4,96
648,319	4,74
648,774	4,7
649,229	4,69
649,684	4,62
650,139	4,69
650,593	4,56
651,047	4,6
651,502	4,51
651,956	4,51
652,41	4,47
652,864	4,44
653,318	4,48
653,772	4,42
654,225	4,28
654,679	4,34
655,133	4,3
655,586	4,22
656,039	4,3
656,492	4,13
656,946	4,13
657,399	4,15
657,851	4,14
658,304	4,1
658,757	4
659,209	3,95
659,662	3,86
660,114	3,85
660,567	3,81
661,019	3,82
661,471	3,71
661,923	3,62
662,375	3,62
662,826	3,58
663,278	3,63
663,73	3,55
664,181	3,48
664,632	3,37
665,084	3,48
665,535	3,29
665,986	3,42
666,437	3,34
666,888	3,36
667,338	3,39
667,789	3,41
668,24	3,39
668,69	3,4
669,14	3,38
669,591	3,55
670,041	3,44
670,491	3,42
670,941	3,48
671,391	3,56
671,84	3,58
672,29	3,58
672,74	3,64
673,189	3,61
673,638	3,75
674,088	3,79
674,537	3,82
674,986	3,82
675,435	3,94
675,883	3,99
676,332	4,07
676,781	4,17
677,229	4,19
677,678	4,28
678,126	4,39
678,574	4,44
679,022	4,59
679,47	4,68
679,918	4,71
680,366	4,86
680,814	4,94
681,261	4,98
681,709	5,1
682,156	5,18
682,604	5,23
683,051	5,32
683,498	5,42
683,945	5,48
684,392	5,55
684,839	5,69
685,286	5,68
685,732	5,9
686,179	5,91
686,625	6,11
687,071	6,09
687,518	6,27
687,964	6,29
688,41	6,51
688,856	6,65
689,301	6,81
689,747	6,93
690,193	7,24
690,638	7,47
691,084	7,66
691,529	7,96
691,974	8,18
692,419	8,5
692,864	8,77
693,309	9,11
693,754	9,39
694,199	9,67
694,643	10,1
695,088	10,32
695,532	10,68
695,977	10,99
696,421	11,45
696,865	11,74
697,309	12,08
697,753	12,39
698,197	12,6
698,64	12,97
699,084	13,3
699,527	13,64
699,971	14
700,414	14,31
700,857	14,6
701,3	14,99
701,743	15,43
702,186	15,56
702,629	15,93
703,072	16,14
703,515	16,25
703,957	16,96
704,399	16,89
704,842	17,07
705,284	17,43
705,726	17,89
706,168	17,99
706,61	18,24
707,052	18,38
707,494	18,84
707,935	18,83
708,377	19,1
708,818	19,38
709,26	19,83
709,701	19,67
710,142	20,01
710,583	20,19
711,024	20,43
711,465	20,55
711,905	21,21
712,346	21,19
712,787	21,4
713,227	21,55
713,667	21,67
714,108	21,97
714,548	22,12
714,988	22,27
715,428	22,42
715,868	22,65
716,307	22,77
716,747	22,98
717,186	23,2
717,626	23,17
718,065	23,54
718,504	23,77
718,944	23,82
719,383	23,97
719,822	23,99
720,261	24,11
720,699	24,35
721,138	24,68
721,576	24,64
722,015	24,56
722,453	24,73
722,892	24,95
723,33	24,87
723,768	25,32
724,206	25,35
724,644	25,21
725,081	25,52
725,519	25,47
725,957	25,76
726,394	25,83
726,832	25,87
727,269	25,73
727,706	25,93
728,143	26,03
728,58	26,06
729,017	26,4
729,454	26,2
729,89	26,2
730,327	26,57
730,764	26,48
731,2	26,41
731,636	26,49
732,072	26,71
732,509	26,62
732,945	26,77
733,38	26,88
733,816	26,78
734,252	26,91
734,688	27
735,123	27,04
735,559	26,94
735,994	27,04
736,429	27,13
736,864	27,22
737,299	27,05
737,734	26,9
738,169	27,02
738,604	27,1
739,038	27,23
739,473	27,3
739,907	27,32
740,342	27,22
740,776	27,2
741,21	27,17
741,644	27,2
742,078	27,33
742,512	27,17
742,946	27,17
743,379	27,22
743,813	27,1
744,246	27,2
744,68	27,29
745,113	27,23
745,546	27,15
745,979	27,06
746,412	27,04
746,845	27,13
747,278	26,99
747,711	27,05
748,143	27,11
748,576	27,16
749,008	26,97
749,441	27,09
749,873	27,01
750,305	27,1
750,737	26,99
751,169	27,01
751,601	26,74
752,032	27,05
752,464	26,92
752,896	27,03
753,327	26,89
753,758	26,94
754,19	26,72
754,621	26,6
755,052	26,53
755,483	26,56
755,914	26,77
756,344	26,44
756,775	26,82
757,206	26,37
757,636	26,51
758,066	26,62
758,497	26,67
758,927	26,36
759,357	26,5
759,787	26,37
760,217	26,49
760,647	26,17
761,076	26,51
761,506	26,41
761,935	26,25
762,365	26,4
762,794	26,26
763,223	26,32
763,653	26,14
764,082	26,1
764,51	26,15
764,939	26,27
765,368	25,99
765,797	26,2
766,225	25,94
766,654	26,28
767,082	26,02
767,51	25,93
767,938	26,09
768,367	26,14
768,795	26,15
769,222	25,65
769,65	25,93
770,078	25,98
770,505	26,02
770,933	25,98
771,36	25,84
771,788	25,98
772,215	26,15
772,642	25,93
773,069	25,72
773,496	25,94
773,923	25,92
774,349	25,86
774,776	25,91
775,203	25,75
775,629	25,66
776,055	25,79
776,482	25,88
776,908	25,67
777,334	25,84
777,76	25,63
778,186	25,89
778,611	25,55
779,037	25,74
779,463	25,77
779,888	25,66
780,314	25,74
780,739	25,83
781,164	25,82
781,589	25,71
782,014	25,6
782,439	25,48
782,864	25,62
783,289	25,48
783,713	25,46
784,138	25,49
784,562	25,81
784,987	25,55
785,411	25,62
785,835	25,67
786,259	25,7
786,683	25,55
787,107	25,52
787,531	25,5
787,954	25,53
788,378	25,43
788,802	25,35
789,225	25,4
789,648	25,43
790,071	25,38
790,495	25,41
790,918	25,52
791,34	25,56
791,763	25,36
792,186	25,5
792,609	25,51
793,031	25,48
793,454	25,59
793,876	25,32
794,298	25,31
794,721	25,52
795,143	25,34
795,565	25,38
795,986	25,36
796,408	25,51
796,83	25,42
797,252	25,32
797,673	25,47
798,094	25,54
798,516	25,4
798,937	25,23
799,358	25,28
799,779	25,26
800,2	25,18
800,621	25,23
801,042	25,42
801,462	25,32
801,883	25,14
802,303	25,24
802,724	25,07
803,144	25,25
803,564	25,52
803,984	25,51
804,404	25,38
804,824	25,13
805,244	25,41
805,664	25,37
806,084	25,28
806,503	25,22
806,923	25,39
807,342	25,23
807,761	25,44
808,18	25,33
808,599	25,16
809,018	25,14
809,437	25,3
809,856	25,24
810,275	25,26
810,693	25,41
811,112	25,26
811,53	25,25
811,949	25,26
812,367	24,99
812,785	25,09
813,203	25,28
813,621	25,27
814,039	25,05
814,457	25,01
814,874	24,99
815,292	25,28
815,709	25,16
816,127	25,36
816,544	25,27
816,961	25,11
817,378	25,17
817,795	25,15
818,212	25,37
818,629	25,19
819,046	25,16
819,462	25,35
819,879	25,25
820,295	25,2
820,712	25,27
821,128	25,41
821,544	25,15
821,96	25,11
822,376	25,45
822,792	25,26
823,208	25,14
823,624	25,07
824,039	25,51
824,455	25,05
824,87	25,37
825,286	25,17
825,701	24,99
826,116	25,14
826,531	25,02
826,946	25,1
827,361	25,28
827,776	24,87
828,19	25,02
828,605	25,1
829,02	25,09
829,434	24,96
829,848	25,11
830,263	25,08
830,677	25,33
831,091	25,21
831,505	25,09
831,919	25,01
832,332	25,06
832,746	24,85
833,16	24,8
833,573	24,95
833,987	25,07
834,4	24,95
834,813	25,11
835,226	25,2
835,639	25,14
836,052	25,11
836,465	24,85
836,878	25,02
837,29	24,96
837,703	25,14
838,116	24,91
838,528	24,98
838,94	25
839,352	24,81
839,765	24,9
840,177	24,98
840,589	24,8
841	25
841,412	24,9
841,824	24,9
842,235	24,89
842,647	24,98
843,058	24,89
843,47	25,02
843,881	24,82
844,292	24,81
844,703	24,98
845,114	24,87
845,525	24,99
845,935	25,1
846,346	25,01
846,757	25,02
847,167	24,88
847,577	24,72
847,988	24,98
848,398	24,91
