Data from G_6_0_Relative__0__00160.txt Node

Date: Mon Jan 29 13:07:01 CET 2024
User: diatiterra
Spectrometer: HDX00911
Trigger mode: 0
Integration Time (sec): 6,000000E-3
Scans to average: 2
Nonlinearity correction enabled: false
Boxcar width: 0
Storing dark spectrum: false
XAxis mode: Wavelengths
Number of Pixels in Spectrum: 2068
>>>>>Begin Spectral Data<<<<<
194,468	34,15
195,025	28,14
195,581	29,65
196,138	29,82
196,694	32,62
197,251	37,67
197,807	34,68
198,363	19,65
198,919	36,19
199,474	29,33
200,03	21,85
200,586	31,6
201,141	34,19
201,696	30,97
202,251	24,03
202,806	26,69
203,361	31,65
203,916	18,98
204,471	30,16
205,025	34,19
205,58	32,44
206,134	28,95
206,688	21,04
207,242	21,44
207,796	31,02
208,35	26,88
208,904	35,51
209,457	32,04
210,011	30,23
210,564	26,4
211,117	29,59
211,67	32,8
212,223	24,84
212,776	32,06
213,329	24,65
213,881	24,64
214,434	24,86
214,986	31,75
215,538	28,1
216,09	32,51
216,642	28,27
217,194	33,33
217,746	34,96
218,297	33,48
218,849	26,61
219,4	32,15
219,951	36
220,502	24,84
221,053	25
221,604	23,54
222,155	32,18
222,705	25,26
223,256	38,83
223,806	35,01
224,356	32,69
224,906	28,09
225,456	22,95
226,006	39,32
226,556	27,14
227,106	37,05
227,655	29,21
228,204	29,87
228,754	36,76
229,303	34,51
229,852	35,85
230,401	32,88
230,949	32,75
231,498	36,67
232,047	20,77
232,595	29,92
233,143	28,63
233,691	33,61
234,239	31,7
234,787	27,95
235,335	29,03
235,883	32,35
236,43	18,6
236,978	37,27
237,525	35,04
238,072	32,24
238,619	32,71
239,166	34,66
239,713	23,81
240,26	25,52
240,806	27,06
241,353	30,11
241,899	36,12
242,445	31,13
242,991	29,72
243,537	26
244,083	30,29
244,629	35,81
245,174	27,07
245,72	34,22
246,265	26,81
246,81	31,38
247,355	35,29
247,9	42,01
248,445	21,11
248,99	32,03
249,534	27,21
250,079	28,89
250,623	26,09
251,168	31,99
251,712	36,13
252,256	28,17
252,8	27,45
253,343	33,41
253,887	30,21
254,43	28,11
254,974	26,59
255,517	23,45
256,06	30,68
256,603	27,73
257,146	15,78
257,689	25,32
258,232	34,01
258,774	18,07
259,317	36,12
259,859	30,98
260,401	29,44
260,943	24,67
261,485	33,33
262,027	25,38
262,569	11
263,11	27,14
263,652	32
264,193	39,05
264,734	32,11
265,275	26,06
265,816	25,27
266,357	34,01
266,898	33,11
267,438	30,73
267,979	24,78
268,519	30,42
269,059	27,57
269,6	24,6
270,14	34,68
270,68	30,93
271,219	27,43
271,759	33,48
272,298	25,39
272,838	27,52
273,377	30,25
273,916	20,81
274,455	25,61
274,994	30,4
275,533	30,48
276,072	28,97
276,61	25,99
277,149	24,27
277,687	21,05
278,225	25,57
278,763	26,7
279,301	30
279,839	25,59
280,377	27,73
280,914	29,23
281,452	31,42
281,989	34,73
282,526	35,84
283,064	23,99
283,601	23,67
284,137	34,76
284,674	30,83
285,211	30,94
285,747	25,3
286,284	30,37
286,82	35,31
287,356	36,42
287,892	31,29
288,428	27,47
288,964	33,41
289,5	25,62
290,035	26,93
290,571	30,98
291,106	22,52
291,641	35,45
292,176	34,72
292,711	39,25
293,246	36,7
293,781	27,09
294,315	24,19
294,85	30,31
295,384	30,11
295,918	29,33
296,453	24,06
296,987	29,15
297,52	30,04
298,054	31,99
298,588	23,7
299,121	30,16
299,655	22,85
300,188	27,79
300,721	25,35
301,254	24,43
301,787	31,72
302,32	22,12
302,853	21,81
303,385	28,19
303,918	15,59
304,45	25
304,982	33,11
305,514	28,94
306,046	30,63
306,578	27,46
307,11	22,61
307,641	26,34
308,173	23,64
308,704	26,79
309,236	27,25
309,767	23,76
310,298	24,83
310,829	25,35
311,359	32,01
311,89	26,41
312,421	23,09
312,951	29,77
313,481	27,65
314,012	31,77
314,542	24,94
315,072	25,38
315,601	21,62
316,131	26,54
316,661	21,5
317,19	24,66
317,72	26,19
318,249	30,7
318,778	24,51
319,307	20,24
319,836	32,56
320,365	28,57
320,893	22,74
321,422	29,72
321,95	26,44
322,479	20,77
323,007	18,36
323,535	25,35
324,063	26,48
324,591	23,17
325,118	28,57
325,646	17,92
326,173	25,34
326,701	30,71
327,228	30
327,755	20,81
328,282	20,32
328,809	20,09
329,336	23,33
329,862	25,68
330,389	20,46
330,915	23,64
331,441	27,04
331,968	28,19
332,494	13
333,02	27,31
333,545	27,97
334,071	22,54
334,597	28,85
335,122	23,61
335,648	30,67
336,173	17,14
336,698	23,39
337,223	24,3
337,748	29,83
338,272	25,73
338,797	21,69
339,322	23,76
339,846	19,36
340,37	29,87
340,894	21,6
341,419	21,64
341,942	24,75
342,466	30,9
342,99	28,63
343,514	34,8
344,037	22
344,56	25,71
345,084	20,08
345,607	22,02
346,13	20,61
346,653	24,81
347,175	26,7
347,698	25,34
348,221	20,3
348,743	26,02
349,265	22,43
349,787	22,06
350,309	21,71
350,831	23,28
351,353	21,86
351,875	27,52
352,397	25
352,918	24,91
353,439	20,8
353,961	26,72
354,482	22,22
355,003	22,26
355,524	26,07
356,044	27,71
356,565	23,4
357,086	24,74
357,606	22,62
358,126	22,11
358,646	25,62
359,167	27,71
359,687	19,5
360,206	22,75
360,726	23,77
361,246	24,26
361,765	19,37
362,285	25,48
362,804	23
363,323	25,42
363,842	23,77
364,361	24,33
364,88	24,87
365,398	23,82
365,917	28,68
366,435	22,49
366,954	22,44
367,472	21,95
367,99	19,33
368,508	22,38
369,026	28,64
369,544	22,93
370,061	21
370,579	24,01
371,096	23,82
371,613	22,75
372,131	25,8
372,648	20,34
373,165	26
373,681	19,51
374,198	19,56
374,715	22,42
375,231	27,75
375,747	22,57
376,264	17,86
376,78	25,54
377,296	21,61
377,812	21,08
378,327	25,95
378,843	21,16
379,359	22,42
379,874	20,19
380,389	17,81
380,905	21,45
381,42	17,3
381,935	20,11
382,449	22,52
382,964	19,41
383,479	21,45
383,993	17,68
384,508	21,41
385,022	20,28
385,536	18,1
386,05	20,14
386,564	14,64
387,078	20,15
387,592	20,83
388,105	18,56
388,619	19,24
389,132	18,92
389,645	18,58
390,158	19,87
390,671	19,15
391,184	17,12
391,697	16,13
392,21	14,46
392,722	16,32
393,235	15,1
393,747	13,53
394,259	16,05
394,771	16,5
395,283	13,65
395,795	16,31
396,307	15,4
396,818	14,87
397,33	15,75
397,841	16,11
398,353	14,08
398,864	15,14
399,375	13,63
399,886	15,98
400,397	15,88
400,907	15,42
401,418	14,04
401,928	12,58
402,439	12,03
402,949	12,86
403,459	12,37
403,969	13
404,479	11,5
404,989	10,96
405,498	11,1
406,008	11,74
406,517	11,46
407,027	10,15
407,536	10,12
408,045	10,44
408,554	9,85
409,063	9,15
409,572	9,27
410,08	9,19
410,589	8,26
411,097	9
411,606	8,08
412,114	8,52
412,622	7,62
413,13	7,26
413,638	6,53
414,145	7,86
414,653	7,6
415,16	5,81
415,668	6,46
416,175	7,13
416,682	6,44
417,189	6,48
417,696	6,24
418,203	6,01
418,71	6,12
419,216	5,94
419,723	6,06
420,229	5,97
420,735	5,65
421,242	5,32
421,748	5,47
422,254	5,69
422,759	5,56
423,265	5,5
423,771	5,34
424,276	5,48
424,781	5,61
425,287	5,13
425,792	4,95
426,297	5,11
426,802	5,52
427,306	5,19
427,811	5,45
428,316	5,42
428,82	4,95
429,324	5,31
429,829	4,77
430,333	5,38
430,837	5,23
431,34	5,18
431,844	4,89
432,348	5,28
432,851	5,19
433,355	4,83
433,858	5,07
434,361	5,4
434,864	4,83
435,367	4,97
435,87	4,62
436,373	4,67
436,876	5,31
437,378	4,5
437,88	5,23
438,383	5,11
438,885	5,2
439,387	4,57
439,889	4,98
440,391	5,06
440,892	4,87
441,394	4,85
441,896	4,52
442,397	4,89
442,898	5,35
443,399	4,91
443,9	5,13
444,401	4,82
444,902	4,95
445,403	5,02
445,903	4,67
446,404	4,77
446,904	4,92
447,405	5,04
447,905	5,07
448,405	4,87
448,905	4,73
449,404	5,02
449,904	5
450,404	4,73
450,903	4,73
451,403	5,25
451,902	5,07
452,401	5,35
452,9	4,94
453,399	5,28
453,898	5,38
454,396	5,31
454,895	5,29
455,393	5,69
455,892	5,17
456,39	5,25
456,888	5,46
457,386	5,33
457,884	5,13
458,382	5,1
458,879	4,9
459,377	5,03
459,874	5,2
460,372	5,37
460,869	5,14
461,366	5,34
461,863	5,03
462,36	5,3
462,857	4,9
463,353	5,22
463,85	5,05
464,346	5,04
464,843	5,2
465,339	5,24
465,835	5,55
466,331	5,15
466,827	4,95
467,323	5,23
467,818	5,19
468,314	5,22
468,809	5,48
469,305	5,18
469,8	4,95
470,295	5,26
470,79	5,45
471,285	5,16
471,78	5,14
472,274	5,12
472,769	5,28
473,263	5,31
473,758	5,16
474,252	5,33
474,746	5,24
475,24	5,12
475,734	5
476,228	5,43
476,721	5,34
477,215	5,06
477,708	5,25
478,202	5,32
478,695	5,62
479,188	5,28
479,681	5,33
480,174	5,17
480,667	5,49
481,159	5,3
481,652	5,42
482,144	5,62
482,637	5,42
483,129	5,25
483,621	5,45
484,113	5,59
484,605	5,64
485,097	5,54
485,588	5,55
486,08	5,24
486,571	5,83
487,063	5,44
487,554	5,39
488,045	5,62
488,536	5,48
489,027	5,85
489,518	5,92
490,008	5,55
490,499	5,71
490,989	5,73
491,48	5,79
491,97	5,83
492,46	5,77
492,95	5,96
493,44	5,77
493,93	5,8
494,419	6,05
494,909	6,31
495,398	5,85
495,888	6,14
496,377	6,06
496,866	6,07
497,355	6,31
497,844	6,36
498,333	6,33
498,821	6,45
499,31	6,62
499,798	6,48
500,287	6,57
500,775	7,01
501,263	6,88
501,751	7,09
502,239	7,03
502,727	6,88
503,215	7,22
503,702	7,22
504,19	7,45
504,677	7,46
505,164	7,64
505,651	7,82
506,139	7,81
506,625	8,21
507,112	8,12
507,599	8,41
508,086	8,27
508,572	8,31
509,058	8,62
509,545	8,93
510,031	8,99
510,517	9,19
511,003	9,25
511,489	9,63
511,974	9,79
512,46	9,94
512,946	10,18
513,431	9,93
513,916	10,22
514,401	10,82
514,887	10,88
515,371	11,03
515,856	11,31
516,341	11,47
516,826	11,66
517,31	11,9
517,795	12,17
518,279	12,17
518,763	12,82
519,247	12,95
519,731	13
520,215	13,19
520,699	13,47
521,182	13,63
521,666	14,14
522,149	14,56
522,633	14,62
523,116	14,43
523,599	14,89
524,082	15,3
524,565	15,34
525,048	15,46
525,53	15,37
526,013	16,11
526,495	15,97
526,978	16,3
527,46	16,4
527,942	16,76
528,424	16,76
528,906	16,83
529,388	16,91
529,87	17,15
530,351	17,35
530,833	17,6
531,314	17,77
531,795	18,03
532,277	17,77
532,758	17,76
533,238	18,13
533,719	18,22
534,2	18,56
534,681	18,14
535,161	18,42
535,642	18,39
536,122	18,47
536,602	18,45
537,082	18,66
537,562	18,7
538,042	18,7
538,522	18,41
539,001	18,63
539,481	18,71
539,96	18,93
540,44	18,91
540,919	18,76
541,398	19,06
541,877	19,02
542,356	19,05
542,835	19,06
543,313	19,22
543,792	18,86
544,27	19,3
544,749	18,97
545,227	19,36
545,705	19,25
546,183	18,76
546,661	19,19
547,139	19,22
547,616	18,97
548,094	19,16
548,571	19,45
549,049	19,47
549,526	19,67
550,003	19,11
550,48	19,59
550,957	19,38
551,434	19,68
551,911	19,55
552,387	19,51
552,864	19,22
553,34	19,27
553,817	19,42
554,293	19,37
554,769	19,5
555,245	19,64
555,721	19,63
556,197	19,6
556,672	19,18
557,148	19,71
557,623	19,3
558,099	19,19
558,574	19,55
559,049	19,47
559,524	19,15
559,999	19,19
560,474	19,37
560,948	19,21
561,423	19,23
561,897	18,93
562,372	19,29
562,846	18,84
563,32	18,96
563,794	18,83
564,268	18,57
564,742	18,38
565,216	18,51
565,69	18,51
566,163	18,44
566,636	18,31
567,11	17,87
567,583	18,16
568,056	18,29
568,529	17,82
569,002	17,45
569,475	17,66
569,947	17,68
570,42	17,27
570,892	17,21
571,365	17,23
571,837	17
572,309	17,02
572,781	16,64
573,253	16,53
573,725	16,49
574,197	16,65
574,668	16,14
575,14	16,17
575,611	15,91
576,082	16,14
576,554	15,9
577,025	15,65
577,496	15,73
577,967	15,36
578,437	15,36
578,908	15,32
579,379	15,22
579,849	15,03
580,319	14,97
580,79	14,86
581,26	14,84
581,73	14,68
582,2	14,74
582,669	14,35
583,139	14,48
583,609	14,53
584,078	14,28
584,548	14,2
585,017	14,27
585,486	13,97
585,955	14
586,424	14,04
586,893	13,96
587,362	13,73
587,83	13,78
588,299	13,64
588,767	13,76
589,236	13,55
589,704	13,46
590,172	13,42
590,64	13,4
591,108	13,48
591,576	13,46
592,043	13,34
592,511	13,36
592,978	13,16
593,446	13,32
593,913	13,28
594,38	13,08
594,847	12,8
595,314	13,11
595,781	13,33
596,248	13,09
596,715	13,08
597,181	12,9
597,647	13
598,114	12,92
598,58	13,16
599,046	13,04
599,512	13,12
599,978	12,76
600,444	12,65
600,91	12,51
601,375	12,54
601,841	12,65
602,306	12,56
602,771	12,66
603,236	12,7
603,702	12,56
604,167	12,45
604,631	12,35
605,096	12,53
605,561	12,29
606,025	12,15
606,49	12,3
606,954	12,4
607,418	12,1
607,882	11,83
608,347	12,02
608,81	11,79
609,274	11,91
609,738	11,8
610,202	11,78
610,665	11,81
611,128	11,68
611,592	11,52
612,055	11,4
612,518	11,46
612,981	11,27
613,444	11,21
613,907	11,21
614,369	11,08
614,832	11,04
615,294	10,99
615,757	10,84
616,219	10,82
616,681	10,72
617,143	10,66
617,605	10,73
618,067	10,56
618,529	10,48
618,99	10,68
619,452	10,54
619,913	10,45
620,375	10,3
620,836	10,36
621,297	10,12
621,758	10,17
622,219	10,2
622,68	10,12
623,14	10
623,601	10,1
624,061	9,89
624,522	9,89
624,982	10,09
625,442	10
625,902	9,95
626,362	9,97
626,822	9,92
627,282	9,84
627,742	9,79
628,201	9,94
628,661	10,07
629,12	9,72
629,579	9,74
630,038	9,88
630,497	9,77
630,956	9,84
631,415	9,76
631,874	9,81
632,332	9,79
632,791	9,87
633,249	9,59
633,708	9,64
634,166	9,66
634,624	9,46
635,082	9,57
635,54	9,4
635,998	9,36
636,455	9,37
636,913	9,37
637,37	9,33
637,828	9,11
638,285	9,09
638,742	8,93
639,199	8,89
639,656	8,83
640,113	8,71
640,57	8,78
641,027	8,52
641,483	8,6
641,94	8,49
642,396	8,34
642,852	8,29
643,309	8,21
643,765	8,04
644,221	8,08
644,676	7,92
645,132	7,89
645,588	7,81
646,043	7,64
646,499	7,65
646,954	7,52
647,409	7,42
647,864	7,37
648,319	7,29
648,774	7,2
649,229	7,11
649,684	7,21
650,139	7,13
650,593	7,01
651,047	6,97
651,502	7,02
651,956	7
652,41	6,83
652,864	6,77
653,318	6,78
653,772	6,82
654,225	6,69
654,679	6,6
655,133	6,62
655,586	6,65
656,039	6,6
656,492	6,51
656,946	6,36
657,399	6,49
657,851	6,42
658,304	6,46
658,757	6,41
659,209	6,32
659,662	6,03
660,114	6,11
660,567	6,02
661,019	5,99
661,471	5,92
661,923	5,91
662,375	5,87
662,826	5,85
663,278	5,73
663,73	5,81
664,181	5,61
664,632	5,63
665,084	5,56
665,535	5,5
665,986	5,6
666,437	5,54
666,888	5,48
667,338	5,55
667,789	5,55
668,24	5,46
668,69	5,46
669,14	5,55
669,591	5,49
670,041	5,5
670,491	5,54
670,941	5,54
671,391	5,71
671,84	5,7
672,29	5,65
672,74	5,69
673,189	5,7
673,638	5,87
674,088	5,86
674,537	5,88
674,986	5,9
675,435	6,08
675,883	6,19
676,332	6,23
676,781	6,15
677,229	6,28
677,678	6,45
678,126	6,58
678,574	6,69
679,022	6,59
679,47	6,81
679,918	6,86
680,366	7
680,814	7,05
681,261	7,14
681,709	7,23
682,156	7,38
682,604	7,39
683,051	7,46
683,498	7,59
683,945	7,8
684,392	7,8
684,839	7,88
685,286	8
685,732	8,22
686,179	8,2
686,625	8,29
687,071	8,41
687,518	8,65
687,964	8,71
688,41	8,66
688,856	9,07
689,301	9,28
689,747	9,41
690,193	9,57
690,638	9,77
691,084	10,07
691,529	10,37
691,974	10,65
692,419	10,96
692,864	11,28
693,309	11,78
693,754	11,92
694,199	12,43
694,643	12,62
695,088	13,12
695,532	13,4
695,977	13,76
696,421	14,27
696,865	14,5
697,309	14,92
697,753	15,13
698,197	15,68
698,64	16,08
699,084	16,43
699,527	16,81
699,971	16,98
700,414	17,46
700,857	17,8
701,3	18,07
701,743	18,67
702,186	18,88
702,629	18,97
703,072	19,5
703,515	19,98
703,957	20,19
704,399	20,43
704,842	20,39
705,284	21
705,726	21,11
706,168	21,35
706,61	21,74
707,052	22,02
707,494	22,17
707,935	22,62
708,377	22,75
708,818	23,05
709,26	23,27
709,701	23,26
710,142	23,76
710,583	24
711,024	23,91
711,465	24,49
711,905	24,78
712,346	24,71
712,787	24,98
713,227	25,07
713,667	25,35
714,108	25,6
714,548	25,81
714,988	25,83
715,428	26,21
715,868	26,31
716,307	26,43
716,747	26,53
717,186	26,79
717,626	26,9
718,065	27,09
718,504	27,35
718,944	27,79
719,383	27,7
719,822	27,79
720,261	27,85
720,699	28,08
721,138	28,21
721,576	28,28
722,015	28,36
722,453	28,63
722,892	28,7
723,33	28,72
723,768	28,92
724,206	29,01
724,644	29,31
725,081	29,31
725,519	29,33
725,957	29,54
726,394	29,49
726,832	29,63
727,269	29,71
727,706	30
728,143	29,87
728,58	30
729,017	29,82
729,454	30,08
729,89	30,12
730,327	30,43
730,764	30,21
731,2	30,36
731,636	30,17
732,072	30,42
732,509	30,51
732,945	30,46
733,38	30,63
733,816	30,81
734,252	30,63
734,688	30,78
735,123	30,8
735,559	30,5
735,994	30,74
736,429	31,15
736,864	30,82
737,299	30,74
737,734	30,98
738,169	31,06
738,604	30,71
739,038	30,98
739,473	30,95
739,907	30,89
740,342	31,07
740,776	31,09
741,21	31,11
741,644	31,08
742,078	30,96
742,512	30,99
742,946	30,95
743,379	30,91
743,813	30,83
744,246	30,75
744,68	30,97
745,113	30,85
745,546	30,9
745,979	30,86
746,412	31,02
746,845	30,88
747,278	31,04
747,711	30,81
748,143	31,12
748,576	30,71
749,008	30,91
749,441	30,78
749,873	30,65
750,305	30,76
750,737	30,77
751,169	30,55
751,601	30,64
752,032	30,7
752,464	30,56
752,896	30,69
753,327	30,48
753,758	30,44
754,19	30,62
754,621	30,21
755,052	30,51
755,483	30,36
755,914	30,2
756,344	30,31
756,775	30,29
757,206	30,26
757,636	30,37
758,066	30,22
758,497	30,18
758,927	30,11
759,357	30,04
759,787	30
760,217	29,94
760,647	30,08
761,076	30,31
761,506	30,2
761,935	30,12
762,365	30,14
762,794	30
763,223	29,95
763,653	29,84
764,082	29,9
764,51	30
764,939	29,97
765,368	29,7
765,797	29,72
766,225	29,64
766,654	29,77
767,082	29,81
767,51	29,56
767,938	29,98
768,367	29,95
768,795	29,64
769,222	29,6
769,65	29,64
770,078	29,61
770,505	29,57
770,933	29,77
771,36	29,5
771,788	29,71
772,215	29,65
772,642	29,57
773,069	29,7
773,496	29,75
773,923	29,54
774,349	29,47
774,776	29,63
775,203	29,51
775,629	29,65
776,055	29,31
776,482	29,27
776,908	29,49
777,334	29,43
777,76	29,35
778,186	29,23
778,611	29,21
779,037	29,3
779,463	29,52
779,888	29,33
780,314	29,6
780,739	29,47
781,164	29,32
781,589	29,21
782,014	29,32
782,439	29,03
782,864	29,36
783,289	29,16
783,713	29,35
784,138	29,24
784,562	29,21
784,987	29,2
785,411	29,22
785,835	29,28
786,259	29,3
786,683	29,34
787,107	29,16
787,531	29,06
787,954	29,44
788,378	28,84
788,802	28,98
789,225	29,06
789,648	29,2
790,071	29,14
790,495	29,1
790,918	29,11
791,34	29,08
791,763	28,86
792,186	29,04
792,609	29,06
793,031	29,04
793,454	29,11
793,876	28,97
794,298	28,69
794,721	29,01
795,143	28,94
795,565	29,15
795,986	29,09
796,408	29,08
796,83	28,92
797,252	29,06
797,673	29,06
798,094	28,8
798,516	29,15
798,937	28,82
799,358	28,98
799,779	29,02
800,2	28,95
800,621	28,74
801,042	28,92
801,462	28,99
801,883	28,98
802,303	28,87
802,724	28,94
803,144	28,88
803,564	28,8
803,984	29,19
804,404	28,97
804,824	28,81
805,244	28,94
805,664	28,57
806,084	28,78
806,503	28,71
806,923	29
807,342	29,16
807,761	28,69
808,18	29,02
808,599	28,78
809,018	28,64
809,437	28,99
809,856	28,94
810,275	28,95
810,693	28,97
811,112	28,57
811,53	28,73
811,949	28,78
812,367	28,89
812,785	28,73
813,203	28,62
813,621	28,89
814,039	28,54
814,457	28,96
814,874	28,95
815,292	28,67
815,709	28,69
816,127	29,03
816,544	28,82
816,961	28,91
817,378	28,89
817,795	28,69
818,212	28,54
818,629	28,78
819,046	28,64
819,462	28,9
819,879	28,82
820,295	28,74
820,712	28,95
821,128	28,93
821,544	28,72
821,96	28,77
822,376	28,73
822,792	28,75
823,208	28,76
823,624	28,52
824,039	28,9
824,455	28,45
824,87	28,79
825,286	28,58
825,701	28,71
826,116	29,02
826,531	28,62
826,946	28,81
827,361	28,72
827,776	28,74
828,19	28,72
828,605	28,84
829,02	28,8
829,434	28,89
829,848	28,66
830,263	28,83
830,677	28,4
831,091	28,65
831,505	28,78
831,919	28,87
832,332	28,8
832,746	28,63
833,16	28,28
833,573	28,27
833,987	28,63
834,4	28,63
834,813	28,92
835,226	28,58
835,639	28,59
836,052	28,69
836,465	28,6
836,878	28,58
837,29	28,74
837,703	28,74
838,116	28,48
838,528	28,5
838,94	28,44
839,352	28,6
839,765	28,53
840,177	28,67
840,589	28,66
841	28,8
841,412	28,58
841,824	28,29
842,235	28,32
842,647	28,35
843,058	28,63
843,47	28,69
843,881	28,51
844,292	28,69
844,703	28,55
845,114	28,49
845,525	28,56
