Data from H_1_0_Relative__6__00173.txt Node

Date: Mon Jan 29 13:08:00 CET 2024
User: diatiterra
Spectrometer: HDX00911
Trigger mode: 0
Integration Time (sec): 6,000000E-3
Scans to average: 2
Nonlinearity correction enabled: false
Boxcar width: 0
Storing dark spectrum: false
XAxis mode: Wavelengths
Number of Pixels in Spectrum: 2068
>>>>>Begin Spectral Data<<<<<
194,468	40,24
195,025	23,12
195,581	34,3
196,138	30,99
196,694	42,38
197,251	28,65
197,807	30,88
198,363	24,41
198,919	32,33
199,474	26,67
200,03	25,83
200,586	32,43
201,141	25,21
201,696	24,95
202,251	26,88
202,806	22,18
203,361	25,74
203,916	29,64
204,471	25,17
205,025	26,88
205,58	31,99
206,134	21,56
206,688	27,11
207,242	27,81
207,796	31,43
208,35	27,33
208,904	27,76
209,457	29,89
210,011	28,12
210,564	26,82
211,117	32,3
211,67	26,36
212,223	26,12
212,776	35,28
213,329	31,52
213,881	28,75
214,434	32,18
214,986	27,66
215,538	28,98
216,09	32,51
216,642	26,12
217,194	32,08
217,746	31,99
218,297	25,75
218,849	28,76
219,4	34,66
219,951	31,56
220,502	26,98
221,053	30,46
221,604	32,71
222,155	28,05
222,705	29,44
223,256	31,02
223,806	26,21
224,356	28,42
224,906	33,96
225,456	28
226,006	26,59
226,556	31,73
227,106	33,04
227,655	32,62
228,204	26,33
228,754	30,18
229,303	24,4
229,852	33,69
230,401	31,53
230,949	36,7
231,498	31,78
232,047	24,63
232,595	27,41
233,143	27,31
233,691	26,23
234,239	31,7
234,787	27,95
235,335	35,91
235,883	26
236,43	28,51
236,978	32,18
237,525	27,46
238,072	41,83
238,619	27,57
239,166	35,98
239,713	22,15
240,26	31,74
240,806	32,25
241,353	28,28
241,899	38,33
242,445	30,72
242,991	29,72
243,537	27,4
244,083	31,54
244,629	40,04
245,174	30,57
245,72	32,89
246,265	24,01
246,81	36,79
247,355	33,41
247,9	36,32
248,445	20,26
248,99	31,62
249,534	33,56
250,079	31,11
250,623	32,85
251,168	35,57
251,712	38,71
252,256	23,87
252,8	28,32
253,343	28,67
253,887	34,04
254,43	25,54
254,974	36,47
255,517	33,69
256,06	33,33
256,603	25,45
257,146	35,27
257,689	27,06
258,232	36,28
258,774	26,49
259,317	33,41
259,859	30,98
260,401	37,66
260,943	27,78
261,485	27,56
262,027	30,63
262,569	30,5
263,11	32,26
263,652	19,29
264,193	25,16
264,734	25,69
265,275	33,1
265,816	28,35
266,357	32,2
266,898	28,08
267,438	32,57
267,979	30,09
268,519	36,54
269,059	34,11
269,6	33,63
270,14	28,83
270,68	33,05
271,219	36,71
271,759	28,54
272,298	30,73
272,838	27,98
273,377	31,89
273,916	28,86
274,455	28,29
274,994	33,04
275,533	28,18
276,072	27,68
276,61	28,63
277,149	28,16
277,687	27,92
278,225	26,47
278,763	32,13
279,301	19,78
279,839	25,59
280,377	25,83
280,914	30,16
281,452	37,39
281,989	24,18
282,526	32,83
283,064	30,44
283,601	28,77
284,137	27,62
284,674	32,28
285,211	31,37
285,747	20,05
286,284	33,56
286,82	33,94
287,356	32,01
287,892	29,48
288,428	22,32
288,964	30,12
289,5	26,52
290,035	29,14
290,571	28,05
291,106	28,96
291,641	33,64
292,176	35,21
292,711	35,75
293,246	29,36
293,781	33,41
294,315	22,69
294,85	22,35
295,384	31,91
295,918	27,11
296,453	39,62
296,987	31,99
297,52	30,48
298,054	28,86
298,588	37,61
299,121	29,27
299,655	38,24
300,188	20,05
300,721	34,19
301,254	31,28
301,787	34,62
302,32	27,65
302,853	27,09
303,385	29,96
303,918	28,95
304,45	27,19
304,982	34
305,514	28,47
306,046	24,07
306,578	21,05
307,11	30,54
307,641	30,36
308,173	27,73
308,704	21,88
309,236	33,58
309,767	21,88
310,298	34,15
310,829	27,7
311,359	24,53
311,89	36,34
312,421	27,58
312,951	20,93
313,481	32,72
314,012	28,64
314,542	27,76
315,072	23,87
315,601	30,63
316,131	29,29
316,661	28,74
317,19	25,11
317,72	22,86
318,249	27,99
318,778	25
319,307	26,82
319,836	30,72
320,365	28,57
320,893	28,42
321,422	20,51
321,95	26,44
322,479	25,28
323,007	21,74
323,535	29,53
324,063	22,22
324,591	30,26
325,118	26,81
325,646	34,91
326,173	29,45
326,701	25,95
327,228	25
327,755	26,56
328,282	24,06
328,809	24,5
329,336	28,87
329,862	34,32
330,389	28,74
330,915	25
331,441	27,97
331,968	22,89
332,494	23
333,02	25,59
333,545	29,18
334,071	29,69
334,597	24,04
335,122	23,61
335,648	30,67
336,173	32,32
336,698	23,85
337,223	28,2
337,748	36,97
338,272	19,04
338,797	26,9
339,322	25,11
339,846	21,06
340,37	24,3
340,894	23,83
341,419	29,62
341,942	17,85
342,466	30,06
342,99	29,88
343,514	20,96
344,037	18,8
344,56	18,83
345,084	21,97
345,607	16,97
346,13	25,57
346,653	24,81
347,175	26
347,698	29,27
348,221	22,53
348,743	18,96
349,265	23,13
349,787	23,84
350,309	24,44
350,831	21,21
351,353	26,33
351,875	22,15
352,397	25,67
352,918	20,48
353,439	24,65
353,961	25,71
354,482	18,86
355,003	23,57
355,524	21,19
356,044	21,66
356,565	24,01
357,086	18,74
357,606	22,62
358,126	23,59
358,646	19,38
359,167	23,95
359,687	24,21
360,206	24,22
360,726	23,19
361,246	23,09
361,765	23,39
362,285	20,77
362,804	23,27
363,323	18,96
363,842	19,23
364,361	20,32
364,88	21,18
365,398	21,97
365,917	20,6
366,435	17,87
366,954	17,46
367,472	24,01
367,99	18,81
368,508	19,21
369,026	22,77
369,544	19,76
370,061	18,9
370,579	22,88
371,096	17,57
371,613	24,12
372,131	23,52
372,648	19,05
373,165	22,23
373,681	17,96
374,198	22,42
374,715	20,51
375,231	16,86
375,747	17,86
376,264	17,66
376,78	21,44
377,296	15,92
377,812	23,02
378,327	14,83
378,843	17,47
379,359	12,3
379,874	17,24
380,389	18,33
380,905	18,34
381,42	18,8
381,935	16,24
382,449	12,91
382,964	13,66
383,479	15,07
383,993	14,07
384,508	19,67
385,022	15,43
385,536	13,11
386,05	16,16
386,564	17,49
387,078	16,43
387,592	18,07
388,105	16,09
388,619	14,43
389,132	14,9
389,645	12,45
390,158	15,89
390,671	16,18
391,184	14,31
391,697	14,29
392,21	14,35
392,722	14,37
393,235	13,74
393,747	13,12
394,259	13,17
394,771	14,34
395,283	12,35
395,795	12,66
396,307	13,4
396,818	11,24
397,33	13,5
397,841	12,81
398,353	10,77
398,864	10,62
399,375	11,69
399,886	11,66
400,397	10,77
400,907	11,44
401,418	10,68
401,928	9,97
402,439	9,5
402,949	11,05
403,459	9,46
403,969	9,74
404,479	9,96
404,989	9,09
405,498	8,98
406,008	8,68
406,517	9,54
407,027	8,93
407,536	7,5
408,045	7,22
408,554	6,66
409,063	6,9
409,572	7,64
410,08	7,59
410,589	6,89
411,097	7,16
411,606	6,44
412,114	6,12
412,622	6,85
413,13	5,55
413,638	6,02
414,145	6,18
414,653	5,63
415,16	4,52
415,668	4,57
416,175	4,63
416,682	4,56
417,189	5
417,696	5,17
418,203	4,4
418,71	4,47
419,216	4,41
419,723	4,62
420,229	4,55
420,735	3,96
421,242	4,36
421,748	4,41
422,254	4,35
422,759	4,12
423,265	4,06
423,771	4,3
424,276	3,8
424,781	4,18
425,287	3,85
425,792	3,93
426,297	3,89
426,802	3,98
427,306	4
427,811	3,84
428,316	3,89
428,82	3,88
429,324	3,63
429,829	3,97
430,333	4,2
430,837	4,27
431,34	3,62
431,844	3,76
432,348	3,79
432,851	4,02
433,355	3,21
433,858	4,06
434,361	3,88
434,864	3,73
435,367	3,67
435,87	3,65
436,373	3,12
436,876	4,1
437,378	4
437,88	3,74
438,383	3,57
438,885	3,63
439,387	4,17
439,889	3,77
440,391	3,74
440,892	3,99
441,394	3,4
441,896	3,81
442,397	3,89
442,898	4,17
443,399	3,31
443,9	3,86
444,401	3,77
444,902	3,73
445,403	3,82
445,903	3,7
446,404	3,62
446,904	3,79
447,405	3,48
447,905	3,97
448,405	4,07
448,905	4,11
449,404	3,93
449,904	3,83
450,404	3,79
450,903	3,89
451,403	4,17
451,902	4,18
452,401	3,83
452,9	3,75
453,399	3,61
453,898	4,24
454,396	4,06
454,895	3,96
455,393	4,14
455,892	3,95
456,39	4,23
456,888	4,38
457,386	4,1
457,884	4,21
458,382	4,17
458,879	3,99
459,377	4,23
459,874	4,23
460,372	4,34
460,869	3,87
461,366	4,14
461,863	4,07
462,36	4,08
462,857	4,38
463,353	4,4
463,85	3,78
464,346	4,28
464,843	4,26
465,339	4,12
465,835	3,87
466,331	3,94
466,827	4,1
467,323	4,21
467,818	4,23
468,314	4,15
468,809	4,15
469,305	3,98
469,8	4,03
470,295	3,97
470,79	4,39
471,285	3,85
471,78	4,21
472,274	4,08
472,769	4,21
473,263	4,23
473,758	4,19
474,252	4,22
474,746	4,28
475,24	4,19
475,734	4,22
476,228	4,28
476,721	4,06
477,215	4,37
477,708	4,15
478,202	4,45
478,695	4,13
479,188	4,02
479,681	4,03
480,174	4,41
480,667	4,41
481,159	4,24
481,652	4,26
482,144	4,2
482,637	4,29
483,129	4,16
483,621	4,5
484,113	4,41
484,605	4,42
485,097	4,34
485,588	4,5
486,08	4,31
486,571	4,57
487,063	4,43
487,554	4,57
488,045	4,33
488,536	4,59
489,027	4,61
489,518	4,75
490,008	4,54
490,499	4,58
490,989	4,72
491,48	4,78
491,97	4,69
492,46	4,71
492,95	4,69
493,44	4,79
493,93	4,65
494,419	4,85
494,909	4,91
495,398	4,91
495,888	4,84
496,377	4,86
496,866	4,97
497,355	5,12
497,844	5,18
498,333	5,45
498,821	5,35
499,31	5,54
499,798	5,23
500,287	5,66
500,775	5,62
501,263	5,92
501,751	5,74
502,239	6,17
502,727	6
503,215	6,12
503,702	6,46
504,19	6,23
504,677	6,42
505,164	6,62
505,651	6,8
506,139	6,64
506,625	7,15
507,112	7,26
507,599	7,26
508,086	7,55
508,572	7,57
509,058	7,65
509,545	7,64
510,031	8,31
510,517	8,18
511,003	8,43
511,489	8,3
511,974	8,66
512,46	8,92
512,946	9,16
513,431	9,15
513,916	9,49
514,401	9,7
514,887	9,64
515,371	10,17
515,856	10,49
516,341	10,64
516,826	10,87
517,31	11,12
517,795	11,44
518,279	11,5
518,763	11,73
519,247	12,15
519,731	12,3
520,215	12,48
520,699	12,55
521,182	13,21
521,666	13,13
522,149	13,42
522,633	14,09
523,116	13,85
523,599	14,25
524,082	14,74
524,565	14,64
525,048	14,73
525,53	14,9
526,013	15,45
526,495	15,26
526,978	16,06
527,46	15,85
527,942	15,81
528,424	16,37
528,906	16,38
529,388	16,34
529,87	16,6
530,351	16,71
530,833	16,87
531,314	16,91
531,795	17,04
532,277	17,44
532,758	17,39
533,238	17,33
533,719	17,51
534,2	17,65
534,681	18,16
535,161	17,8
535,642	17,99
536,122	18,28
536,602	18,44
537,082	18,28
537,562	18,11
538,042	18,37
538,522	18,28
539,001	18,77
539,481	18,21
539,96	18,52
540,44	18,53
540,919	18,47
541,398	18,7
541,877	18,82
542,356	18,79
542,835	18,63
543,313	19,29
543,792	18,89
544,27	18,87
544,749	18,88
545,227	19,22
545,705	18,95
546,183	18,85
546,661	18,84
547,139	18,97
547,616	18,98
548,094	18,74
548,571	19,09
549,049	19,01
549,526	19,02
550,003	19,23
550,48	19,2
550,957	19,2
551,434	19,17
551,911	19,17
552,387	19,43
552,864	19,19
553,34	19,36
553,817	19,24
554,293	19,38
554,769	19,18
555,245	19,16
555,721	19,16
556,197	19,53
556,672	19,36
557,148	19,43
557,623	19,16
558,099	19,21
558,574	19,23
559,049	18,82
559,524	18,99
559,999	19,25
560,474	18,87
560,948	19,16
561,423	18,92
561,897	19,14
562,372	18,81
562,846	18,66
563,32	18,23
563,794	18,4
564,268	18,73
564,742	18,29
565,216	18,25
565,69	18,22
566,163	17,91
566,636	17,84
567,11	17,6
567,583	17,91
568,056	17,39
568,529	17,43
569,002	17,32
569,475	17,23
569,947	17,06
570,42	16,91
570,892	17,08
571,365	16,84
571,837	16,42
572,309	16,45
572,781	16,09
573,253	16,31
573,725	15,93
574,197	15,96
574,668	15,72
575,14	15,55
575,611	15,42
576,082	15,33
576,554	15,34
577,025	15,46
577,496	15,16
577,967	15,08
578,437	14,85
578,908	14,61
579,379	14,7
579,849	14,57
580,319	14,24
580,79	14,46
581,26	14,03
581,73	14,11
582,2	14,19
582,669	13,98
583,139	14,24
583,609	13,86
584,078	13,45
584,548	13,65
585,017	13,48
585,486	13,52
585,955	13,54
586,424	13,42
586,893	13,34
587,362	13,42
587,83	13,33
588,299	13,27
588,767	13,04
589,236	13,01
589,704	12,82
590,172	13,06
590,64	12,72
591,108	12,42
591,576	12,74
592,043	12,68
592,511	12,52
592,978	12,82
593,446	12,7
593,913	12,59
594,38	12,69
594,847	12,36
595,314	12,42
595,781	12,53
596,248	12,33
596,715	12,37
597,181	12,28
597,647	12,31
598,114	12,21
598,58	12,35
599,046	12,28
599,512	12,25
599,978	12,19
600,444	12
600,91	11,93
601,375	11,95
601,841	12,05
602,306	12
602,771	12
603,236	11,98
603,702	11,77
604,167	11,83
604,631	11,96
605,096	11,72
605,561	11,72
606,025	11,71
606,49	11,77
606,954	11,57
607,418	11,45
607,882	11,35
608,347	11,25
608,81	11,37
609,274	11,26
609,738	10,96
610,202	11,29
610,665	11,12
611,128	11,08
611,592	10,89
612,055	10,63
612,518	10,79
612,981	10,63
613,444	10,47
613,907	10,65
614,369	10,49
614,832	10,36
615,294	10,32
615,757	10,21
616,219	10,19
616,681	10,09
617,143	10,11
617,605	10,03
618,067	9,77
618,529	9,93
618,99	9,87
619,452	9,69
619,913	9,69
620,375	9,7
620,836	9,49
621,297	9,49
621,758	9,33
622,219	9,59
622,68	9,24
623,14	9,53
623,601	9,36
624,061	9,34
624,522	9,32
624,982	9,33
625,442	9,32
625,902	9,23
626,362	9,29
626,822	9,36
627,282	9,17
627,742	9,36
628,201	9,25
628,661	9,17
629,12	9,03
629,579	9,1
630,038	9,19
630,497	9,15
630,956	9,15
631,415	9,06
631,874	8,95
632,332	8,97
632,791	8,88
633,249	9,02
633,708	9,12
634,166	8,81
634,624	8,87
635,082	8,87
635,54	8,65
635,998	8,68
636,455	8,73
636,913	8,65
637,37	8,38
637,828	8,53
638,285	8,43
638,742	8,39
639,199	8,28
639,656	8,16
640,113	7,97
640,57	7,95
641,027	7,8
641,483	7,74
641,94	7,71
642,396	7,69
642,852	7,55
643,309	7,33
643,765	7,36
644,221	7,26
644,676	7,23
645,132	7,01
645,588	7,07
646,043	6,98
646,499	6,89
646,954	6,77
647,409	6,7
647,864	6,55
648,319	6,52
648,774	6,33
649,229	6,45
649,684	6,43
650,139	6,33
650,593	6,24
651,047	6,21
651,502	6,09
651,956	6,19
652,41	6,02
652,864	6,07
653,318	6,1
653,772	5,97
654,225	6,06
654,679	5,86
655,133	5,9
655,586	5,92
656,039	5,72
656,492	5,84
656,946	5,69
657,399	5,62
657,851	5,55
658,304	5,58
658,757	5,45
659,209	5,49
659,662	5,28
660,114	5,39
660,567	5,29
661,019	5,27
661,471	5,25
661,923	5,22
662,375	4,99
662,826	4,99
663,278	5,04
663,73	4,93
664,181	4,75
664,632	4,84
665,084	4,93
665,535	4,79
665,986	4,85
666,437	4,78
666,888	4,75
667,338	4,66
667,789	4,76
668,24	4,75
668,69	4,67
669,14	4,6
669,591	4,73
670,041	4,65
670,491	4,7
670,941	4,79
671,391	4,81
671,84	4,85
672,29	4,75
672,74	4,89
673,189	4,91
673,638	4,89
674,088	5,01
674,537	5,16
674,986	5,14
675,435	5,28
675,883	5,23
676,332	5,23
676,781	5,4
677,229	5,56
677,678	5,49
678,126	5,67
678,574	5,78
679,022	5,79
679,47	5,84
679,918	6,06
680,366	6,09
680,814	6,18
681,261	6,29
681,709	6,39
682,156	6,52
682,604	6,58
683,051	6,71
683,498	6,72
683,945	6,92
684,392	6,89
684,839	7,04
685,286	7,27
685,732	7,34
686,179	7,5
686,625	7,43
687,071	7,77
687,518	7,79
687,964	7,93
688,41	8,21
688,856	8,38
689,301	8,49
689,747	8,76
690,193	9,1
690,638	9,29
691,084	9,55
691,529	9,65
691,974	10,18
692,419	10,46
692,864	10,81
693,309	11,19
693,754	11,53
694,199	11,91
694,643	12,19
695,088	12,62
695,532	13,14
695,977	13,54
696,421	13,9
696,865	14,39
697,309	14,71
697,753	15,18
698,197	15,4
698,64	15,93
699,084	16,41
699,527	16,81
699,971	17,32
700,414	17,52
700,857	17,98
701,3	18,15
701,743	18,7
702,186	19,06
702,629	19,22
703,072	19,84
703,515	20,06
703,957	20,51
704,399	20,77
704,842	21,06
705,284	21,53
705,726	21,62
706,168	21,98
706,61	22,46
707,052	22,83
707,494	22,84
707,935	23,49
708,377	23,46
708,818	23,88
709,26	24,22
709,701	24,38
710,142	24,64
710,583	24,98
711,024	25,25
711,465	25,42
711,905	25,73
712,346	26,08
712,787	26,3
713,227	26,39
713,667	26,94
714,108	27,18
714,548	27,24
714,988	27,53
715,428	27,73
715,868	27,78
716,307	28,13
716,747	28,28
717,186	28,48
717,626	28,71
718,065	28,82
718,504	29,25
718,944	29,29
719,383	29,3
719,822	29,56
720,261	29,72
720,699	30,25
721,138	30,38
721,576	30,16
722,015	30,45
722,453	30,48
722,892	30,61
723,33	30,65
723,768	30,94
724,206	31,32
724,644	31,24
725,081	31,4
725,519	31,7
725,957	31,91
726,394	31,72
726,832	31,82
727,269	31,84
727,706	32,43
728,143	32,21
728,58	32,25
729,017	32,25
729,454	32,49
729,89	32,63
730,327	32,82
730,764	32,62
731,2	32,9
731,636	32,75
732,072	33
732,509	32,94
732,945	33,01
733,38	32,92
733,816	32,91
734,252	33,16
734,688	33,17
735,123	33,32
735,559	33,22
735,994	33,23
736,429	33,76
736,864	33,64
737,299	33,65
737,734	33,5
738,169	33,52
738,604	33,46
739,038	33,68
739,473	33,76
739,907	33,58
740,342	33,85
740,776	33,58
741,21	33,67
741,644	33,79
742,078	33,56
742,512	33,59
742,946	33,7
743,379	33,55
743,813	33,85
744,246	33,67
744,68	33,69
745,113	33,68
745,546	33,61
745,979	33,53
746,412	33,75
746,845	33,6
747,278	33,66
747,711	33,84
748,143	33,29
748,576	33,4
749,008	33,47
749,441	33,61
749,873	33,54
750,305	33,35
750,737	33,31
751,169	33,58
751,601	33,31
752,032	33,38
752,464	33,31
752,896	33,43
753,327	33,22
753,758	33,3
754,19	33,33
754,621	33
755,052	33,23
755,483	33,06
755,914	33,23
756,344	32,96
756,775	33,03
757,206	33,02
757,636	32,94
758,066	33,12
758,497	33,09
758,927	32,83
759,357	32,58
759,787	32,98
760,217	32,49
760,647	32,87
761,076	33,08
761,506	32,74
761,935	32,69
762,365	32,69
762,794	32,56
763,223	32,6
763,653	32,62
764,082	32,67
764,51	32,37
764,939	32,51
765,368	32,59
765,797	32,42
766,225	32,53
766,654	32,54
767,082	32,37
767,51	32,45
767,938	32,47
768,367	32,52
768,795	32,48
769,222	32,4
769,65	32,25
770,078	32,25
770,505	32,54
770,933	32,76
771,36	32,28
771,788	32,32
772,215	32,31
772,642	32,51
773,069	32,14
773,496	32,21
773,923	32,36
774,349	32,45
774,776	32,2
775,203	32,36
775,629	32,07
776,055	32,1
776,482	32,36
776,908	32,17
777,334	32,27
777,76	32,08
778,186	32,08
778,611	31,89
779,037	32,02
779,463	32,05
779,888	31,86
780,314	31,69
780,739	32,14
781,164	32,03
781,589	31,94
782,014	32,04
782,439	31,82
782,864	32,08
783,289	31,95
783,713	31,87
784,138	31,79
784,562	31,86
784,987	32,01
785,411	31,85
785,835	31,76
786,259	31,83
786,683	32,01
787,107	31,9
787,531	31,82
787,954	31,78
788,378	31,76
788,802	31,75
789,225	31,87
789,648	31,89
790,071	31,8
790,495	31,84
790,918	31,93
791,34	31,93
791,763	31,64
792,186	32
792,609	31,66
793,031	31,85
793,454	31,7
793,876	31,62
794,298	31,63
794,721	31,63
795,143	31,72
795,565	31,61
795,986	31,49
796,408	31,71
796,83	31,72
797,252	31,75
797,673	31,62
798,094	31,65
798,516	31,58
798,937	31,57
799,358	31,63
799,779	31,63
800,2	31,67
800,621	31,36
801,042	31,75
801,462	31,76
801,883	31,59
802,303	31,7
802,724	31,42
803,144	31,61
803,564	31,7
803,984	31,68
804,404	31,66
804,824	31,44
805,244	31,63
805,664	31,63
806,084	31,54
806,503	31,48
806,923	31,58
807,342	31,74
807,761	31,53
808,18	31,51
808,599	31,65
809,018	31,39
809,437	31,79
809,856	31,64
810,275	31,57
810,693	31,59
811,112	31,39
811,53	31,47
811,949	31,53
812,367	31,5
812,785	31,56
813,203	31,35
813,621	31,46
814,039	31,32
814,457	31,34
814,874	31,5
815,292	31,72
815,709	31,82
816,127	31,54
816,544	31,6
816,961	31,5
817,378	31,48
817,795	31,52
818,212	31,58
818,629	31,27
819,046	31,57
819,462	31,48
819,879	31,33
820,295	31,41
820,712	31,59
821,128	31,42
821,544	31,35
821,96	31,69
822,376	31,52
822,792	31,48
823,208	31,44
823,624	31,55
824,039	31,5
824,455	31,31
824,87	31,36
825,286	31,54
825,701	31,23
826,116	31,4
826,531	31,26
826,946	31,3
827,361	31,35
827,776	31,59
828,19	31,24
828,605	31,59
829,02	31,29
829,434	31,38
829,848	31,49
830,263	31,47
830,677	31,05
831,091	31,33
831,505	31,36
831,919	31,39
832,332	31,34
832,746	31,09
833,16	31,11
833,573	31,24
833,987	31,57
834,4	31,12
834,813	31,34
835,226	31,19
835,639	31,26
836,052	31,3
836,465	31,27
836,878	31,27
837,29	31,4
837,703	31,31
838,116	31,32
838,528	31,29
838,94	31,16
839,352	31,16
839,765	31,1
840,177	31,11
840,589	31,06
841	31,36
841,412	31,19
841,824	30,96
842,235	31,31
842,647	31,48
843,058	31,21
843,47	31,5
843,881	31,08
844,292	31,26
844,703	31,18
