Data from I_2_0_Relative__0__00175.txt Node

Date: Mon Jan 29 13:08:26 CET 2024
User: diatiterra
Spectrometer: HDX00911
Trigger mode: 0
Integration Time (sec): 6,000000E-3
Scans to average: 2
Nonlinearity correction enabled: false
Boxcar width: 0
Storing dark spectrum: false
XAxis mode: Wavelengths
Number of Pixels in Spectrum: 2068
>>>>>Begin Spectral Data<<<<<
194,468	58,54
195,025	32,16
195,581	41,28
196,138	42,69
196,694	47,26
197,251	44,03
197,807	46,08
198,363	37,8
198,919	43,9
199,474	39,56
200,03	43,05
200,586	42,83
201,141	40,6
201,696	40,86
202,251	36,25
202,806	43,12
203,361	39,66
203,916	50,11
204,471	42,86
205,025	48,82
205,58	41,39
206,134	42,92
206,688	39,26
207,242	44,37
207,796	42,86
208,35	41,91
208,904	49,8
209,457	39,78
210,011	46,3
210,564	39,29
211,117	41,97
211,67	42,05
212,223	44,54
212,776	40,93
213,329	54,55
213,881	40,66
214,434	41,81
214,986	41,72
215,538	44,91
216,09	47,86
216,642	49,68
217,194	46,25
217,746	49,36
218,297	51,5
218,849	47,21
219,4	50,94
219,951	46,22
220,502	44,54
221,053	44,75
221,604	43,54
222,155	39,54
222,705	47,81
223,256	44,9
223,806	44,65
224,356	42,09
224,906	46,54
225,456	43,58
226,006	43,86
226,556	43,84
227,106	45,98
227,655	50,53
228,204	45,35
228,754	44,56
229,303	49,45
229,852	41,47
230,401	38,74
230,949	54,73
231,498	53,56
232,047	52,46
232,595	47,07
233,143	47,58
233,691	46,31
234,239	46,88
234,787	43,41
235,335	46,67
235,883	41,65
236,43	44,21
236,978	35,88
237,525	39,96
238,072	48,37
238,619	46,73
239,166	54,53
239,713	48,24
240,26	44,61
240,806	54,33
241,353	43,45
241,899	54,63
242,445	45,57
242,991	46,2
243,537	46,14
244,083	45,23
244,629	50,21
245,174	42,79
245,72	51,56
246,265	50,58
246,81	42,21
247,355	46,59
247,9	50,77
248,445	42,43
248,99	45,17
249,534	45,8
250,079	48,44
250,623	43,48
251,168	52,13
251,712	45,16
252,256	46,24
252,8	54,03
253,343	45,26
253,887	46,38
254,43	40,99
254,974	49,65
255,517	49,04
256,06	44,81
256,603	43,18
257,146	48,72
257,689	43,94
258,232	44,44
258,774	44,8
259,317	45,15
259,859	52,85
260,401	45,45
260,943	41,11
261,485	38,67
262,027	37,64
262,569	50
263,11	50,21
263,652	38,59
264,193	49,02
264,734	37,16
265,275	48,59
265,816	40,22
266,357	46,26
266,898	39,5
267,438	37,16
267,979	44,25
268,519	41,36
269,059	38,32
269,6	46,73
270,14	53,15
270,68	42,8
271,219	43,04
271,759	50,56
272,298	33,41
272,838	51,38
273,377	38,89
273,916	42,73
274,455	43,43
274,994	35,24
275,533	43,42
276,072	41,85
276,61	41,85
277,149	46,12
277,687	36,16
278,225	32,81
278,763	38,01
279,301	36,22
279,839	38,92
280,377	32,94
280,914	38,98
281,452	37,84
281,989	36,92
282,526	43,13
283,064	34,88
283,601	38,52
284,137	36,67
284,674	44,9
285,211	40,09
285,747	42,96
286,284	35,84
286,82	40,32
287,356	50,11
287,892	43,08
288,428	36,48
288,964	52,24
289,5	42,7
290,035	34,44
290,571	40,24
291,106	31,44
291,641	49,09
292,176	34,72
292,711	44,52
293,246	42,2
293,781	49,21
294,315	39,15
294,85	37,83
295,384	36,85
295,918	40,44
296,453	46,23
296,987	38,15
297,52	40,13
298,054	40,49
298,588	46,3
299,121	40,35
299,655	38,69
300,188	33,71
300,721	41,63
301,254	38,58
301,787	43,34
302,32	42,86
302,853	42,07
303,385	39,21
303,918	40,09
304,45	34,65
304,982	42,89
305,514	40,97
306,046	38,51
306,578	34,32
307,11	39,86
307,641	40,18
308,173	40,91
308,704	40,62
309,236	43,31
309,767	35,06
310,298	39,47
310,829	42,72
311,359	36,68
311,89	34,09
312,421	40,13
312,951	41,86
313,481	41,01
314,012	40,72
314,542	40,47
315,072	30,4
315,601	38,74
316,131	34,78
316,661	45,17
317,19	33,71
317,72	46,19
318,249	41,08
318,778	40,2
319,307	40,94
319,836	40,88
320,365	40,09
320,893	44,96
321,422	44,01
321,95	40,22
322,479	45,6
323,007	39,13
323,535	45,35
324,063	39,72
324,591	40,19
325,118	41,32
325,646	48,58
326,173	41,78
326,701	40,24
327,228	42,27
327,755	39,95
328,282	40,64
328,809	47,46
329,336	33,95
329,862	40,23
330,389	39,31
330,915	36,36
331,441	40,09
331,968	33,49
332,494	50,5
333,02	38,06
333,545	42,86
334,071	31,47
334,597	44,71
335,122	42,76
335,648	44,59
336,173	35,79
336,698	40,37
337,223	39,91
337,748	41,6
338,272	41,21
338,797	43,38
339,322	43,21
339,846	38,09
340,37	46,58
340,894	38,98
341,419	39,29
341,942	36,51
342,466	40,5
342,99	52,28
343,514	49,9
344,037	43,2
344,56	39,07
345,084	39,77
345,607	39,71
346,13	35,5
346,653	42,23
347,175	38,57
347,698	40,67
348,221	41,53
348,743	46,47
349,265	39,48
349,787	40,21
350,309	34,36
350,831	38,79
351,353	43,55
351,875	39,26
352,397	35
352,918	44,71
353,439	40,03
353,961	45,21
354,482	39,73
355,003	34,04
355,524	48,93
356,044	38,54
356,565	44,68
357,086	35,23
357,606	37,48
358,126	37,24
358,646	44,33
359,167	43,29
359,687	44,03
360,206	38,11
360,726	45,51
361,246	41,91
361,765	40,03
362,285	44,04
362,804	41,14
363,323	43,96
363,842	42,99
364,361	40,64
364,88	40,92
365,398	41,71
365,917	42,5
366,435	33,55
366,954	35,91
367,472	44,03
367,99	38,52
368,508	41,72
369,026	45,53
369,544	39,51
370,061	44,81
370,579	38,73
371,096	41,62
371,613	39,59
372,131	40,57
372,648	37,78
373,165	41,48
373,681	40,13
374,198	46,37
374,715	41,98
375,231	44,92
375,747	35,53
376,264	35,04
376,78	42,69
377,296	38,86
377,812	46,81
378,327	39,67
378,843	38,19
379,359	42,68
379,874	39,08
380,389	39,5
380,905	41,18
381,42	38,6
381,935	39,98
382,449	38,58
382,964	37,58
383,479	38,85
383,993	35,59
384,508	36,94
385,022	32,48
385,536	35,5
386,05	35,34
386,564	34,85
387,078	31,81
387,592	37,98
388,105	34,28
388,619	35,64
389,132	34,73
389,645	33,61
390,158	32,87
390,671	33,9
391,184	34,29
391,697	33,66
392,21	34,24
392,722	32,69
393,235	33,56
393,747	29,86
394,259	31,17
394,771	31,41
395,283	31,75
395,795	29,6
396,307	30,47
396,818	33,42
397,33	32,8
397,841	31,28
398,353	30,37
398,864	28,6
399,375	28,98
399,886	28,62
400,397	28,54
400,907	29,23
401,418	27,33
401,928	25,73
402,439	25,44
402,949	26,94
403,459	24,63
403,969	25,49
404,479	26,15
404,989	24,68
405,498	23,74
406,008	22,73
406,517	21,17
407,027	20,71
407,536	20,22
408,045	19,75
408,554	20,15
409,063	19,7
409,572	18,5
410,08	19,11
410,589	17,94
411,097	17,25
411,606	16,45
412,114	17,19
412,622	17,25
413,13	15,42
413,638	14,44
414,145	14,22
414,653	15,69
415,16	13,88
415,668	14,24
416,175	13,99
416,682	13,62
417,189	12,82
417,696	12,81
418,203	13,13
418,71	12,85
419,216	13
419,723	12,81
420,229	12,18
420,735	11,88
421,242	12,32
421,748	11,91
422,254	11,96
422,759	10,94
423,265	12,33
423,771	11,7
424,276	10,9
424,781	10,82
425,287	11,1
425,792	11
426,297	10,56
426,802	10,72
427,306	11,01
427,811	11,07
428,316	10,48
428,82	10,65
429,324	10,71
429,829	11,03
430,333	10,89
430,837	10,2
431,34	10,87
431,844	9,81
432,348	10,05
432,851	10,07
433,355	10,03
433,858	10,3
434,361	10,32
434,864	10,09
435,367	10,48
435,87	10,21
436,373	9,67
436,876	10,28
437,378	10,26
437,88	9,77
438,383	10,04
438,885	10,21
439,387	10,6
439,889	10,2
440,391	10,14
440,892	10,36
441,394	9,75
441,896	10,4
442,397	10,61
442,898	10,09
443,399	10,52
443,9	9,97
444,401	9,93
444,902	10,57
445,403	10,4
445,903	10,35
446,404	10,7
446,904	10,29
447,405	10,29
447,905	10,73
448,405	10,81
448,905	9,91
449,404	10,61
449,904	10,51
450,404	10,66
450,903	10,3
451,403	10,94
451,902	10,97
452,401	10,88
452,9	10,78
453,399	10,76
453,898	11,39
454,396	10,75
454,895	10,83
455,393	11,05
455,892	11,38
456,39	10,57
456,888	10,95
457,386	11,14
457,884	11,02
458,382	11,07
458,879	11,18
459,377	11,36
459,874	11,5
460,372	11,26
460,869	11,57
461,366	10,99
461,863	11,18
462,36	11,5
462,857	11,28
463,353	11,2
463,85	11
464,346	11,31
464,843	11,22
465,339	11,41
465,835	11,02
466,331	11,52
466,827	11,38
467,323	11,34
467,818	11,33
468,314	10,98
468,809	11,21
469,305	11,09
469,8	10,84
470,295	11,06
470,79	11,35
471,285	11,35
471,78	11,21
472,274	11,17
472,769	11,54
473,263	11,08
473,758	11,43
474,252	11,4
474,746	11,69
475,24	11,43
475,734	11,56
476,228	11,58
476,721	11,06
477,215	11,64
477,708	11,9
478,202	11,68
478,695	11,34
479,188	11,71
479,681	11,39
480,174	11,77
480,667	11,76
481,159	11,47
481,652	11,66
482,144	11,72
482,637	11,7
483,129	11,92
483,621	11,95
484,113	11,91
484,605	11,93
485,097	11,8
485,588	11,78
486,08	12
486,571	11,73
487,063	11,77
487,554	12,53
488,045	12,24
488,536	12,33
489,027	12,1
489,518	12,42
490,008	12,22
490,499	12,41
490,989	12,36
491,48	12,4
491,97	12,58
492,46	12,87
492,95	12,5
493,44	13,04
493,93	12,95
494,419	12,89
494,909	12,9
495,398	12,96
495,888	13,22
496,377	13,62
496,866	13,45
497,355	13,46
497,844	13,72
498,333	13,97
498,821	14,03
499,31	14,06
499,798	14,36
500,287	14,83
500,775	14,78
501,263	14,63
501,751	14,96
502,239	15,18
502,727	15,08
503,215	15,76
503,702	15,88
504,19	16,1
504,677	16,35
505,164	16,75
505,651	16,53
506,139	17,12
506,625	16,68
507,112	17,76
507,599	17,54
508,086	18,31
508,572	18,05
509,058	18,32
509,545	18,48
510,031	19,31
510,517	19,62
511,003	20,06
511,489	19,88
511,974	20,19
512,46	20,74
512,946	21,56
513,431	21,29
513,916	21,53
514,401	21,81
514,887	22,48
515,371	22,48
515,856	23,2
516,341	23,57
516,826	24,15
517,31	24,16
517,795	24,54
518,279	24,9
518,763	25,38
519,247	26,17
519,731	25,91
520,215	26,19
520,699	27,12
521,182	27,72
521,666	27,72
522,149	27,89
522,633	28,62
523,116	29,25
523,599	29,43
524,082	29,75
524,565	29,9
525,048	29,97
525,53	30,39
526,013	30,93
526,495	31,16
526,978	31,18
527,46	31,94
527,942	32,27
528,424	32,1
528,906	32,87
529,388	33,05
529,87	33,3
530,351	33,17
530,833	33,2
531,314	33,42
531,795	33,73
532,277	33,53
532,758	34,17
533,238	34,49
533,719	34,6
534,2	34,83
534,681	34,71
535,161	34,94
535,642	34,69
536,122	34,66
536,602	35,16
537,082	35,19
537,562	35,88
538,042	35,19
538,522	35,55
539,001	35,22
539,481	35,91
539,96	35,38
540,44	35,45
540,919	35,45
541,398	35,51
541,877	35,45
542,356	35,78
542,835	35,86
543,313	36,05
543,792	35,79
544,27	36,42
544,749	36,06
545,227	36,24
545,705	36,28
546,183	36,21
546,661	36,09
547,139	36,07
547,616	36,27
548,094	36,05
548,571	36,61
549,049	36,83
549,526	36,74
550,003	36,59
550,48	36,75
550,957	36,5
551,434	36,8
551,911	36,5
552,387	36,67
552,864	36,52
553,34	36,36
553,817	36,72
554,293	36,37
554,769	36,78
555,245	36,5
555,721	36,27
556,197	36,68
556,672	36,39
557,148	36,67
557,623	36,38
558,099	36,38
558,574	36,83
559,049	36,7
559,524	36,32
559,999	36,4
560,474	36,81
560,948	36,31
561,423	36,47
561,897	35,92
562,372	36,31
562,846	35,95
563,32	35,68
563,794	36,08
564,268	35,56
564,742	35,52
565,216	35,36
565,69	35,45
566,163	35,07
566,636	34,59
567,11	35,12
567,583	34,66
568,056	34,38
568,529	34,56
569,002	34,22
569,475	34,06
569,947	33,81
570,42	33,19
570,892	33,45
571,365	32,97
571,837	32,97
572,309	33,16
572,781	32,11
573,253	32,41
573,725	32,1
574,197	32,07
574,668	32,06
575,14	31,87
575,611	31,67
576,082	31,26
576,554	31,33
577,025	31,08
577,496	31,08
577,967	30,72
578,437	30,4
578,908	30,27
579,379	29,99
579,849	30,04
580,319	29,89
580,79	29,82
581,26	29,58
581,73	29,57
582,2	29,29
582,669	29,23
583,139	29,08
583,609	29,31
584,078	29,01
584,548	28,71
585,017	28,59
585,486	28,19
585,955	28,16
586,424	28,59
586,893	28,21
587,362	27,88
587,83	27,8
588,299	27,89
588,767	27,4
589,236	27,84
589,704	27,44
590,172	27,57
590,64	27,14
591,108	27,67
591,576	26,98
592,043	27
592,511	27,08
592,978	26,63
593,446	26,98
593,913	26,92
594,38	26,53
594,847	26,57
595,314	26,67
595,781	26,68
596,248	26,5
596,715	26,64
597,181	26,64
597,647	26,5
598,114	26,32
598,58	26,38
599,046	25,98
599,512	26,07
599,978	26,72
600,444	26,47
600,91	26,17
601,375	26,07
601,841	26,08
602,306	26,12
602,771	25,71
603,236	25,85
603,702	25,6
604,167	25,71
604,631	25,68
605,096	25,28
605,561	25,52
606,025	25,36
606,49	25,55
606,954	25,42
607,418	25,07
607,882	25
608,347	24,76
608,81	24,85
609,274	24,6
609,738	24,67
610,202	24,45
610,665	24,45
611,128	24,22
611,592	24,19
612,055	24,11
612,518	24,02
612,981	23,53
613,444	23,71
613,907	23,52
614,369	23,39
614,832	23,02
615,294	23,22
615,757	23
616,219	23,17
616,681	23,04
617,143	22,64
617,605	22,77
618,067	22,46
618,529	22,5
618,99	22,54
619,452	22,21
619,913	22,09
620,375	21,84
620,836	22,06
621,297	21,74
621,758	21,91
622,219	21,87
622,68	21,69
623,14	21,72
623,601	21,41
624,061	21,52
624,522	21,46
624,982	21,4
625,442	21,29
625,902	21,31
626,362	21,31
626,822	21,46
627,282	21,2
627,742	21,16
628,201	21,2
628,661	21,1
629,12	20,79
629,579	20,98
630,038	21,07
630,497	21,11
630,956	21,14
631,415	21,09
631,874	21,08
632,332	20,75
632,791	20,86
633,249	20,78
633,708	20,5
634,166	20,6
634,624	20,52
635,082	20,38
635,54	20,05
635,998	20,26
636,455	20,05
636,913	20,06
637,37	19,75
637,828	19,94
638,285	19,65
638,742	19,37
639,199	19,32
639,656	19,19
640,113	19,07
640,57	18,98
641,027	18,78
641,483	18,53
641,94	18,52
642,396	18,46
642,852	18,3
643,309	17,86
643,765	17,65
644,221	17,64
644,676	17,37
645,132	17,2
645,588	17,09
646,043	17,29
646,499	16,78
646,954	16,73
647,409	16,76
647,864	16,62
648,319	16,12
648,774	15,96
649,229	15,95
649,684	15,97
650,139	15,79
650,593	15,57
651,047	15,56
651,502	15,59
651,956	15,34
652,41	15,37
652,864	15,35
653,318	15,18
653,772	15,19
654,225	15,03
654,679	14,98
655,133	14,88
655,586	15
656,039	14,94
656,492	14,67
656,946	14,49
657,399	14,38
657,851	14,44
658,304	14,31
658,757	14,22
659,209	14,19
659,662	13,91
660,114	13,76
660,567	13,36
661,019	13,57
661,471	13,27
661,923	13,4
662,375	13,15
662,826	13,07
663,278	12,99
663,73	12,67
664,181	12,63
664,632	12,42
665,084	12,47
665,535	12,34
665,986	12,19
666,437	12,26
666,888	12,17
667,338	12,18
667,789	12,02
668,24	12,13
668,69	11,93
669,14	12,07
669,591	12,04
670,041	11,9
670,491	12,01
670,941	11,91
671,391	12,11
671,84	12,01
672,29	12,22
672,74	12,24
673,189	12,35
673,638	12,43
674,088	12,57
674,537	12,46
674,986	12,58
675,435	12,59
675,883	12,8
676,332	12,81
676,781	12,97
677,229	13,22
677,678	13,19
678,126	13,42
678,574	13,46
679,022	13,63
679,47	13,61
679,918	13,96
680,366	14,21
680,814	14,14
681,261	14,4
681,709	14,72
682,156	14,8
682,604	15,1
683,051	15,08
683,498	15,33
683,945	15,6
684,392	15,87
684,839	15,83
685,286	16,24
685,732	16,48
686,179	16,66
686,625	16,93
687,071	17,11
687,518	17,39
687,964	17,75
688,41	18,37
688,856	18,16
689,301	18,95
689,747	19,4
690,193	19,85
690,638	20,32
691,084	20,81
691,529	21,14
691,974	21,8
692,419	22,43
692,864	22,83
693,309	23,49
693,754	24,22
694,199	24,69
694,643	25,19
695,088	26,1
695,532	26,53
695,977	27,07
696,421	27,78
696,865	28,14
697,309	28,94
697,753	29,53
698,197	29,89
698,64	30,73
699,084	31,32
699,527	32
699,971	32,19
700,414	32,89
700,857	33,34
701,3	34,14
701,743	34,61
702,186	35,09
702,629	35,26
703,072	35,73
703,515	36,4
703,957	36,97
704,399	37,42
704,842	37,53
705,284	37,93
705,726	38,42
706,168	38,89
706,61	39,64
707,052	39,71
707,494	40,19
707,935	40,68
708,377	40,53
708,818	40,99
709,26	41,61
709,701	41,65
710,142	41,94
710,583	42,38
711,024	42,26
711,465	42,83
711,905	43,36
712,346	43,54
712,787	43,85
713,227	44,07
713,667	44,24
714,108	44,38
714,548	44,78
714,988	44,95
715,428	45,43
715,868	45,6
716,307	45,8
716,747	46
717,186	46,52
717,626	46,51
718,065	46,63
718,504	47,13
718,944	47,45
719,383	47,4
719,822	47,65
720,261	47,7
720,699	48,1
721,138	48,14
721,576	48,24
722,015	48,31
722,453	48,72
722,892	48,78
723,33	48,71
723,768	49,08
724,206	49,05
724,644	49,39
725,081	49,28
725,519	49,63
725,957	49,8
726,394	49,82
726,832	50,09
727,269	50,32
727,706	50,32
728,143	50,56
728,58	50,7
729,017	50,47
729,454	50,73
729,89	50,41
730,327	50,61
730,764	50,62
731,2	50,77
731,636	50,64
732,072	50,81
732,509	50,7
732,945	50,92
733,38	51,39
733,816	50,98
734,252	51,05
734,688	51,26
735,123	51,57
735,559	51,2
735,994	50,94
736,429	51,5
736,864	51,37
737,299	51,39
737,734	51,34
738,169	51,78
738,604	51,22
739,038	51,59
739,473	51,52
739,907	51,42
740,342	51,47
740,776	51,53
741,21	51,47
741,644	51,53
742,078	51,23
742,512	51,49
742,946	51,57
743,379	51,22
743,813	51,01
744,246	51,46
744,68	51,28
745,113	50,93
745,546	51,28
745,979	51,03
746,412	51,02
746,845	51,37
747,278	51,14
747,711	51,44
748,143	50,99
748,576	51,04
749,008	50,93
749,441	50,93
749,873	50,88
750,305	50,73
750,737	50,58
751,169	51
751,601	50,74
752,032	50,68
752,464	50,75
752,896	50,54
753,327	50,6
753,758	50,56
754,19	50,48
754,621	50,62
755,052	50,24
755,483	50,14
755,914	50,04
756,344	50,04
756,775	49,92
757,206	50,06
757,636	50,13
758,066	49,93
758,497	49,89
758,927	49,89
759,357	49,94
759,787	49,64
760,217	50,06
760,647	49,66
761,076	49,99
761,506	49,5
761,935	49,6
762,365	49,86
762,794	49,46
763,223	49,52
763,653	49,37
764,082	49,48
764,51	49,45
764,939	49,47
765,368	49,18
765,797	49,05
766,225	49,42
766,654	49,6
767,082	48,99
767,51	49,27
767,938	48,93
768,367	49,28
768,795	49,04
769,222	49,21
769,65	49,09
770,078	49,14
770,505	48,89
770,933	49
771,36	48,78
771,788	49,11
772,215	48,9
772,642	48,7
773,069	49,05
773,496	48,77
773,923	48,71
774,349	48,78
774,776	48,78
775,203	48,96
775,629	48,98
776,055	48,68
776,482	48,67
776,908	48,77
777,334	48,62
777,76	48,52
778,186	48,56
778,611	48,48
779,037	48,85
779,463	48,63
779,888	47,98
780,314	48,5
780,739	48,35
781,164	48,81
781,589	48,41
782,014	48,73
782,439	48,44
782,864	48,46
783,289	48,12
783,713	48,53
784,138	48,23
784,562	48,17
784,987	48,49
785,411	48,3
785,835	48,18
786,259	48,16
786,683	48,36
787,107	48,17
787,531	48,38
787,954	48,15
788,378	47,94
788,802	47,95
789,225	48,42
789,648	48,01
790,071	48,04
790,495	47,81
790,918	48,16
791,34	48,18
791,763	48,03
792,186	48,14
792,609	47,89
793,031	47,95
793,454	48,13
793,876	47,91
794,298	48,16
794,721	48,26
795,143	47,7
795,565	47,87
795,986	47,74
796,408	48,2
796,83	48,02
797,252	47,93
797,673	47,84
798,094	47,87
798,516	47,95
798,937	47,79
799,358	47,59
799,779	47,69
800,2	47,56
800,621	47,7
801,042	47,92
801,462	48,04
801,883	47,79
802,303	47,83
802,724	47,63
803,144	47,68
803,564	47,84
803,984	48,09
804,404	47,64
804,824	47,71
805,244	47,55
805,664	47,59
806,084	47,61
806,503	47,72
806,923	47,57
807,342	48,01
807,761	47,71
808,18	47,63
808,599	47,95
809,018	47,63
809,437	47,77
809,856	47,68
810,275	47,68
810,693	47,69
811,112	47,63
811,53	47,51
811,949	48,02
812,367	47,63
812,785	47,5
813,203	47,89
813,621	47,67
814,039	47,31
814,457	47,32
814,874	47,95
815,292	47,53
815,709	47,59
816,127	47,64
816,544	47,86
816,961	47,67
817,378	47,51
817,795	47,49
818,212	47,69
818,629	47,46
819,046	47,63
819,462	47,39
819,879	47,25
820,295	47,45
820,712	47,83
821,128	47,5
821,544	47,38
821,96	47,48
822,376	47,56
822,792	47,27
823,208	47,43
823,624	47,45
824,039	47,45
824,455	47,43
824,87	47,34
825,286	47,67
825,701	47,5
826,116	47,41
826,531	47,46
826,946	47,57
827,361	47,57
827,776	47,35
828,19	47,29
828,605	47,56
829,02	47,67
829,434	47,15
829,848	47,4
830,263	47,34
830,677	47,53
831,091	47,49
831,505	47,35
831,919	47,56
832,332	47,54
832,746	47,14
833,16	47,16
833,573	47,33
833,987	47,27
834,4	47,25
