Data from I_4_0_Relative__6__00189.txt Node

Date: Mon Jan 29 13:09:28 CET 2024
User: diatiterra
Spectrometer: HDX00911
Trigger mode: 0
Integration Time (sec): 6,000000E-3
Scans to average: 2
Nonlinearity correction enabled: false
Boxcar width: 0
Storing dark spectrum: false
XAxis mode: Wavelengths
Number of Pixels in Spectrum: 2068
>>>>>Begin Spectral Data<<<<<
194,468	8,54
195,025	29,15
195,581	14,53
196,138	29,82
196,694	26,52
197,251	21,75
197,807	27,55
198,363	21,38
198,919	22,48
199,474	28
200,03	18,32
200,586	19,54
201,141	21,37
201,696	23,23
202,251	20,37
202,806	15,61
203,361	19,83
203,916	23,67
204,471	21,54
205,025	21,72
205,58	23,04
206,134	18,28
206,688	25,81
207,242	18,9
207,796	22,04
208,35	20,05
208,904	24,49
209,457	26,02
210,011	24,31
210,564	20,58
211,117	16,05
211,67	25,15
212,223	24,41
212,776	25,6
213,329	25,45
213,881	18,48
214,434	19,08
214,986	21,32
215,538	23,67
216,09	14,9
216,642	26,98
217,194	24,58
217,746	19,7
218,297	15,45
218,849	19,31
219,4	21,71
219,951	14,22
220,502	18,42
221,053	17,02
221,604	16,04
222,155	14,25
222,705	18,16
223,256	14,53
223,806	22,01
224,356	19,02
224,906	26
225,456	22,11
226,006	18,41
226,556	20,04
227,106	20,98
227,655	16,84
228,204	14,38
228,754	24,02
229,303	17,36
229,852	28,51
230,401	22,97
230,949	24,4
231,498	16,67
232,047	19,91
232,595	16,53
233,143	15,42
233,691	20,49
234,239	20,98
234,787	20,23
235,335	19,57
235,883	22,62
236,43	19,42
236,978	17,36
237,525	18,97
238,072	20,48
238,619	21,03
239,166	27,15
239,713	25,47
240,26	21,78
240,806	24,46
241,353	20,92
241,899	21,59
242,445	27,01
242,991	18,44
243,537	18,03
244,083	26,97
244,629	21,82
245,174	19,21
245,72	20
246,265	22,14
246,81	25,51
247,355	26,82
247,9	21,01
248,445	12,58
248,99	22,59
249,534	9,98
250,079	16
250,623	21,26
251,168	25,73
251,712	22,8
252,256	20
252,8	16,12
253,343	15,4
253,887	25,53
254,43	21,24
254,974	16,24
255,517	18,34
256,06	19,65
256,603	15,91
257,146	16,24
257,689	22,29
258,232	19,5
258,774	9,16
259,317	24,83
259,859	17,77
260,401	18,61
260,943	20,67
261,485	20,44
262,027	18,82
262,569	16
263,11	24,57
263,652	20,24
264,193	18,22
264,734	13,3
265,275	27,46
265,816	19,12
266,357	17,69
266,898	8,45
267,438	16,06
267,979	23,89
268,519	28,23
269,059	11,68
269,6	17,83
270,14	21,62
270,68	20,76
271,219	21,52
271,759	24,94
272,298	12,92
272,838	20,18
273,377	25,31
273,916	15,88
274,455	12,25
274,994	16,74
275,533	21,25
276,072	16,95
276,61	22,03
277,149	18,45
277,687	16,48
278,225	13,8
278,763	20,36
279,301	14,89
279,839	20,43
280,377	14,45
280,914	30,63
281,452	15,37
281,989	18,02
282,526	11,37
283,064	26,01
283,601	19,03
284,137	23,33
284,674	14,32
285,211	26,14
285,747	16,71
286,284	19,86
286,82	19,36
287,356	28,04
287,892	20,86
288,428	15,02
288,964	29,65
289,5	21,12
290,035	25,17
290,571	21,71
291,106	11,14
291,641	27,27
292,176	24,94
292,711	23,03
293,246	30,73
293,781	18,51
294,315	13,72
294,85	25,88
295,384	16,18
295,918	16,89
296,453	20,28
296,987	17,3
297,52	25,66
298,054	19,91
298,588	21,52
299,121	20,84
299,655	20,59
300,188	18,68
300,721	27,67
301,254	16,67
301,787	25,42
302,32	23,5
302,853	14,76
303,385	20,26
303,918	24,05
304,45	20,61
304,982	23,78
305,514	20,6
306,046	17,94
306,578	25,17
307,11	25,87
307,641	26,34
308,173	17,73
308,704	24,11
309,236	19,95
309,767	23,29
310,298	24,83
310,829	25,82
311,359	20,79
311,89	23,25
312,421	20,4
312,951	30,7
313,481	16,59
314,012	19,24
314,542	12,71
315,072	23,87
315,601	15,32
316,131	20,59
316,661	22,46
317,19	19,68
317,72	22,86
318,249	27,09
318,778	13,24
319,307	20,24
319,836	17,78
320,365	17,97
320,893	25,84
321,422	17,74
321,95	19,78
322,479	20,32
323,007	21,74
323,535	16,98
324,063	25,53
324,591	18,91
325,118	25,93
325,646	9,91
326,173	23,52
326,701	25,48
327,228	25,91
327,755	18,42
328,282	16,58
328,809	24,5
329,336	15,47
329,862	18,86
330,389	26,9
330,915	17,73
331,441	20,98
331,968	18,07
332,494	18,5
333,02	17,42
333,545	26,76
334,071	14,51
334,597	16,83
335,122	24,05
335,648	12,11
336,173	12,8
336,698	16,51
337,223	16,49
337,748	16,39
338,272	18,62
338,797	15,18
339,322	17,42
339,846	19,79
340,37	16,2
340,894	19,82
341,419	22,06
341,942	17,85
342,466	18,37
342,99	21,58
343,514	16,77
344,037	14,8
344,56	11,54
345,084	21,21
345,607	16,25
346,13	13,74
346,653	16,86
347,175	13,09
347,698	12,38
348,221	22,16
348,743	14,13
349,265	19,3
349,787	13,52
350,309	17,95
350,831	13,62
351,353	20,14
351,875	13,42
352,397	15,33
352,918	18,43
353,439	13,11
353,961	20
354,482	7,07
355,003	8,84
355,524	12,65
356,044	10,19
356,565	15,2
357,086	13,94
357,606	10,02
358,126	18,55
358,646	11,17
359,167	17,32
359,687	9,75
360,206	12,41
360,726	11,59
361,246	17,79
361,765	10,76
362,285	15,46
362,804	13,26
363,323	12,5
363,842	12,82
364,361	8,29
364,88	9,61
365,398	13,82
365,917	14,86
366,435	9,64
366,954	10,72
367,472	11,94
367,99	12,32
368,508	10,99
369,026	13,46
369,544	10
370,061	10,97
370,579	9,74
371,096	13,64
371,613	11,83
372,131	13,52
372,648	10,66
373,165	10,29
373,681	7,76
374,198	12,31
374,715	10,31
375,231	10,58
375,747	7,85
376,264	8,59
376,78	9,36
377,296	8,34
377,812	12,38
378,327	9,45
378,843	9,92
379,359	9,22
379,874	5,98
380,389	8,69
380,905	12,8
381,42	8,49
381,935	9,61
382,449	10,6
382,964	7,76
383,479	7,77
383,993	9,71
384,508	8,64
385,022	7,49
385,536	7,13
386,05	7,95
386,564	8
387,078	7,29
387,592	8,78
388,105	8,17
388,619	6,78
389,132	7,12
389,645	6,92
390,158	8,55
390,671	9,69
391,184	5,56
391,697	8,98
392,21	7,23
392,722	5,98
393,235	6,29
393,747	4,55
394,259	5,76
394,771	5,91
395,283	5,55
395,795	6,88
396,307	7,58
396,818	6,53
397,33	7,87
397,841	6,22
398,353	6,26
398,864	5,74
399,375	5,16
399,886	6,93
400,397	5,42
400,907	6,05
401,418	5,75
401,928	6,51
402,439	4,57
402,949	4,98
403,459	3,91
403,969	5,4
404,479	5,28
404,989	3,98
405,498	3,72
406,008	3,69
406,517	4,19
407,027	3,94
407,536	3,79
408,045	3,27
408,554	4,24
409,063	3,45
409,572	3,65
410,08	3,29
410,589	2,83
411,097	2,93
411,606	2,74
412,114	3,15
412,622	3,2
413,13	2,42
413,638	2,97
414,145	2,69
414,653	3,66
415,16	2,55
415,668	2,87
416,175	2,47
416,682	2,77
417,189	2,18
417,696	2,3
418,203	1,81
418,71	1,9
419,216	2,33
419,723	2,11
420,229	2,34
420,735	2,13
421,242	1,53
421,748	1,77
422,254	2,22
422,759	1,77
423,265	1,49
423,771	1,34
424,276	1,92
424,781	1,97
425,287	1,86
425,792	1,8
426,297	2,01
426,802	1,55
427,306	2,27
427,811	1,62
428,316	1,98
428,82	1,86
429,324	2,16
429,829	2,06
430,333	2
430,837	1,86
431,34	1,87
431,844	1,38
432,348	1,96
432,851	1,78
433,355	1,47
433,858	2,11
434,361	1,75
434,864	1,37
435,367	1,51
435,87	1,6
436,373	1,71
436,876	1,96
437,378	1,5
437,88	1,61
438,383	1,63
438,885	1,92
439,387	1,45
439,889	1,82
440,391	1,85
440,892	1,82
441,394	1,63
441,896	1,88
442,397	1,88
442,898	1,57
443,399	1,72
443,9	1,99
444,401	1,74
444,902	1,62
445,403	1,57
445,903	1,79
446,404	1,62
446,904	1,5
447,405	1,47
447,905	1,87
448,405	1,81
448,905	1,63
449,404	1,88
449,904	1,66
450,404	1,64
450,903	1,46
451,403	1,43
451,902	1,73
452,401	1,69
452,9	1,53
453,399	1,53
453,898	1,71
454,396	1,76
454,895	1,93
455,393	1,94
455,892	1,73
456,39	1,48
456,888	1,57
457,386	1,71
457,884	1,74
458,382	1,73
458,879	1,44
459,377	1,75
459,874	1,76
460,372	1,71
460,869	1,78
461,366	1,71
461,863	1,76
462,36	1,5
462,857	1,85
463,353	1,63
463,85	1,47
464,346	1,76
464,843	1,63
465,339	1,73
465,835	1,74
466,331	1,61
466,827	1,61
467,323	1,75
467,818	1,46
468,314	1,62
468,809	1,68
469,305	1,57
469,8	1,78
470,295	1,58
470,79	1,67
471,285	1,51
471,78	1,56
472,274	1,55
472,769	1,63
473,263	1,76
473,758	1,79
474,252	1,74
474,746	1,64
475,24	1,72
475,734	1,65
476,228	1,62
476,721	1,72
477,215	1,75
477,708	1,72
478,202	1,54
478,695	1,58
479,188	1,7
479,681	1,6
480,174	1,73
480,667	1,7
481,159	1,42
481,652	1,72
482,144	1,62
482,637	1,74
483,129	1,62
483,621	1,66
484,113	1,67
484,605	1,81
485,097	1,77
485,588	1,7
486,08	1,58
486,571	1,77
487,063	1,81
487,554	1,71
488,045	1,69
488,536	1,8
489,027	1,75
489,518	1,91
490,008	1,61
490,499	1,75
490,989	1,72
491,48	1,85
491,97	1,87
492,46	1,79
492,95	1,91
493,44	1,95
493,93	1,74
494,419	1,86
494,909	1,89
495,398	2,04
495,888	1,88
496,377	1,82
496,866	1,91
497,355	1,87
497,844	2,13
498,333	2,03
498,821	2,08
499,31	2,19
499,798	2,17
500,287	2,33
500,775	2,27
501,263	2,29
501,751	2,24
502,239	2,38
502,727	2,54
503,215	2,54
503,702	2,52
504,19	2,73
504,677	2,61
505,164	2,63
505,651	2,79
506,139	2,56
506,625	2,93
507,112	3,12
507,599	3,05
508,086	3,09
508,572	3,1
509,058	3,37
509,545	3,38
510,031	3,6
510,517	3,62
511,003	3,66
511,489	3,95
511,974	3,81
512,46	3,97
512,946	4,15
513,431	4,2
513,916	4,29
514,401	4,32
514,887	4,73
515,371	4,63
515,856	4,99
516,341	4,97
516,826	5,21
517,31	5,47
517,795	5,57
518,279	5,48
518,763	5,82
519,247	6
519,731	6,06
520,215	6,19
520,699	6,54
521,182	6,46
521,666	6,68
522,149	6,77
522,633	7,17
523,116	6,99
523,599	7,39
524,082	7,48
524,565	7,54
525,048	7,92
525,53	8,08
526,013	8,14
526,495	8,48
526,978	8,48
527,46	8,59
527,942	8,68
528,424	8,7
528,906	9,06
529,388	9,24
529,87	9
530,351	9,36
530,833	9,42
531,314	9,36
531,795	9,6
532,277	9,66
532,758	9,68
533,238	9,73
533,719	10,02
534,2	9,91
534,681	9,87
535,161	10,07
535,642	9,95
536,122	10,28
536,602	10,29
537,082	10,34
537,562	10,33
538,042	10,42
538,522	10,38
539,001	10,42
539,481	10,56
539,96	10,61
540,44	10,51
540,919	10,5
541,398	10,76
541,877	10,66
542,356	10,43
542,835	10,57
543,313	10,53
543,792	10,65
544,27	10,61
544,749	10,64
545,227	10,82
545,705	11,02
546,183	10,71
546,661	10,83
547,139	10,86
547,616	10,93
548,094	10,97
548,571	10,94
549,049	11,03
549,526	11,12
550,003	10,9
550,48	11,02
550,957	11,09
551,434	11,27
551,911	11,04
552,387	11,14
552,864	11,16
553,34	11,34
553,817	10,97
554,293	10,93
554,769	10,97
555,245	11,16
555,721	10,88
556,197	11,2
556,672	11,05
557,148	11,08
557,623	11,02
558,099	10,87
558,574	11,1
559,049	10,8
559,524	10,78
559,999	10,91
560,474	10,83
560,948	10,59
561,423	10,68
561,897	10,72
562,372	10,81
562,846	10,5
563,32	10,38
563,794	10,46
564,268	10,42
564,742	10,13
565,216	10,25
565,69	10,16
566,163	9,97
566,636	9,85
567,11	10,03
567,583	9,96
568,056	9,65
568,529	9,84
569,002	9,72
569,475	9,52
569,947	9,44
570,42	9,16
570,892	9,22
571,365	9,03
571,837	8,91
572,309	8,79
572,781	8,67
573,253	8,57
573,725	8,46
574,197	8,44
574,668	8,41
575,14	8,23
575,611	8,15
576,082	8,3
576,554	8,06
577,025	8,13
577,496	7,86
577,967	7,82
578,437	7,89
578,908	7,62
579,379	7,73
579,849	7,55
580,319	7,43
580,79	7,49
581,26	7,23
581,73	7,3
582,2	7,33
582,669	7,11
583,139	7,22
583,609	6,99
584,078	7,09
584,548	7
585,017	6,99
585,486	6,74
585,955	6,88
586,424	6,82
586,893	6,66
587,362	6,51
587,83	6,6
588,299	6,53
588,767	6,49
589,236	6,61
589,704	6,53
590,172	6,53
590,64	6,41
591,108	6,42
591,576	6,41
592,043	6,29
592,511	6,26
592,978	6,45
593,446	6,21
593,913	6,27
594,38	6,29
594,847	6,22
595,314	6,2
595,781	6,13
596,248	6,14
596,715	6,17
597,181	6,2
597,647	6,19
598,114	6,18
598,58	5,97
599,046	5,91
599,512	6,08
599,978	5,86
600,444	6,02
600,91	5,79
601,375	6,04
601,841	5,94
602,306	5,9
602,771	5,71
603,236	5,76
603,702	5,81
604,167	5,82
604,631	5,66
605,096	5,74
605,561	5,73
606,025	5,63
606,49	5,54
606,954	5,58
607,418	5,57
607,882	5,47
608,347	5,4
608,81	5,28
609,274	5,39
609,738	5,29
610,202	5,37
610,665	5,24
611,128	5,13
611,592	5,21
612,055	4,9
612,518	5,16
612,981	5,01
613,444	4,95
613,907	4,76
614,369	4,81
614,832	4,79
615,294	4,75
615,757	4,72
616,219	4,64
616,681	4,64
617,143	4,59
617,605	4,55
618,067	4,47
618,529	4,39
618,99	4,51
619,452	4,33
619,913	4,31
620,375	4,4
620,836	4,3
621,297	4,33
621,758	4,24
622,219	4,36
622,68	4,22
623,14	4,23
623,601	4,16
624,061	4,18
624,522	4,11
624,982	4,16
625,442	4,14
625,902	4,11
626,362	4,07
626,822	4,15
627,282	4,17
627,742	3,93
628,201	4,13
628,661	4,19
629,12	3,99
629,579	4,09
630,038	4,07
630,497	4,04
630,956	4,01
631,415	4,05
631,874	3,98
632,332	3,99
632,791	3,99
633,249	4,08
633,708	3,95
634,166	3,92
634,624	3,87
635,082	3,88
635,54	3,8
635,998	3,79
636,455	3,81
636,913	3,67
637,37	3,81
637,828	3,71
638,285	3,72
638,742	3,59
639,199	3,54
639,656	3,58
640,113	3,52
640,57	3,49
641,027	3,43
641,483	3,35
641,94	3,28
642,396	3,26
642,852	3,31
643,309	3,09
643,765	3,12
644,221	3,12
644,676	3,03
645,132	2,96
645,588	2,93
646,043	2,85
646,499	2,88
646,954	2,75
647,409	2,77
647,864	2,69
648,319	2,7
648,774	2,69
649,229	2,61
649,684	2,57
650,139	2,63
650,593	2,58
651,047	2,61
651,502	2,56
651,956	2,52
652,41	2,43
652,864	2,4
653,318	2,41
653,772	2,42
654,225	2,35
654,679	2,37
655,133	2,44
655,586	2,35
656,039	2,31
656,492	2,31
656,946	2,27
657,399	2,27
657,851	2,19
658,304	2,2
658,757	2,17
659,209	2,17
659,662	2,16
660,114	2,13
660,567	2,13
661,019	2,11
661,471	1,95
661,923	2,04
662,375	2,02
662,826	2,04
663,278	1,98
663,73	1,89
664,181	1,95
664,632	1,98
665,084	1,95
665,535	1,88
665,986	1,93
666,437	1,94
666,888	1,93
667,338	1,97
667,789	1,96
668,24	2
668,69	2,02
669,14	2,02
669,591	2,09
670,041	2,02
670,491	2,03
670,941	2,1
671,391	2,11
671,84	2,22
672,29	2,22
672,74	2,22
673,189	2,27
673,638	2,31
674,088	2,38
674,537	2,4
674,986	2,51
675,435	2,53
675,883	2,52
676,332	2,62
676,781	2,67
677,229	2,73
677,678	2,78
678,126	2,85
678,574	2,87
679,022	3,04
679,47	3,04
679,918	3,06
680,366	3,23
680,814	3,23
681,261	3,33
681,709	3,37
682,156	3,4
682,604	3,47
683,051	3,56
683,498	3,59
683,945	3,78
684,392	3,66
684,839	3,84
685,286	3,82
685,732	3,85
686,179	3,87
686,625	3,9
687,071	3,99
687,518	4,03
687,964	4,04
688,41	4,25
688,856	4,24
689,301	4,3
689,747	4,42
690,193	4,64
690,638	4,61
691,084	4,69
691,529	4,96
691,974	5,07
692,419	5,31
692,864	5,5
693,309	5,72
693,754	5,85
694,199	6,18
694,643	6,31
695,088	6,67
695,532	6,95
695,977	7,24
696,421	7,44
696,865	7,66
697,309	8,1
697,753	8,39
698,197	8,62
698,64	8,86
699,084	9,26
699,527	9,56
699,971	9,8
700,414	10,18
700,857	10,33
701,3	10,6
701,743	11,04
702,186	11,3
702,629	11,54
703,072	11,92
703,515	12,09
703,957	12,32
704,399	12,59
704,842	12,96
705,284	13
705,726	13,49
706,168	13,51
706,61	14,05
707,052	14,24
707,494	14,66
707,935	14,84
708,377	14,74
708,818	15,28
709,26	15,41
709,701	15,67
710,142	15,85
710,583	15,97
711,024	16,3
711,465	16,56
711,905	16,68
712,346	17,15
712,787	17,15
713,227	17,6
713,667	17,58
714,108	17,91
714,548	18,2
714,988	18,37
715,428	18,52
715,868	18,74
716,307	18,93
716,747	19,14
717,186	19,11
717,626	19,29
718,065	19,64
718,504	19,79
718,944	19,94
719,383	20,17
719,822	20,3
720,261	20,5
720,699	20,59
721,138	20,77
721,576	20,97
722,015	21,17
722,453	21,38
722,892	21,42
723,33	21,47
723,768	21,76
724,206	21,88
724,644	21,71
725,081	21,89
725,519	22,07
725,957	22,31
726,394	22,41
726,832	22,44
727,269	22,57
727,706	22,71
728,143	22,69
728,58	23,16
729,017	22,91
729,454	23,17
729,89	22,98
730,327	23,23
730,764	23,2
731,2	23,56
731,636	23,47
732,072	23,6
732,509	23,68
732,945	23,61
733,38	23,81
733,816	23,94
734,252	23,89
734,688	23,71
735,123	23,9
735,559	23,86
735,994	24,05
736,429	24,24
736,864	24,24
737,299	24,02
737,734	24,11
738,169	24,2
738,604	24,33
739,038	24,28
739,473	24,34
739,907	24,3
740,342	24,43
740,776	24,28
741,21	24,06
741,644	24,16
742,078	24,37
742,512	24,43
742,946	24,2
743,379	24,1
743,813	24,26
744,246	24,16
744,68	24,42
745,113	24,32
745,546	24,28
745,979	24,29
746,412	24,43
746,845	24,29
747,278	24,24
747,711	24,24
748,143	24,39
748,576	24,28
749,008	24,45
749,441	24,46
749,873	24,18
750,305	24,45
750,737	24,27
751,169	24,22
751,601	24,2
752,032	24,3
752,464	24,33
752,896	24,03
753,327	24,04
753,758	24,07
754,19	24,18
754,621	24,16
755,052	24,04
755,483	23,99
755,914	23,92
756,344	24,21
756,775	24,02
757,206	23,78
757,636	23,98
758,066	24,19
758,497	23,99
758,927	23,98
759,357	23,94
759,787	23,86
760,217	23,94
760,647	24,01
761,076	23,74
761,506	23,73
761,935	23,71
762,365	23,75
762,794	23,86
763,223	23,58
763,653	23,72
764,082	23,67
764,51	23,74
764,939	23,59
765,368	23,4
765,797	23,51
766,225	23,74
766,654	23,63
767,082	23,58
767,51	23,67
767,938	23,41
768,367	23,7
768,795	23,75
769,222	23,6
769,65	23,68
770,078	23,65
770,505	23,51
770,933	23,55
771,36	23,34
771,788	23,54
772,215	23,46
772,642	23,35
773,069	23,24
773,496	23,53
773,923	23,27
774,349	23,45
774,776	23,37
775,203	23,37
775,629	23,25
776,055	23,4
776,482	23,39
776,908	23,29
777,334	23,37
777,76	23,39
778,186	23,26
778,611	23,12
779,037	23,43
779,463	23,36
779,888	23,09
780,314	23,34
780,739	23,3
781,164	23,29
781,589	23,14
782,014	23,07
782,439	23,18
782,864	23,31
783,289	23,04
783,713	23,13
784,138	23,25
784,562	23,16
784,987	23,29
785,411	23,22
785,835	23,29
786,259	23,12
786,683	23,15
787,107	23,06
787,531	23,39
787,954	23,32
788,378	23,11
788,802	22,98
789,225	23,14
789,648	23,14
790,071	23,18
790,495	23,03
790,918	23,12
791,34	23,18
791,763	22,96
792,186	23,07
792,609	23,08
793,031	23,09
793,454	22,98
793,876	23,05
794,298	22,95
794,721	23,03
795,143	22,84
795,565	23,18
795,986	22,99
796,408	22,99
796,83	23,07
797,252	23,13
797,673	22,89
798,094	23,29
798,516	22,87
798,937	22,94
799,358	22,88
799,779	23,1
800,2	23,14
800,621	23,05
801,042	22,95
801,462	23,08
801,883	23,02
802,303	23,07
802,724	23,06
803,144	23,08
803,564	22,99
803,984	23,15
804,404	23,07
804,824	22,97
805,244	22,96
805,664	22,93
806,084	23
806,503	23,12
806,923	23,08
807,342	23,11
807,761	22,86
808,18	22,89
808,599	22,9
809,018	22,96
809,437	22,89
809,856	22,88
810,275	23,01
810,693	22,92
811,112	22,92
811,53	22,88
811,949	22,81
812,367	22,74
812,785	22,79
813,203	22,91
813,621	23,02
814,039	22,69
814,457	22,98
814,874	22,94
815,292	22,9
815,709	22,73
816,127	22,89
816,544	22,93
816,961	22,86
817,378	22,86
817,795	22,96
818,212	22,89
818,629	22,85
819,046	22,87
819,462	22,75
819,879	22,65
820,295	22,66
820,712	22,71
821,128	22,86
821,544	22,82
821,96	22,96
822,376	22,86
822,792	22,96
823,208	22,79
823,624	22,77
824,039	22,63
824,455	22,84
824,87	22,78
825,286	22,9
825,701	23,01
826,116	22,93
826,531	22,94
826,946	22,76
827,361	22,93
827,776	22,83
828,19	22,73
828,605	22,99
829,02	22,71
829,434	22,68
829,848	22,79
830,263	22,67
830,677	22,85
831,091	22,98
831,505	22,65
831,919	22,87
832,332	22,59
832,746	22,67
833,16	22,7
833,573	22,84
833,987	22,7
834,4	22,79
834,813	22,81
835,226	22,62
835,639	22,68
836,052	22,76
836,465	22,64
836,878	22,68
837,29	22,76
837,703	22,66
838,116	23,03
838,528	22,74
838,94	22,74
839,352	22,55
839,765	22,5
840,177	22,85
840,589	22,82
841	22,9
841,412	22,64
841,824	22,61
842,235	22,62
842,647	22,57
843,058	22,72
843,47	22,55
843,881	22,77
844,292	22,66
844,703	22,59
845,114	22,84
845,525	22,46
845,935	22,55
846,346	22,78
846,757	22,6
847,167	22,61
847,577	22,59
847,988	22,76
848,398	22,6
848,808	22,68
849,218	22,95
849,628	22,87
850,038	22,67
850,448	22,73
850,857	22,7
