Data from L_5_0_Relative__1__00191.txt Node

Date: Mon Jan 29 13:09:58 CET 2024
User: diatiterra
Spectrometer: HDX00911
Trigger mode: 0
Integration Time (sec): 6,000000E-3
Scans to average: 2
Nonlinearity correction enabled: false
Boxcar width: 0
Storing dark spectrum: false
XAxis mode: Wavelengths
Number of Pixels in Spectrum: 2068
>>>>>Begin Spectral Data<<<<<
194,468	42,68
195,025	30,15
195,581	26,16
196,138	38,01
196,694	41,77
197,251	39,26
197,807	39,9
198,363	38,23
198,919	37,04
199,474	44
200,03	35,1
200,586	33,68
201,141	35,04
201,696	35,27
202,251	35,44
202,806	34,5
203,361	40,51
203,916	44,56
204,471	42,86
205,025	40,22
205,58	40,49
206,134	31,42
206,688	40,13
207,242	37,15
207,796	40
208,35	39,64
208,904	39,59
209,457	32,9
210,011	42,49
210,564	41,79
211,117	40,43
211,67	36,02
212,223	47,97
212,776	40,52
213,329	34,75
213,881	41,89
214,434	34,49
214,986	39,46
215,538	38,27
216,09	46,05
216,642	40,26
217,194	35
217,746	42,58
218,297	35,62
218,849	36,48
219,4	43,84
219,951	40,44
220,502	40,69
221,053	42,23
221,604	38,12
222,155	44,6
222,705	39,46
223,256	41,87
223,806	42,98
224,356	42,52
224,906	43,19
225,456	39,79
226,006	42,05
226,556	38,41
227,106	45,09
227,655	36,46
228,204	37,83
228,754	37,99
229,303	33,63
229,852	36,29
230,401	43,24
230,949	42,42
231,498	46,89
232,047	44,75
232,595	47,49
233,143	44,49
233,691	43,44
234,239	39,73
234,787	36,14
235,335	51,83
235,883	43,34
236,43	40,08
236,978	37,27
237,525	31,92
238,072	44,44
238,619	50
239,166	54,53
239,713	31,26
240,26	47,93
240,806	45,24
241,353	37,93
241,899	40,97
242,445	37,73
242,991	37,53
243,537	41,92
244,083	43,15
244,629	46,82
245,174	38,86
245,72	34,67
246,265	37,06
246,81	39,5
247,355	44,24
247,9	47,26
248,445	34,75
248,99	39,84
249,534	34,92
250,079	44,89
250,623	36,71
251,168	37,81
251,712	39,57
252,256	39,35
252,8	33,55
253,343	36,26
253,887	49,79
254,43	40,13
254,974	40,71
255,517	34,54
256,06	39,96
256,603	39,09
257,146	41,76
257,689	40,04
258,232	43,54
258,774	30,45
259,317	45,15
259,859	30,07
260,401	42,42
260,943	37,11
261,485	35,56
262,027	35,89
262,569	40,5
263,11	41,67
263,652	35,76
264,193	38,61
264,734	35,32
265,275	46,24
265,816	34,51
266,357	43,54
266,898	42,69
267,438	41,74
267,979	38,05
268,519	40,04
269,059	36,45
269,6	37,7
270,14	35,59
270,68	38,98
271,219	41,35
271,759	49,21
272,298	36,97
272,838	43,58
273,377	39,71
273,916	39,15
274,455	31,4
274,994	38,77
275,533	34,18
276,072	34,98
276,61	46,7
277,149	34,47
277,687	37,53
278,225	36,43
278,763	38,01
279,301	32,67
279,839	41,94
280,377	42,42
280,914	40,37
281,452	36,47
281,989	38,24
282,526	40,99
283,064	39,72
283,601	26,91
284,137	35,24
284,674	40,53
285,211	47,49
285,747	36,75
286,284	43,15
286,82	44,42
287,356	48,34
287,892	32,65
288,428	32,62
288,964	43,76
289,5	31,46
290,035	40,18
290,571	44,15
291,106	39,36
291,641	46,36
292,176	35,7
292,711	32,68
293,246	38,99
293,781	48,76
294,315	35,16
294,85	37,39
295,384	42,25
295,918	35,56
296,453	33,96
296,987	36,26
297,52	38,82
298,054	33,78
298,588	39,35
299,121	34,59
299,655	39,14
300,188	39,64
300,721	48,14
301,254	39,04
301,787	42,86
302,32	31,8
302,853	37,67
303,385	38,77
303,918	32,96
304,45	25
304,982	38
305,514	39,12
306,046	37,64
306,578	28,83
307,11	38,46
307,641	30,8
308,173	38,18
308,704	41,96
309,236	39,9
309,767	30,82
310,298	44,35
310,829	38,97
311,359	39,02
311,89	38,6
312,421	28,03
312,951	41,4
313,481	33,64
314,012	32,21
314,542	46,59
315,072	33,42
315,601	39,19
316,131	43,94
316,661	37,44
317,19	29,19
317,72	28,1
318,249	36,12
318,778	29,41
319,307	34,82
319,836	39,03
320,365	31,8
320,893	38,76
321,422	38,02
321,95	42,44
322,479	35,21
323,007	42,03
323,535	37,91
324,063	38,77
324,591	37,35
325,118	44,84
325,646	35,38
326,173	42,69
326,701	43,57
327,228	41,36
327,755	32,3
328,282	37,97
328,809	32,01
329,336	36,72
329,862	21,14
330,389	35,17
330,915	34,09
331,441	40,56
331,968	36,87
332,494	34
333,02	29,46
333,545	31,59
334,071	28,79
334,597	34,62
335,122	39,64
335,648	43,04
336,173	32,75
336,698	34,86
337,223	36,88
337,748	38,66
338,272	35,77
338,797	33,41
339,322	31
339,846	32,13
340,37	35,95
340,894	27,84
341,419	35,5
341,942	28,4
342,466	39,67
342,99	42,74
343,514	40,25
344,037	31,2
344,56	27,33
345,084	32,95
345,607	28,16
346,13	33,59
346,653	36,17
347,175	29,49
347,698	33,6
348,221	34,45
348,743	36,06
349,265	28
349,787	30,96
350,309	30,6
350,831	31,21
351,353	39,07
351,875	32,55
352,397	30
352,918	34,13
353,439	33,74
353,961	40,84
354,482	22,9
355,003	34,04
355,524	25,15
356,044	29,62
356,565	28,27
357,086	27,44
357,606	29,4
358,126	38,43
358,646	35,8
359,167	32,61
359,687	26,42
360,206	26
360,726	30,14
361,246	31,03
361,765	29,41
362,285	28,13
362,804	29,23
363,323	31,32
363,842	25,37
364,361	28,34
364,88	25,66
365,398	33,29
365,917	31,55
366,435	26,61
366,954	27,18
367,472	28,63
367,99	30,74
368,508	23,18
369,026	28,89
369,544	30
370,061	25,2
370,579	29,67
371,096	30,75
371,613	28,9
372,131	33,3
372,648	26,59
373,165	27,1
373,681	32,82
374,198	33,63
374,715	26,46
375,231	31,1
375,747	27,48
376,264	28,47
376,78	29,24
377,296	26,73
377,812	25,53
378,327	27,06
378,843	29,06
379,359	30,38
379,874	26,95
380,389	29,86
380,905	28,55
381,42	35,77
381,935	27,87
382,449	29,14
382,964	26,09
383,479	30,3
383,993	26,86
384,508	27,79
385,022	27,48
385,536	27,8
386,05	26,85
386,564	23,86
387,078	26,91
387,592	26,59
388,105	23,64
388,619	23,8
389,132	25,61
389,645	23,75
390,158	25,05
390,671	23,34
391,184	23,96
391,697	24,89
392,21	21,69
392,722	20,82
393,235	23,39
393,747	22,62
394,259	23,25
394,771	23,91
395,283	21,05
395,795	20,07
396,307	21,79
396,818	23,9
397,33	23,24
397,841	21,67
398,353	21,26
398,864	20,65
399,375	20,07
399,886	20,95
400,397	21,23
400,907	20,44
401,418	18,15
401,928	17,28
402,439	19,28
402,949	18,49
403,459	17,91
403,969	18,02
404,479	17,39
404,989	15,62
405,498	15,48
406,008	16,97
406,517	15,24
407,027	15,02
407,536	15,42
408,045	13,51
408,554	13,78
409,063	13,35
409,572	13,89
410,08	12,57
410,589	12,15
411,097	12,18
411,606	10,9
412,114	10,97
412,622	11,38
413,13	10,72
413,638	10,77
414,145	10,83
414,653	10,74
415,16	10,49
415,668	9,47
416,175	9,6
416,682	9,65
417,189	8,92
417,696	9,42
418,203	9,24
418,71	9,35
419,216	8,39
419,723	9,5
420,229	8,76
420,735	8,19
421,242	8,13
421,748	8,62
422,254	7,99
422,759	8,14
423,265	8,51
423,771	7,55
424,276	7,98
424,781	8,42
425,287	7,25
425,792	7,64
426,297	8,21
426,802	7,59
427,306	7,69
427,811	7,65
428,316	8,22
428,82	7,66
429,324	7,13
429,829	7,81
430,333	7,35
430,837	7,1
431,34	7,42
431,844	7,33
432,348	7,25
432,851	7,55
433,355	7,23
433,858	7,28
434,361	7,92
434,864	7,38
435,367	7,25
435,87	6,92
436,373	7,38
436,876	7,13
437,378	7,31
437,88	7,86
438,383	7,34
438,885	7,59
439,387	6,96
439,889	7,12
440,391	7,4
440,892	7,31
441,394	7,08
441,896	6,99
442,397	7,71
442,898	7,23
443,399	6,97
443,9	7,27
444,401	7,11
444,902	7,23
445,403	7,31
445,903	7,18
446,404	7,4
446,904	7,52
447,405	7,46
447,905	7,49
448,405	7,28
448,905	7,03
449,404	7,37
449,904	7,2
450,404	7,48
450,903	7,79
451,403	7,27
451,902	7,78
452,401	7,53
452,9	7,66
453,399	7,4
453,898	7,62
454,396	7,65
454,895	7,52
455,393	7,71
455,892	7,89
456,39	7,41
456,888	7,57
457,386	7,59
457,884	7,57
458,382	7,47
458,879	8,06
459,377	7,86
459,874	7,39
460,372	8,03
460,869	8,05
461,366	7,59
461,863	7,38
462,36	8,06
462,857	7,97
463,353	7,86
463,85	7,51
464,346	7,5
464,843	7,46
465,339	7,88
465,835	7,9
466,331	7,81
466,827	7,77
467,323	8,06
467,818	7,45
468,314	7,58
468,809	7,69
469,305	7,68
469,8	7,62
470,295	7,91
470,79	7,78
471,285	7,45
471,78	7,47
472,274	7,9
472,769	7,64
473,263	7,92
473,758	7,78
474,252	7,57
474,746	7,81
475,24	7,81
475,734	7,73
476,228	7,71
476,721	8
477,215	7,93
477,708	7,96
478,202	7,47
478,695	7,52
479,188	7,97
479,681	7,77
480,174	7,75
480,667	7,82
481,159	7,63
481,652	7,63
482,144	7,85
482,637	7,84
483,129	8,23
483,621	8,03
484,113	8,05
484,605	8,12
485,097	7,9
485,588	7,85
486,08	8,1
486,571	8,02
487,063	8,21
487,554	8,37
488,045	8,18
488,536	8,22
489,027	8,33
489,518	8,45
490,008	7,87
490,499	8,05
490,989	8,6
491,48	8,48
491,97	8,21
492,46	8,49
492,95	8,61
493,44	8,41
493,93	8,41
494,419	8,66
494,909	8,95
495,398	8,81
495,888	8,76
496,377	9,08
496,866	8,94
497,355	8,9
497,844	9,2
498,333	9,18
498,821	9,4
499,31	9,58
499,798	9,28
500,287	9,53
500,775	9,8
501,263	10,09
501,751	9,96
502,239	10,23
502,727	10,09
503,215	10,11
503,702	10,58
504,19	10,83
504,677	10,65
505,164	10,86
505,651	11,47
506,139	11,42
506,625	11,5
507,112	11,71
507,599	12,05
508,086	12,09
508,572	12,3
509,058	12,63
509,545	12,78
510,031	12,87
510,517	13,01
511,003	13,56
511,489	13,79
511,974	13,93
512,46	14,13
512,946	14,48
513,431	14,48
513,916	15,01
514,401	15,39
514,887	15,76
515,371	15,81
515,856	16,1
516,341	16,65
516,826	17,33
517,31	16,95
517,795	17,69
518,279	17,58
518,763	17,84
519,247	18,53
519,731	18,76
520,215	19,28
520,699	19,32
521,182	20,03
521,666	20,5
522,149	20,43
522,633	20,66
523,116	20,92
523,599	21,07
524,082	21,59
524,565	22
525,048	22,66
525,53	22,9
526,013	22,96
526,495	23,25
526,978	23,22
527,46	23,63
527,942	24,01
528,424	24,11
528,906	24,5
529,388	24,63
529,87	24,75
530,351	25,24
530,833	24,92
531,314	25,61
531,795	25,83
532,277	26,07
532,758	26,05
533,238	26,1
533,719	26,3
534,2	26,58
534,681	26,79
535,161	26,63
535,642	26,61
536,122	27,01
536,602	26,85
537,082	27,2
537,562	27,07
538,042	27,1
538,522	27,22
539,001	27,28
539,481	26,95
539,96	27,44
540,44	27,7
540,919	27,44
541,398	27,83
541,877	27,74
542,356	27,78
542,835	27,3
543,313	28,04
543,792	27,53
544,27	27,36
544,749	27,79
545,227	28,14
545,705	27,69
546,183	27,84
546,661	28,14
547,139	27,93
547,616	28,32
548,094	27,87
548,571	28,13
549,049	28,78
549,526	28,77
550,003	28,44
550,48	28,28
550,957	28,38
551,434	28,41
551,911	28,03
552,387	28,36
552,864	28,36
553,34	28,77
553,817	28,53
554,293	28,6
554,769	28,45
555,245	28,55
555,721	28,39
556,197	28,27
556,672	28,22
557,148	27,85
557,623	28,36
558,099	28,27
558,574	28,29
559,049	27,97
559,524	27,93
559,999	27,64
560,474	28,01
560,948	27,5
561,423	27,68
561,897	27,59
562,372	27,84
562,846	27,71
563,32	27,42
563,794	27,67
564,268	27,25
564,742	26,89
565,216	26,64
565,69	26,95
566,163	26,54
566,636	26,55
567,11	26,32
567,583	26,31
568,056	26,02
568,529	26,02
569,002	25,64
569,475	25,72
569,947	25,52
570,42	25,2
570,892	25,2
571,365	24,75
571,837	24,85
572,309	24,94
572,781	24,44
573,253	24,26
573,725	23,75
574,197	24,01
574,668	23,52
575,14	23,31
575,611	23,31
576,082	23,22
576,554	23,24
577,025	22,87
577,496	22,51
577,967	22,46
578,437	22,4
578,908	22,09
579,379	21,93
579,849	21,84
580,319	21,84
580,79	21,57
581,26	21,3
581,73	21,41
582,2	21,29
582,669	21,04
583,139	20,98
583,609	21,01
584,078	20,82
584,548	20,77
585,017	20,61
585,486	20,53
585,955	20,89
586,424	20,4
586,893	20,44
587,362	20,27
587,83	20,01
588,299	20,01
588,767	19,99
589,236	19,92
589,704	19,82
590,172	19,66
590,64	19,78
591,108	19,35
591,576	19,33
592,043	19,41
592,511	19,36
592,978	19,3
593,446	19,2
593,913	19,07
594,38	18,88
594,847	18,84
595,314	18,87
595,781	18,79
596,248	18,83
596,715	18,72
597,181	18,74
597,647	18,82
598,114	18,58
598,58	18,49
599,046	18,53
599,512	18,87
599,978	18,69
600,444	18,73
600,91	18,43
601,375	18,38
601,841	18,46
602,306	18,21
602,771	18,18
603,236	18,15
603,702	17,94
604,167	18,34
604,631	18
605,096	18,06
605,561	17,86
606,025	17,64
606,49	17,46
606,954	17,73
607,418	17,5
607,882	17,38
608,347	17,33
608,81	17,5
609,274	17,18
609,738	17,1
610,202	16,76
610,665	16,92
611,128	16,63
611,592	16,72
612,055	16,64
612,518	16,52
612,981	16,48
613,444	16,33
613,907	16,28
614,369	16,03
614,832	15,85
615,294	15,99
615,757	15,53
616,219	15,79
616,681	15,6
617,143	15,56
617,605	15,46
618,067	15,23
618,529	15,15
618,99	15,16
619,452	14,99
619,913	14,9
620,375	14,88
620,836	14,73
621,297	14,77
621,758	14,88
622,219	14,76
622,68	14,72
623,14	14,59
623,601	14,63
624,061	14,51
624,522	14,52
624,982	14,18
625,442	14,49
625,902	14,58
626,362	14,42
626,822	14,24
627,282	14,26
627,742	14,23
628,201	14,4
628,661	13,97
629,12	14,1
629,579	14,23
630,038	14,2
630,497	14,3
630,956	13,96
631,415	13,96
631,874	14,03
632,332	14,29
632,791	13,87
633,249	13,96
633,708	13,61
634,166	14,05
634,624	13,89
635,082	13,7
635,54	13,68
635,998	13,52
636,455	13,49
636,913	13,34
637,37	13,14
637,828	13,15
638,285	12,98
638,742	13,16
639,199	13,12
639,656	12,67
640,113	12,57
640,57	12,62
641,027	12,5
641,483	12,4
641,94	12,28
642,396	12,11
642,852	12,13
643,309	11,89
643,765	11,79
644,221	11,6
644,676	11,54
645,132	11,36
645,588	11,33
646,043	11,34
646,499	11,03
646,954	10,91
647,409	10,83
647,864	10,78
648,319	10,78
648,774	10,49
649,229	10,44
649,684	10,42
650,139	10,36
650,593	10,18
651,047	10,33
651,502	10,09
651,956	10,06
652,41	10,14
652,864	9,93
653,318	9,97
653,772	9,81
654,225	9,86
654,679	9,84
655,133	9,65
655,586	9,67
656,039	9,74
656,492	9,54
656,946	9,51
657,399	9,32
657,851	9,25
658,304	9,23
658,757	9,11
659,209	9,14
659,662	9,12
660,114	8,99
660,567	8,89
661,019	8,78
661,471	8,6
661,923	8,67
662,375	8,42
662,826	8,6
663,278	8,5
663,73	8,37
664,181	8,28
664,632	8,22
665,084	8,2
665,535	8,13
665,986	8,14
666,437	8,19
666,888	8,07
667,338	8,1
667,789	8,1
668,24	7,94
668,69	7,97
669,14	8,03
669,591	8,1
670,041	8,03
670,491	8,19
670,941	8,08
671,391	8,23
671,84	8,27
672,29	8,3
672,74	8,38
673,189	8,5
673,638	8,48
674,088	8,65
674,537	8,72
674,986	8,75
675,435	8,77
675,883	8,91
676,332	9,01
676,781	9,17
677,229	9,2
677,678	9,15
678,126	9,45
678,574	9,52
679,022	9,65
679,47	9,64
679,918	9,9
680,366	9,92
680,814	10,08
681,261	10,23
681,709	10,19
682,156	10,46
682,604	10,54
683,051	10,77
683,498	10,75
683,945	11,13
684,392	11,09
684,839	11,11
685,286	11,44
685,732	11,57
686,179	11,68
686,625	11,76
687,071	12,05
687,518	12,28
687,964	12,45
688,41	12,66
688,856	12,79
689,301	13,18
689,747	13,5
690,193	13,74
690,638	14,13
691,084	14,58
691,529	15
691,974	15,32
692,419	15,73
692,864	16,42
693,309	16,79
693,754	17,19
694,199	17,9
694,643	18,33
695,088	18,93
695,532	19,39
695,977	20,08
696,421	20,46
696,865	20,83
697,309	21,81
697,753	22,08
698,197	22,71
698,64	23,13
699,084	23,99
699,527	24,52
699,971	24,76
700,414	25,58
700,857	26
701,3	26,41
701,743	27,01
702,186	27,4
702,629	27,93
703,072	28,38
703,515	28,82
703,957	29,14
704,399	29,43
704,842	29,95
705,284	30,53
705,726	30,97
706,168	31,22
706,61	31,93
707,052	32,15
707,494	32,57
707,935	33,1
708,377	33,43
708,818	33,45
709,26	34,16
709,701	34,09
710,142	34,88
710,583	34,86
711,024	35,21
711,465	35,3
711,905	36,45
712,346	36,33
712,787	36,68
713,227	37,13
713,667	37,22
714,108	37,51
714,548	37,7
714,988	38,13
715,428	38,46
715,868	38,56
716,307	39,06
716,747	39,25
717,186	39,6
717,626	39,78
718,065	39,8
718,504	40,44
718,944	40,67
719,383	40,83
719,822	41,02
720,261	41,04
720,699	41,45
721,138	41,87
721,576	41,57
722,015	41,91
722,453	42,11
722,892	42,36
723,33	42,24
723,768	42,51
724,206	42,95
724,644	42,62
725,081	43,19
725,519	43,38
725,957	43,43
726,394	43,51
726,832	43,67
727,269	43,82
727,706	44,12
728,143	44,14
728,58	44,25
729,017	44,21
729,454	44,28
729,89	44,31
730,327	44,61
730,764	44,64
731,2	44,71
731,636	44,9
732,072	45,08
732,509	44,87
732,945	44,9
733,38	44,99
733,816	45,11
734,252	44,94
734,688	45,21
735,123	45,26
735,559	45,46
735,994	45,17
736,429	45,57
736,864	45,47
737,299	45,92
737,734	45,55
738,169	45,68
738,604	45,51
739,038	45,54
739,473	45,76
739,907	45,57
740,342	45,61
740,776	45,62
741,21	45,86
741,644	45,63
742,078	45,62
742,512	45,54
742,946	45,48
743,379	45,43
743,813	45,54
744,246	45,63
744,68	45,58
745,113	45,39
745,546	45,67
745,979	45,55
746,412	45,34
746,845	45,48
747,278	45,42
747,711	45,68
748,143	45,45
748,576	45,68
749,008	45,36
749,441	45,41
749,873	45,49
750,305	45,31
750,737	45,09
751,169	45,24
751,601	45,3
752,032	45,23
752,464	45,42
752,896	45,06
753,327	45,06
753,758	45,18
754,19	44,93
754,621	45,18
755,052	44,93
755,483	44,91
755,914	44,59
756,344	44,79
756,775	44,79
757,206	44,76
757,636	44,85
758,066	44,58
758,497	44,28
758,927	44,49
759,357	44,45
759,787	44,49
760,217	44,6
760,647	44,38
761,076	44,31
761,506	44,39
761,935	44,2
762,365	44,5
762,794	44,47
763,223	44,14
763,653	44,27
764,082	44,13
764,51	44,11
764,939	44,2
765,368	43,91
765,797	43,96
766,225	44,17
766,654	43,91
767,082	43,75
767,51	44,04
767,938	43,75
768,367	43,96
768,795	43,88
769,222	43,94
769,65	44,09
770,078	43,73
770,505	43,61
770,933	43,85
771,36	43,73
771,788	43,5
772,215	43,71
772,642	43,78
773,069	43,68
773,496	43,77
773,923	43,45
774,349	43,79
774,776	43,63
775,203	43,5
775,629	43,51
776,055	43,9
776,482	43,08
776,908	43,34
777,334	43,17
777,76	43,14
778,186	43,31
778,611	43,28
779,037	43,52
779,463	43,2
779,888	43,34
780,314	43,43
780,739	43,47
781,164	43,14
781,589	43,31
782,014	43,14
782,439	42,84
782,864	43,18
783,289	43,04
783,713	43,07
784,138	43,35
784,562	43,33
784,987	42,8
785,411	43,19
785,835	43,02
786,259	43
786,683	43,15
787,107	43,04
787,531	42,9
787,954	43,15
788,378	42,96
788,802	42,77
789,225	43,15
789,648	43,05
790,071	42,72
790,495	43,01
790,918	42,81
791,34	42,78
791,763	43,09
792,186	43,13
792,609	43,15
793,031	42,73
793,454	42,73
793,876	42,86
794,298	42,82
794,721	43,15
795,143	42,83
795,565	42,95
795,986	42,83
796,408	42,74
796,83	42,65
797,252	42,81
797,673	42,73
798,094	42,67
798,516	42,71
798,937	42,76
799,358	42,54
799,779	42,68
800,2	42,76
800,621	42,78
801,042	42,79
801,462	42,78
801,883	42,57
802,303	42,66
802,724	42,63
803,144	42,69
803,564	42,66
803,984	42,91
804,404	42,68
804,824	42,44
805,244	42,62
805,664	42,67
806,084	42,58
806,503	42,69
806,923	42,65
807,342	42,74
807,761	42,62
808,18	42,69
808,599	42,89
809,018	42,42
809,437	42,7
809,856	42,62
810,275	42,47
810,693	42,72
811,112	42,71
811,53	42,84
811,949	42,85
812,367	42,44
812,785	42,51
813,203	42,61
813,621	42,74
814,039	42,25
814,457	42,52
814,874	42,55
815,292	42,42
815,709	42,34
816,127	42,56
816,544	42,67
816,961	42,5
817,378	42,68
817,795	42,7
818,212	42,46
818,629	42,46
819,046	42,28
819,462	42,75
819,879	42,46
820,295	42,43
820,712	42,37
821,128	42,32
821,544	42,14
821,96	42,45
822,376	42,42
822,792	42,64
823,208	42,26
823,624	42,35
824,039	42,49
824,455	42,29
824,87	42,41
825,286	42,52
825,701	42,36
826,116	42,34
826,531	42,3
826,946	42,25
827,361	42,3
827,776	42,23
828,19	42,36
828,605	42,45
829,02	42,39
829,434	42,06
829,848	42,46
830,263	42,29
830,677	42,52
831,091	42,69
831,505	42,32
831,919	42,29
832,332	42,24
832,746	42,24
833,16	42,49
833,573	42,13
833,987	42,26
834,4	42,14
834,813	42,25
835,226	41,96
835,639	41,9
836,052	42,27
836,465	42,16
836,878	42,14
837,29	42,09
837,703	42,39
838,116	42,31
838,528	42,32
838,94	42,23
839,352	42,31
839,765	42,42
840,177	42,3
840,589	42,1
841	42,04
