Data from A_2_Relative__9__00009.txt Node

Date: Tue Jan 30 09:45:31 CET 2024
User: diatiterra
Spectrometer: HDX00911
Trigger mode: 0
Integration Time (sec): 6,000000E-3
Scans to average: 2
Nonlinearity correction enabled: false
Boxcar width: 0
Storing dark spectrum: false
XAxis mode: Wavelengths
Number of Pixels in Spectrum: 2068
>>>>>Begin Spectral Data<<<<<
194,468	82,61
195,025	69,66
195,581	59,15
196,138	69,66
196,694	60,81
197,251	77,61
197,807	46,59
198,363	59,76
198,919	58,33
199,474	59,49
200,03	52,51
200,586	55,7
201,141	56,25
201,696	51,28
202,251	46,09
202,806	57,55
203,361	58,9
203,916	50,32
204,471	57,26
205,025	66,44
205,58	47,92
206,134	51,55
206,688	60,96
207,242	58,6
207,796	49,1
208,35	56,25
208,904	46,34
209,457	62,79
210,011	56,1
210,564	57,53
211,117	69,88
211,67	62,5
212,223	57,24
212,776	58,48
213,329	50,9
213,881	52,03
214,434	51,22
214,986	52,87
215,538	50,59
216,09	59,88
216,642	62,09
217,194	38,82
217,746	55,7
218,297	60,26
218,849	57,58
219,4	50
219,951	48,21
220,502	57,87
221,053	68,64
221,604	57,65
222,155	44,14
222,705	45,03
223,256	57,71
223,806	43,9
224,356	46,51
224,906	50,62
225,456	41,46
226,006	42,51
226,556	48,99
227,106	66,18
227,655	46,04
228,204	58,97
228,754	42,94
229,303	55,7
229,852	45,57
230,401	47,17
230,949	61,84
231,498	40,58
232,047	46,82
232,595	49,72
233,143	47,37
233,691	55,1
234,239	52,2
234,787	40
235,335	36,5
235,883	51,03
236,43	62,82
236,978	37,74
237,525	46,91
238,072	41,61
238,619	41,98
239,166	41,45
239,713	50,97
240,26	41,21
240,806	61,22
241,353	52,94
241,899	53,09
242,445	50
242,991	50,89
243,537	43,33
244,083	46,71
244,629	34,25
245,174	52,44
245,72	45,21
246,265	47,2
246,81	61,15
247,355	69,59
247,9	47,02
248,445	58,91
248,99	51,09
249,534	57,58
250,079	51,88
250,623	49,03
251,168	62,72
251,712	48,15
252,256	51,91
252,8	43,14
253,343	49,71
253,887	47,28
254,43	55,38
254,974	70,8
255,517	42,65
256,06	59,84
256,603	51,83
257,146	58,39
257,689	47,37
258,232	76,34
258,774	55,74
259,317	65,25
259,859	51,03
260,401	63,11
260,943	60,26
261,485	62,93
262,027	53,64
262,569	51,68
263,11	61,97
263,652	46,21
264,193	48,59
264,734	58,62
265,275	53,06
265,816	41,3
266,357	59,57
266,898	53,5
267,438	60,65
267,979	55,38
268,519	40,41
269,059	61,11
269,6	47,74
270,14	40,29
270,68	49,31
271,219	51,01
271,759	37,5
272,298	55,56
272,838	45,22
273,377	51,7
273,916	54,37
274,455	61,11
274,994	51,47
275,533	52,98
276,072	55,63
276,61	54,78
277,149	57,04
277,687	55,76
278,225	64,46
278,763	74,05
279,301	49,69
279,839	56,77
280,377	50,74
280,914	39,06
281,452	56,79
281,989	54,22
282,526	53,46
283,064	54,86
283,601	48,84
284,137	32,85
284,674	50
285,211	59,84
285,747	56,89
286,284	59,88
286,82	56,94
287,356	49,63
287,892	41,06
288,428	44,06
288,964	50,31
289,5	51,88
290,035	64,29
290,571	60,25
291,106	63,27
291,641	66,67
292,176	53,79
292,711	51,37
293,246	70,07
293,781	43,28
294,315	50
294,85	57,43
295,384	43,8
295,918	53,07
296,453	52,53
296,987	63,39
297,52	54,01
298,054	55,7
298,588	70,77
299,121	61,42
299,655	39,31
300,188	60,87
300,721	45,58
301,254	50
301,787	61,54
302,32	51,88
302,853	54,07
303,385	50,97
303,918	55,56
304,45	52,38
304,982	55,26
305,514	38,61
306,046	63,38
306,578	62,77
307,11	54,44
307,641	51,61
308,173	48,12
308,704	54,7
309,236	54,55
309,767	48,28
310,298	53,14
310,829	66
311,359	51,55
311,89	55,41
312,421	46,1
312,951	41,94
313,481	45
314,012	55,76
314,542	62,6
315,072	45,07
315,601	52,14
316,131	51,49
316,661	51,22
317,19	26,56
317,72	51,7
318,249	45,86
318,778	61,54
319,307	51,27
319,836	52,9
320,365	51,02
320,893	53,45
321,422	48,89
321,95	52,15
322,479	66,19
323,007	47,68
323,535	58,47
324,063	54,9
324,591	57,86
325,118	46,03
325,646	54,41
326,173	60,47
326,701	52,67
327,228	46,78
327,755	38,52
328,282	55,24
328,809	45,04
329,336	56,25
329,862	53,93
330,389	39,63
330,915	49,02
331,441	48,92
331,968	54,01
332,494	42,38
333,02	43,02
333,545	48,15
334,071	45,45
334,597	46,1
335,122	45,39
335,648	50,29
336,173	54,14
336,698	44,67
337,223	39,57
337,748	48,39
338,272	50,93
338,797	54,29
339,322	51,88
339,846	47,34
340,37	47,44
340,894	47,47
341,419	61,64
341,942	39,57
342,466	33,33
342,99	49,37
343,514	47,54
344,037	52,27
344,56	37,29
345,084	42,5
345,607	44,2
346,13	39,66
346,653	32,45
347,175	33,33
347,698	47,28
348,221	45
348,743	48,48
349,265	29,89
349,787	48,48
350,309	43,59
350,831	48,09
351,353	42,07
351,875	48,65
352,397	40,76
352,918	42,21
353,439	35,4
353,961	41,58
354,482	39,22
355,003	54,98
355,524	39,41
356,044	43,3
356,565	41,23
357,086	37,44
357,606	40,84
358,126	42,65
358,646	38,16
359,167	43,12
359,687	36,89
360,206	49,36
360,726	39,15
361,246	45,34
361,765	40,38
362,285	34,45
362,804	35,29
363,323	43,53
363,842	39,27
364,361	39,83
364,88	40,65
365,398	42,25
365,917	39,82
366,435	45,34
366,954	39,52
367,472	38,1
367,99	34,98
368,508	30,68
369,026	33,56
369,544	32,87
370,061	34,39
370,579	33,96
371,096	30,93
371,613	32,6
372,131	31,74
372,648	37,87
373,165	35,56
373,681	36,4
374,198	30,19
374,715	31,97
375,231	37,71
375,747	32,67
376,264	31,86
376,78	30,65
377,296	34,44
377,812	24,86
378,327	27,06
378,843	27,03
379,359	26,48
379,874	25,96
380,389	18,62
380,905	31,82
381,42	28,29
381,935	29,21
382,449	29,48
382,964	29,15
383,479	25,31
383,993	29,83
384,508	26,85
385,022	21,36
385,536	28
386,05	21,68
386,564	21,72
387,078	25,58
387,592	28,14
388,105	20,83
388,619	24,95
389,132	24,1
389,645	21,35
390,158	22,2
390,671	26,07
391,184	22,72
391,697	22,26
392,21	22,66
392,722	22,11
393,235	20
393,747	19,84
394,259	17,73
394,771	18,67
395,283	20,31
395,795	19,15
396,307	21,21
396,818	19,5
397,33	20,26
397,841	15,37
398,353	15,81
398,864	18,84
399,375	18,92
399,886	12,88
400,397	19,97
400,907	15,08
401,418	15,99
401,928	18,82
402,439	16,93
402,949	13,76
403,459	15,8
403,969	14,35
404,479	15,04
404,989	15,07
405,498	13,66
406,008	13,82
406,517	12,61
407,027	13,73
407,536	13,01
408,045	13,25
408,554	12,42
409,063	12,69
409,572	11,18
410,08	11,24
410,589	11,02
411,097	10,22
411,606	9,86
412,114	7,1
412,622	8,74
413,13	10,61
413,638	9,84
414,145	9,03
414,653	7,49
415,16	8,46
415,668	9,06
416,175	7,42
416,682	6,3
417,189	7,27
417,696	7,39
418,203	7,99
418,71	7,26
419,216	7,27
419,723	7,03
420,229	6,19
420,735	6,15
421,242	6,94
421,748	5,25
422,254	7,6
422,759	5,8
423,265	5,47
423,771	6,23
424,276	5,88
424,781	6,04
425,287	5,66
425,792	5,93
426,297	5,99
426,802	6,46
427,306	4,93
427,811	5,69
428,316	6,81
428,82	5,39
429,324	5,64
429,829	6,14
430,333	5,95
430,837	5,86
431,34	5,28
431,844	4,86
432,348	5,46
432,851	5,22
433,355	5,21
433,858	5,67
434,361	5,11
434,864	5,05
435,367	5,68
435,87	5,46
436,373	4,87
436,876	5,63
437,378	5,42
437,88	5,09
438,383	5,29
438,885	4,36
439,387	4,9
439,889	5,41
440,391	4,81
440,892	4,93
441,394	5,18
441,896	5,29
442,397	5,11
442,898	4,74
443,399	4,64
443,9	4,59
444,401	4,73
444,902	4,84
445,403	5,19
445,903	5,3
446,404	5,28
446,904	5,62
447,405	4,83
447,905	4,7
448,405	5,15
448,905	5,05
449,404	4,65
449,904	4,93
450,404	4,61
450,903	5,39
451,403	4,79
451,902	4,84
452,401	5,2
452,9	5,19
453,399	5,32
453,898	4,95
454,396	4,99
454,895	5,4
455,393	5,32
455,892	5,5
456,39	4,62
456,888	5,27
457,386	4,91
457,884	5,21
458,382	5,12
458,879	5,39
459,377	5,29
459,874	5,33
460,372	5,39
460,869	5,37
461,366	5,15
461,863	5,11
462,36	4,97
462,857	4,93
463,353	5,17
463,85	5,06
464,346	4,92
464,843	5,27
465,339	4,76
465,835	4,88
466,331	4,69
466,827	4,84
467,323	4,98
467,818	4,79
468,314	4,96
468,809	5,25
469,305	5,21
469,8	4,87
470,295	5,18
470,79	5,41
471,285	5,19
471,78	4,99
472,274	4,96
472,769	5,13
473,263	5,02
473,758	5,27
474,252	4,92
474,746	4,93
475,24	5,04
475,734	5,28
476,228	5,06
476,721	5,46
477,215	5,03
477,708	5,27
478,202	4,88
478,695	5,08
479,188	5,27
479,681	5,07
480,174	5,04
480,667	5,24
481,159	5,27
481,652	5,2
482,144	4,91
482,637	5,01
483,129	4,93
483,621	5,4
484,113	5,41
484,605	5,33
485,097	5,01
485,588	5,44
486,08	5,25
486,571	5,09
487,063	5,47
487,554	5,11
488,045	5,58
488,536	5,09
489,027	5,31
489,518	5,48
490,008	5,41
490,499	5,6
490,989	5,32
491,48	5,18
491,97	5,35
492,46	5,49
492,95	5,35
493,44	5,5
493,93	5,73
494,419	5,82
494,909	5,42
495,398	5,77
495,888	5,46
496,377	5,85
496,866	5,92
497,355	5,77
497,844	6,34
498,333	5,93
498,821	6,15
499,31	6,19
499,798	6,14
500,287	6,12
500,775	6,47
501,263	6,45
501,751	6,36
502,239	6,36
502,727	6,59
503,215	6,79
503,702	6,84
504,19	6,69
504,677	6,85
505,164	7,4
505,651	7,41
506,139	7,29
506,625	7,24
507,112	7,7
507,599	7,8
508,086	7,99
508,572	8,28
509,058	8,23
509,545	8,62
510,031	8,81
510,517	8,95
511,003	9,34
511,489	9,75
511,974	9,5
512,46	9,29
512,946	9,67
513,431	9,86
513,916	10,72
514,401	10,93
514,887	10,84
515,371	11,4
515,856	11,77
516,341	11,75
516,826	11,86
517,31	12,23
517,795	12,47
518,279	12,23
518,763	13,58
519,247	13,22
519,731	13,77
520,215	13,83
520,699	14,54
521,182	14,48
521,666	14,28
522,149	15,72
522,633	16,05
523,116	15,8
523,599	16,15
524,082	16,01
524,565	17,06
525,048	17,12
525,53	17,15
526,013	17,04
526,495	18,05
526,978	18,38
527,46	18,09
527,942	18,61
528,424	18,81
528,906	19
529,388	19,38
529,87	19,46
530,351	19,8
530,833	19,66
531,314	20,22
531,795	20,8
532,277	20,22
532,758	20,64
533,238	20,91
533,719	20,84
534,2	21,29
534,681	21
535,161	21,65
535,642	21,48
536,122	21,47
536,602	21,53
537,082	21,61
537,562	21,71
538,042	21,63
538,522	21,9
539,001	22,35
539,481	21,85
539,96	21,63
540,44	22,41
540,919	22,75
541,398	22,48
541,877	22,21
542,356	22,33
542,835	22,44
543,313	22,05
543,792	22,39
544,27	22,64
544,749	22,42
545,227	22,67
545,705	22,42
546,183	22,92
546,661	22,53
547,139	22,8
547,616	22,59
548,094	22,92
548,571	22,79
549,049	23,32
549,526	23,12
550,003	22,76
550,48	22,91
550,957	23,24
551,434	22,7
551,911	23,14
552,387	23,42
552,864	23,5
553,34	23,19
553,817	23,49
554,293	23,53
554,769	23,62
555,245	23,47
555,721	22,91
556,197	22,99
556,672	23,21
557,148	23,56
557,623	22,49
558,099	22,84
558,574	23,06
559,049	23,12
559,524	22,66
559,999	22,45
560,474	22,77
560,948	22,4
561,423	23,11
561,897	22,2
562,372	22,27
562,846	21,72
563,32	22,28
563,794	21,73
564,268	22,13
564,742	21,45
565,216	21,46
565,69	21,56
566,163	21,19
566,636	21,28
567,11	20,85
567,583	20,49
568,056	20,86
568,529	20,66
569,002	20,5
569,475	20,24
569,947	20,25
570,42	20,19
570,892	19,29
571,365	19,64
571,837	19,65
572,309	19
572,781	19,04
573,253	18,39
573,725	18,8
574,197	18,26
574,668	18,07
575,14	18,16
575,611	17,73
576,082	17,91
576,554	17,47
577,025	17,2
577,496	17,26
577,967	17,04
578,437	16,97
578,908	16,76
579,379	16,92
579,849	16,77
580,319	16,72
580,79	16,04
581,26	16,24
581,73	16,4
582,2	15,9
582,669	15,73
583,139	15,67
583,609	15,97
584,078	15,54
584,548	15,57
585,017	15,57
585,486	15,29
585,955	15,2
586,424	15,23
586,893	15,2
587,362	14,9
587,83	14,65
588,299	14,89
588,767	14,59
589,236	14,51
589,704	14,76
590,172	14,3
590,64	14,32
591,108	14,49
591,576	14,02
592,043	13,95
592,511	14,36
592,978	13,84
593,446	14,11
593,913	14,09
594,38	14,02
594,847	13,96
595,314	13,9
595,781	13,75
596,248	13,72
596,715	13,82
597,181	13,69
597,647	13,72
598,114	13,65
598,58	13,59
599,046	13,45
599,512	13,61
599,978	13,32
600,444	13,52
600,91	13,14
601,375	13,76
601,841	13,32
602,306	13,1
602,771	13,3
603,236	13,22
603,702	13,21
604,167	12,92
604,631	13,25
605,096	13,05
605,561	12,77
606,025	12,82
606,49	12,98
606,954	12,76
607,418	12,67
607,882	12,61
608,347	12,4
608,81	12,46
609,274	12,3
609,738	12,13
610,202	11,77
610,665	12
611,128	12,03
611,592	11,78
612,055	11,52
612,518	11,82
612,981	11,6
613,444	11,63
613,907	11,34
614,369	11,43
614,832	11,17
615,294	11,21
615,757	11,06
616,219	11,27
616,681	10,99
617,143	10,84
617,605	10,89
618,067	10,8
618,529	10,72
618,99	10,67
619,452	10,4
619,913	10,5
620,375	10,39
620,836	10,37
621,297	10,25
621,758	10,13
622,219	10,26
622,68	10,42
623,14	10,08
623,601	10,32
624,061	10,06
624,522	10,09
624,982	10,23
625,442	9,77
625,902	10,14
626,362	9,83
626,822	9,88
627,282	9,94
627,742	9,86
628,201	9,83
628,661	9,9
629,12	9,78
629,579	9,8
630,038	9,6
630,497	9,67
630,956	9,84
631,415	9,67
631,874	9,74
632,332	9,79
632,791	9,89
633,249	9,43
633,708	9,64
634,166	9,48
634,624	9,36
635,082	9,5
635,54	9,22
635,998	9,11
636,455	9,22
636,913	9,15
637,37	9,2
637,828	8,98
638,285	9,08
638,742	9,03
639,199	8,73
639,656	8,59
640,113	8,68
640,57	8,35
641,027	8,42
641,483	8,31
641,94	8,16
642,396	7,98
642,852	7,9
643,309	7,92
643,765	7,74
644,221	7,48
644,676	7,56
645,132	7,45
645,588	7,32
646,043	7,26
646,499	7,31
646,954	7,22
647,409	7,07
647,864	7,03
648,319	6,95
648,774	6,58
649,229	6,68
649,684	6,86
650,139	6,48
650,593	6,56
651,047	6,48
651,502	6,53
651,956	6,39
652,41	6,36
652,864	6,54
653,318	6,4
653,772	6,32
654,225	6,29
654,679	6,22
655,133	6,23
655,586	6,05
656,039	6,2
656,492	6,11
656,946	6,21
657,399	6,06
657,851	6,07
658,304	5,97
658,757	5,82
659,209	5,89
659,662	5,92
660,114	5,74
660,567	5,48
661,019	5,67
661,471	5,5
661,923	5,57
662,375	5,42
662,826	5,46
663,278	5,56
663,73	5,31
664,181	5,46
664,632	5,45
665,084	5,23
665,535	5,4
665,986	5,23
666,437	5,26
666,888	5,35
667,338	5,28
667,789	5,35
668,24	5,4
668,69	5,22
669,14	5,47
669,591	5,32
670,041	5,47
670,491	5,49
670,941	5,48
671,391	5,49
671,84	5,58
672,29	5,66
672,74	5,7
673,189	5,66
673,638	5,89
674,088	5,9
674,537	5,92
674,986	5,95
675,435	6,16
675,883	6,2
676,332	6,23
676,781	6,33
677,229	6,44
677,678	6,89
678,126	6,53
678,574	6,56
679,022	6,81
679,47	6,98
679,918	7,13
680,366	7,11
680,814	7,38
681,261	7,52
681,709	7,53
682,156	7,66
682,604	7,55
683,051	7,68
683,498	8
683,945	8,06
684,392	8,18
684,839	8,16
685,286	8,33
685,732	8,46
686,179	8,42
686,625	8,5
687,071	8,71
687,518	8,76
687,964	8,72
688,41	8,87
688,856	9,35
689,301	9,47
689,747	9,61
690,193	9,91
690,638	10,16
691,084	10,37
691,529	10,84
691,974	11,16
692,419	11,41
692,864	11,85
693,309	12,4
693,754	12,83
694,199	13,18
694,643	13,58
695,088	14,3
695,532	14,79
695,977	15,62
696,421	15,78
696,865	16,56
697,309	17,13
697,753	17,66
698,197	18,2
698,64	18,93
699,084	19,31
699,527	19,83
699,971	20,33
700,414	21,03
700,857	21,62
701,3	22,03
701,743	23,01
702,186	23,67
702,629	23,91
703,072	24,58
703,515	24,78
703,957	25,65
704,399	26,13
704,842	26,87
705,284	27,06
705,726	27,66
706,168	28,02
706,61	28,82
707,052	29,29
707,494	29,87
707,935	30,64
708,377	30,55
708,818	31,22
709,26	31,57
709,701	32,59
710,142	32,77
710,583	33,06
711,024	33,56
711,465	33,94
711,905	34,19
712,346	34,59
712,787	35,41
713,227	35,86
713,667	36,45
714,108	36,22
714,548	37,06
714,988	37,46
715,428	37,98
715,868	38,24
716,307	38,87
716,747	38,89
717,186	39,4
717,626	39,33
718,065	39,76
718,504	40,52
718,944	41,02
719,383	41
719,822	41,87
720,261	41,88
720,699	42,79
721,138	42,66
721,576	42,91
722,015	43,25
722,453	43,58
722,892	43,63
723,33	44,16
723,768	44,27
724,206	44,35
724,644	44,74
725,081	44,83
725,519	45,15
725,957	45,71
726,394	45,83
726,832	45,89
727,269	46,3
727,706	46,59
728,143	46,29
728,58	47,06
729,017	47,14
729,454	46,84
729,89	47,53
730,327	47,36
730,764	48,06
731,2	47,97
731,636	48,27
732,072	47,79
732,509	48,4
732,945	48,9
733,38	48,69
733,816	49,11
734,252	48,9
734,688	48,88
735,123	49,11
735,559	48,85
735,994	49,26
736,429	49,11
736,864	49,7
737,299	49,73
737,734	49,87
738,169	49,66
738,604	49,96
739,038	49,69
739,473	49,68
739,907	50,61
740,342	49,84
740,776	50,19
741,21	49,6
741,644	49,94
742,078	50,07
742,512	50,05
742,946	50,34
743,379	50,13
743,813	50,49
744,246	50,22
744,68	50,23
745,113	50,69
745,546	50,31
745,979	50,49
746,412	50,54
746,845	50,14
747,278	50,17
747,711	50,23
748,143	50,39
748,576	50,24
749,008	50,4
749,441	50,42
749,873	50,19
750,305	50,11
750,737	50,26
751,169	50,23
751,601	49,83
752,032	49,93
752,464	50,31
752,896	50,39
753,327	49,87
753,758	49,98
754,19	49,93
754,621	50,04
755,052	49,8
755,483	50,05
755,914	49,8
756,344	49,96
756,775	50,02
757,206	49,42
757,636	49,85
758,066	49,71
758,497	50,04
758,927	49,9
759,357	49,94
759,787	49,29
760,217	49,29
760,647	49,93
761,076	49,69
761,506	49,79
761,935	49,2
762,365	49,47
762,794	49,51
763,223	49,63
763,653	49,34
764,082	49,85
764,51	49,32
764,939	49,6
765,368	48,95
765,797	49,41
766,225	48,98
766,654	49,25
767,082	49,27
767,51	49,33
767,938	48,67
768,367	49,1
768,795	49,04
769,222	49,43
769,65	48,81
770,078	48,94
770,505	49,24
770,933	48,92
771,36	48,76
771,788	48,66
772,215	49,02
772,642	48,84
773,069	48,85
773,496	48,7
773,923	48,53
774,349	48,88
774,776	49,1
775,203	48,59
775,629	48,91
776,055	49
776,482	48,55
776,908	48,72
777,334	49,04
777,76	48,02
778,186	48,28
778,611	48,26
779,037	48,19
779,463	48,44
779,888	48,47
780,314	48,86
780,739	48,81
781,164	48,65
781,589	48,43
782,014	48,18
782,439	48,59
782,864	48,63
783,289	48,21
783,713	48,32
784,138	48,66
784,562	48,43
784,987	48,12
785,411	48,29
785,835	48,59
786,259	48,5
786,683	48,3
787,107	48,35
787,531	48,41
787,954	48,03
788,378	48,27
788,802	48,33
789,225	48,09
789,648	48,13
790,071	48,07
790,495	47,83
790,918	48,45
791,34	48,19
791,763	48,02
792,186	47,99
792,609	48,21
793,031	48,01
793,454	48,11
793,876	48,49
794,298	48,46
794,721	47,76
795,143	48,24
795,565	48,11
795,986	48,52
796,408	48,39
796,83	48,11
797,252	47,82
797,673	48,04
798,094	48,26
798,516	48,02
798,937	47,94
799,358	48,28
799,779	47,7
800,2	48,1
800,621	47,76
801,042	47,95
801,462	47,5
801,883	48,01
802,303	48,01
802,724	47,77
803,144	48,38
803,564	48,17
803,984	48,04
804,404	47,5
804,824	48,06
805,244	48,31
805,664	47,88
806,084	47,81
806,503	47,68
806,923	47,89
807,342	47,76
807,761	48,04
808,18	47,79
808,599	48,09
809,018	48,19
809,437	47,98
809,856	48,03
810,275	48,04
810,693	47,89
811,112	47,88
811,53	47,55
811,949	47,54
812,367	48,44
812,785	48,23
813,203	47,87
813,621	47,62
814,039	47,73
814,457	47,94
814,874	47,85
815,292	47,77
815,709	47,61
816,127	47,96
816,544	47,37
816,961	47,7
817,378	47,31
817,795	47,82
818,212	47,82
818,629	47,72
819,046	47,97
819,462	47,74
819,879	47,87
820,295	48,03
820,712	47,96
821,128	47,96
821,544	47,78
821,96	47,78
822,376	47,74
822,792	48,06
823,208	47,89
823,624	47,75
824,039	47,67
824,455	47,42
824,87	48,08
825,286	47,62
825,701	47,75
826,116	48,36
826,531	48,05
826,946	47,75
827,361	47,74
827,776	47,83
828,19	47,83
828,605	47,67
829,02	47,73
829,434	47,55
829,848	47,41
830,263	47,83
830,677	47,81
831,091	47,67
831,505	47,81
831,919	47,74
832,332	47,69
832,746	47,71
833,16	47,33
833,573	47,46
833,987	47,87
834,4	47,78
834,813	47,35
835,226	47,97
835,639	47,69
836,052	47,2
836,465	47,59
836,878	47,33
837,29	47,37
837,703	47,52
838,116	47,54
838,528	47,67
838,94	47,7
839,352	47,27
839,765	47,8
840,177	47,44
840,589	47,46
841	48,14
841,412	47,27
841,824	47,14
842,235	47,49
842,647	47,2
843,058	47,29
843,47	47,29
843,881	47,71
844,292	47,07
