Data from A_2_Relative__8__00008.txt Node

Date: Tue Jan 30 09:45:27 CET 2024
User: diatiterra
Spectrometer: HDX00911
Trigger mode: 0
Integration Time (sec): 6,000000E-3
Scans to average: 2
Nonlinearity correction enabled: false
Boxcar width: 0
Storing dark spectrum: false
XAxis mode: Wavelengths
Number of Pixels in Spectrum: 2068
>>>>>Begin Spectral Data<<<<<
194,468	77,17
195,025	65,17
195,581	60,56
196,138	58,43
196,694	57,43
197,251	63,43
197,807	50,57
198,363	57,93
198,919	51,19
199,474	56,96
200,03	50,84
200,586	44,94
201,141	54,37
201,696	45,51
202,251	53,12
202,806	61,15
203,361	58,9
203,916	58,6
204,471	59,83
205,025	54,79
205,58	43,75
206,134	50,93
206,688	60,96
207,242	67,52
207,796	43,71
208,35	56,25
208,904	47,56
209,457	61,63
210,011	52,44
210,564	46,58
211,117	51,2
211,67	50
212,223	59,87
212,776	56,73
213,329	46,71
213,881	45,27
214,434	54,27
214,986	56,69
215,538	62,94
216,09	49,7
216,642	58,82
217,194	51,97
217,746	56,96
218,297	54,49
218,849	58,79
219,4	46,91
219,951	53,57
220,502	47,19
221,053	54,44
221,604	61,76
222,155	58,62
222,705	51,66
223,256	65,14
223,806	48,17
224,356	54,26
224,906	53,7
225,456	38,41
226,006	42,51
226,556	53,69
227,106	73,53
227,655	42,45
228,204	59,62
228,754	52,94
229,303	61,07
229,852	58,86
230,401	50,31
230,949	65,79
231,498	54,35
232,047	62,43
232,595	53,07
233,143	60,82
233,691	61,22
234,239	53,85
234,787	49,33
235,335	45,99
235,883	51,03
236,43	48,08
236,978	54,72
237,525	53,7
238,072	45,26
238,619	45,8
239,166	51,97
239,713	54,19
240,26	46,06
240,806	46,94
241,353	51,18
241,899	42,59
242,445	54
242,991	53,25
243,537	39,33
244,083	48,03
244,629	47,95
245,174	51,83
245,72	48,4
246,265	49,69
246,81	58,6
247,355	65,5
247,9	58,93
248,445	55,81
248,99	51,09
249,534	53,94
250,079	68,42
250,623	56,77
251,168	52,66
251,712	48,15
252,256	44,27
252,8	60,78
253,343	53,76
253,887	47,83
254,43	60,22
254,974	81,75
255,517	56,62
256,06	57,38
256,603	49,39
257,146	56,38
257,689	58,55
258,232	49,62
258,774	62,3
259,317	53,9
259,859	38,62
260,401	73,77
260,943	72,19
261,485	68,97
262,027	62,91
262,569	47,65
263,11	54,93
263,652	48,28
264,193	47,89
264,734	62,76
265,275	52,38
265,816	52,17
266,357	47,52
266,898	56,05
267,438	55,48
267,979	53,85
268,519	49,32
269,059	61,11
269,6	49,03
270,14	51,08
270,68	53,47
271,219	55,7
271,759	61,72
272,298	66,67
272,838	55,41
273,377	59,86
273,916	57,5
274,455	67,36
274,994	52,94
275,533	54,76
276,072	52,32
276,61	52,23
277,149	51,41
277,687	61,21
278,225	50,41
278,763	70,23
279,301	49,07
279,839	44,52
280,377	54,41
280,914	52,34
281,452	48,15
281,989	48,19
282,526	39,62
283,064	56,25
283,601	55,23
284,137	45,99
284,674	57,14
285,211	64,57
285,747	52,1
286,284	45,06
286,82	46,53
287,356	49,63
287,892	38,41
288,428	39,86
288,964	47,17
289,5	45,11
290,035	49,21
290,571	59,01
291,106	64,29
291,641	50,83
292,176	42,76
292,711	50
293,246	61,31
293,781	52,24
294,315	56,45
294,85	60,14
295,384	59,5
295,918	48,04
296,453	50
296,987	53,57
297,52	44,53
298,054	33,56
298,588	55,38
299,121	40,16
299,655	31,72
300,188	52,17
300,721	52,38
301,254	39,44
301,787	77,78
302,32	57,89
302,853	45,35
303,385	67,74
303,918	50,43
304,45	35,37
304,982	51,32
305,514	46,2
306,046	40,85
306,578	53,28
307,11	46,15
307,641	47,1
308,173	39,38
308,704	61,88
309,236	56,49
309,767	48,97
310,298	53,14
310,829	49,33
311,359	45,96
311,89	58,78
312,421	44,68
312,951	50,97
313,481	40,71
314,012	54,55
314,542	64,23
315,072	59,15
315,601	52,14
316,131	62,69
316,661	54,27
317,19	46,09
317,72	44,22
318,249	54,89
318,778	52,07
319,307	46,2
319,836	60,65
320,365	58,5
320,893	59,2
321,422	60
321,95	53,99
322,479	58,99
323,007	47,68
323,535	54,64
324,063	54,9
324,591	58,49
325,118	46,03
325,646	47,79
326,173	52,71
326,701	56
327,228	56,73
327,755	47,41
328,282	48,25
328,809	61,83
329,336	50
329,862	62,92
330,389	48,17
330,915	56,21
331,441	48,92
331,968	51,82
332,494	43,71
333,02	44,77
333,545	51,23
334,071	46,75
334,597	53,9
335,122	49,65
335,648	52,02
336,173	45,22
336,698	52
337,223	46,76
337,748	61,94
338,272	37,89
338,797	52
339,322	60,62
339,846	52,66
340,37	56,41
340,894	42,41
341,419	65,75
341,942	46,52
342,466	42,86
342,99	48,1
343,514	48,63
344,037	42,05
344,56	40,11
345,084	48,75
345,607	46,96
346,13	46,37
346,653	41,06
347,175	35,06
347,698	49,46
348,221	45,62
348,743	51,01
349,265	46,55
349,787	44,16
350,309	40,51
350,831	47,54
351,353	41,46
351,875	49,19
352,397	38,86
352,918	53,27
353,439	40,37
353,961	47,52
354,482	47,06
355,003	54,98
355,524	46,31
356,044	33,51
356,565	45,97
357,086	40,18
357,606	39,79
358,126	38,24
358,646	41,55
359,167	42,2
359,687	40
360,206	44,26
360,726	33,49
361,246	44,13
361,765	44,6
362,285	39,71
362,804	35,78
363,323	39,22
363,842	37,44
364,361	35,06
364,88	41,46
365,398	49,77
365,917	38,46
366,435	38,87
366,954	36,29
367,472	43,25
367,99	34,6
368,508	43,56
369,026	38,36
369,544	34,62
370,061	32,63
370,579	34,33
371,096	36,43
371,613	30,77
372,131	39,25
372,648	42,52
373,165	38,38
373,681	39,46
374,198	35,53
374,715	36,43
375,231	42,09
375,747	36,67
376,264	33,44
376,78	37,46
377,296	35,1
377,812	30,35
378,327	33,53
378,843	36,34
379,359	31,83
379,874	32,65
380,389	24,36
380,905	39,2
381,42	30,57
381,935	34,47
382,449	30,42
382,964	36,68
383,479	31,2
383,993	34,61
384,508	29,31
385,022	32,5
385,536	31,53
386,05	27,43
386,564	29,19
387,078	31,66
387,592	28,74
388,105	28,22
388,619	28,63
389,132	27,49
389,645	24,45
390,158	27,7
390,671	30,73
391,184	25,58
391,697	27,05
392,21	29,1
392,722	22,95
393,235	26,83
393,747	23,74
394,259	21
394,771	25,32
395,283	27,6
395,795	25,27
396,307	24,3
396,818	25
397,33	25,56
397,841	21,52
398,353	24,81
398,864	24,8
399,375	21,02
399,886	20,78
400,397	23,77
400,907	20,14
401,418	24,16
401,928	22,56
402,439	20,53
402,949	20,81
403,459	20,05
403,969	19,52
404,479	19,54
404,989	21,76
405,498	18,62
406,008	20
406,517	17,36
407,027	17,43
407,536	17,07
408,045	14,47
408,554	15,55
409,063	14,69
409,572	13,78
410,08	14,62
410,589	13,61
411,097	13,37
411,606	14,14
412,114	10,72
412,622	11,89
413,13	11,54
413,638	11,61
414,145	11,78
414,653	8,39
415,16	10,9
415,668	10,57
416,175	9,11
416,682	9,77
417,189	9,67
417,696	9,31
418,203	8,71
418,71	8,63
419,216	9,78
419,723	9,15
420,229	9,51
420,735	8,87
421,242	9,02
421,748	8,46
422,254	9,26
422,759	8,4
423,265	7,08
423,771	7,48
424,276	7,81
424,781	7,16
425,287	7,2
425,792	7,85
426,297	7,53
426,802	7,34
427,306	6,75
427,811	7,16
428,316	8,25
428,82	6,89
429,324	7,46
429,829	8,07
430,333	7,68
430,837	7,44
431,34	7,22
431,844	6,83
432,348	7,73
432,851	7,08
433,355	6,29
433,858	7,8
434,361	7,74
434,864	7,45
435,367	7,42
435,87	6,82
436,373	7,26
436,876	7,51
437,378	7,01
437,88	6,83
438,383	7,05
438,885	6,43
439,387	6,48
439,889	6,51
440,391	6,67
440,892	6,74
441,394	7,39
441,896	7,07
442,397	7,01
442,898	6,98
443,399	6,47
443,9	6,39
444,401	6,54
444,902	6,05
445,403	7,01
445,903	6,83
446,404	7,2
446,904	7,4
447,405	6,77
447,905	6,63
448,405	6,59
448,905	6,85
449,404	6,89
449,904	6,83
450,404	6,5
450,903	7,6
451,403	6,57
451,902	6,53
452,401	6,75
452,9	6,89
453,399	7,48
453,898	6,73
454,396	7,09
454,895	7,58
455,393	7,23
455,892	7,52
456,39	6,71
456,888	7,33
457,386	7,22
457,884	6,85
458,382	7,25
458,879	6,96
459,377	7,85
459,874	7,23
460,372	7,13
460,869	7,65
461,366	7,12
461,863	7,34
462,36	6,97
462,857	6,61
463,353	7,14
463,85	6,62
464,346	6,7
464,843	6,76
465,339	7,07
465,835	7,03
466,331	6,9
466,827	7,07
467,323	6,79
467,818	7,19
468,314	7
468,809	6,76
469,305	7,13
469,8	7,16
470,295	7,51
470,79	6,63
471,285	7,2
471,78	7,11
472,274	7,3
472,769	6,84
473,263	7,4
473,758	7,47
474,252	7,04
474,746	6,93
475,24	7,53
475,734	6,98
476,228	6,83
476,721	7,11
477,215	7,57
477,708	6,93
478,202	7,23
478,695	6,85
479,188	7,07
479,681	6,73
480,174	6,93
480,667	7,06
481,159	7,23
481,652	7,28
482,144	7,19
482,637	7,26
483,129	6,94
483,621	7,4
484,113	7,58
484,605	6,91
485,097	6,93
485,588	7,11
486,08	7,34
486,571	7,06
487,063	7,64
487,554	7,05
488,045	7,38
488,536	7,11
489,027	7,61
489,518	7,39
490,008	7,41
490,499	7,32
490,989	7,71
491,48	7,58
491,97	7,2
492,46	7,51
492,95	7,65
493,44	7,6
493,93	7,71
494,419	7,77
494,909	7,6
495,398	7,67
495,888	7,98
496,377	7,91
496,866	8,07
497,355	8,14
497,844	8,01
498,333	7,78
498,821	8,23
499,31	8,23
499,798	8,86
500,287	8,49
500,775	8,43
501,263	9,24
501,751	8,85
502,239	8,84
502,727	9,01
503,215	9,33
503,702	9,38
504,19	9,82
504,677	10,21
505,164	9,84
505,651	10,03
506,139	10,5
506,625	10,16
507,112	10
507,599	10,8
508,086	10,77
508,572	10,71
509,058	11,17
509,545	11,95
510,031	11,45
510,517	12,03
511,003	12,13
511,489	12,43
511,974	12,34
512,46	12,36
512,946	13,29
513,431	12,86
513,916	13,49
514,401	13,58
514,887	14,45
515,371	14,15
515,856	14,68
516,341	14,31
516,826	15,57
517,31	16,02
517,795	15,77
518,279	16,3
518,763	16,49
519,247	16,77
519,731	17,07
520,215	17,07
520,699	17,97
521,182	18,16
521,666	18,32
522,149	19,18
522,633	19,83
523,116	19,61
523,599	19,88
524,082	20,23
524,565	20,92
525,048	21,12
525,53	21,27
526,013	21,98
526,495	21,82
526,978	22,69
527,46	22,87
527,942	22,73
528,424	23,1
528,906	23,28
529,388	24,11
529,87	24,01
530,351	23,68
530,833	24,82
531,314	24,93
531,795	25,2
532,277	24,6
532,758	24,99
533,238	25,31
533,719	25,48
534,2	25,41
534,681	25,7
535,161	26,47
535,642	25,92
536,122	25,98
536,602	26,45
537,082	26,14
537,562	26,47
538,042	26,08
538,522	26,73
539,001	26,64
539,481	26,99
539,96	26,97
540,44	26,68
540,919	27,33
541,398	27,19
541,877	26,83
542,356	27,72
542,835	27
543,313	27,27
543,792	27,35
544,27	27,07
544,749	27,5
545,227	27,38
545,705	27,7
546,183	26,86
546,661	27,9
547,139	27,61
547,616	27,2
548,094	27,6
548,571	27,28
549,049	27,9
549,526	27,7
550,003	27,57
550,48	28,07
550,957	27,58
551,434	28,11
551,911	28,41
552,387	28,26
552,864	28,22
553,34	28,42
553,817	27,97
554,293	28,06
554,769	28,61
555,245	27,99
555,721	27,91
556,197	28,19
556,672	27,96
557,148	27,64
557,623	27,54
558,099	27,72
558,574	28,01
559,049	27,85
559,524	27,66
559,999	27,73
560,474	27,75
560,948	27,29
561,423	27,58
561,897	27,33
562,372	27,05
562,846	26,72
563,32	27,04
563,794	26,59
564,268	27,05
564,742	26,32
565,216	26,18
565,69	26,29
566,163	26,28
566,636	26,27
567,11	25,88
567,583	25,35
568,056	25
568,529	25,53
569,002	25,09
569,475	24,44
569,947	24,77
570,42	24,43
570,892	24,27
571,365	23,68
571,837	23,86
572,309	23,03
572,781	23,26
573,253	23,13
573,725	22,68
574,197	22,64
574,668	22,74
575,14	22,44
575,611	22,19
576,082	22,23
576,554	22,06
577,025	21,48
577,496	21,5
577,967	21,61
578,437	21,34
578,908	20,94
579,379	21,11
579,849	20,91
580,319	20,71
580,79	20,32
581,26	20,39
581,73	20,16
582,2	20,15
582,669	20,11
583,139	19,76
583,609	19,75
584,078	19,58
584,548	19,46
585,017	19,61
585,486	19,18
585,955	19,26
586,424	18,6
586,893	18,71
587,362	18,33
587,83	18,53
588,299	18,45
588,767	18,53
589,236	18,48
589,704	18,15
590,172	18,33
590,64	18,38
591,108	18,24
591,576	17,94
592,043	17,91
592,511	17,95
592,978	17,8
593,446	17,76
593,913	18,04
594,38	18,07
594,847	17,49
595,314	17,82
595,781	18
596,248	17,44
596,715	17,57
597,181	17,33
597,647	17,59
598,114	17,65
598,58	17,12
599,046	17,29
599,512	17,52
599,978	17,04
600,444	17,32
600,91	17,25
601,375	17,01
601,841	17,09
602,306	17,33
602,771	17,2
603,236	17
603,702	16,93
604,167	16,82
604,631	16,84
605,096	16,71
605,561	16,57
606,025	16,34
606,49	16,47
606,954	16,15
607,418	16,52
607,882	16,33
608,347	16,04
608,81	15,99
609,274	15,93
609,738	15,91
610,202	15,21
610,665	15,85
611,128	15,97
611,592	15,4
612,055	15,18
612,518	15,18
612,981	14,88
613,444	15,15
613,907	14,91
614,369	14,7
614,832	14,77
615,294	14,27
615,757	14,2
616,219	14,53
616,681	14,39
617,143	14,4
617,605	13,92
618,067	14,12
618,529	13,94
618,99	13,94
619,452	14,06
619,913	13,89
620,375	13,98
620,836	13,62
621,297	13,75
621,758	13,49
622,219	13,6
622,68	13,42
623,14	13,33
623,601	13,58
624,061	13,36
624,522	13,33
624,982	13,12
625,442	13,41
625,902	13,2
626,362	13,2
626,822	13,1
627,282	13,34
627,742	12,88
628,201	13,04
628,661	13
629,12	13,09
629,579	12,83
630,038	13,14
630,497	13,08
630,956	13
631,415	12,91
631,874	12,84
632,332	12,78
632,791	13
633,249	12,58
633,708	12,63
634,166	12,7
634,624	12,72
635,082	12,47
635,54	12,58
635,998	12,51
636,455	12,23
636,913	12,07
637,37	12,12
637,828	12,18
638,285	12,08
638,742	11,86
639,199	11,81
639,656	11,57
640,113	11,69
640,57	11,52
641,027	11,14
641,483	11,2
641,94	10,88
642,396	10,87
642,852	10,7
643,309	10,69
643,765	10,73
644,221	10,46
644,676	10,25
645,132	10,24
645,588	10,12
646,043	9,97
646,499	9,94
646,954	9,87
647,409	9,65
647,864	9,66
648,319	9,44
648,774	9,49
649,229	9,2
649,684	9,36
650,139	9,43
650,593	9,3
651,047	9
651,502	8,96
651,956	8,81
652,41	9,07
652,864	9,08
653,318	8,95
653,772	8,86
654,225	8,71
654,679	8,6
655,133	8,73
655,586	8,74
656,039	8,65
656,492	8,71
656,946	8,69
657,399	8,57
657,851	8,51
658,304	8,51
658,757	8,4
659,209	8,24
659,662	8,23
660,114	7,8
660,567	8,13
661,019	8,06
661,471	7,97
661,923	7,9
662,375	7,85
662,826	7,71
663,278	7,71
663,73	7,71
664,181	7,61
664,632	7,69
665,084	7,55
665,535	7,66
665,986	7,73
666,437	7,71
666,888	7,93
667,338	7,74
667,789	7,62
668,24	7,71
668,69	7,7
669,14	7,73
669,591	7,71
670,041	7,74
670,491	7,83
670,941	7,88
671,391	7,95
671,84	7,8
672,29	8,04
672,74	7,95
673,189	8,18
673,638	8,09
674,088	8,37
674,537	8,41
674,986	8,34
675,435	8,66
675,883	8,66
676,332	8,75
676,781	8,82
677,229	9,03
677,678	9,19
678,126	9,12
678,574	9,53
679,022	9,42
679,47	9,78
679,918	9,59
680,366	9,76
680,814	9,94
681,261	10,19
681,709	10,43
682,156	10,33
682,604	10,46
683,051	10,65
683,498	10,8
683,945	10,88
684,392	10,89
684,839	10,94
685,286	11,23
685,732	11,27
686,179	11,34
686,625	11,42
687,071	11,49
687,518	11,66
687,964	11,8
688,41	12,06
688,856	12,42
689,301	12,67
689,747	12,66
690,193	13,18
690,638	13,42
691,084	13,67
691,529	13,92
691,974	14,66
692,419	14,77
692,864	15,38
693,309	15,87
693,754	16,41
694,199	16,82
694,643	17,63
695,088	18,14
695,532	18,54
695,977	19,28
696,421	19,94
696,865	20,25
697,309	20,68
697,753	21,89
698,197	22,15
698,64	22,81
699,084	23,51
699,527	24,11
699,971	24,45
700,414	25,52
700,857	26,2
701,3	26,39
701,743	27,01
702,186	27,48
702,629	28,37
703,072	29,02
703,515	29,28
703,957	30,28
704,399	30,37
704,842	31,22
705,284	31,91
705,726	32,38
706,168	32,85
706,61	33,3
707,052	34,13
707,494	34,45
707,935	35,19
708,377	35,19
708,818	35,94
709,26	36,49
709,701	36,77
710,142	37,25
710,583	38
711,024	38,46
711,465	38,89
711,905	39,57
712,346	39,55
712,787	40,04
713,227	40,56
713,667	41,28
714,108	41,54
714,548	41,49
714,988	42,77
715,428	42,68
715,868	43,02
716,307	43,79
716,747	43,61
717,186	44,44
717,626	44,87
718,065	44,86
718,504	45,4
718,944	45,93
719,383	45,61
719,822	46,24
720,261	46,57
720,699	47,36
721,138	47,47
721,576	47,66
722,015	48,01
722,453	48,31
722,892	48,5
723,33	48,77
723,768	49,6
724,206	49,11
724,644	50,16
725,081	50,38
725,519	50,22
725,957	50,69
726,394	50,81
726,832	51,06
727,269	51,05
727,706	51,22
728,143	51,67
728,58	52,04
729,017	51,77
729,454	52,03
729,89	52,43
730,327	52,48
730,764	53
731,2	52,51
731,636	52,97
732,072	52,92
732,509	52,92
732,945	54,18
733,38	53,52
733,816	53,69
734,252	53,76
734,688	53,67
735,123	54,12
735,559	53,58
735,994	53,72
736,429	53,91
736,864	54,09
737,299	53,94
737,734	54,25
738,169	54,32
738,604	54,7
739,038	54,19
739,473	54,47
739,907	55,12
740,342	54,64
740,776	54,63
741,21	54,72
741,644	55,13
742,078	54,74
742,512	54,73
742,946	54,54
743,379	55,05
743,813	54,99
744,246	54,72
744,68	54,93
745,113	54,65
745,546	54,91
745,979	54,46
746,412	54,95
746,845	54,86
747,278	54,71
747,711	55,29
748,143	55,03
748,576	54,51
749,008	54,54
749,441	55,05
749,873	54,43
750,305	54,83
750,737	54,41
751,169	54,64
751,601	54,47
752,032	54,08
752,464	54,33
752,896	54,02
753,327	54,53
753,758	54,06
754,19	54,42
754,621	54,4
755,052	54,31
755,483	54,14
755,914	54,05
756,344	53,96
756,775	53,62
757,206	53,98
757,636	53,87
758,066	53,96
758,497	54,05
758,927	54,08
759,357	54,1
759,787	53,5
760,217	53,29
760,647	54,25
761,076	53,71
761,506	53,97
761,935	53,01
762,365	53,59
762,794	53,78
763,223	53,69
763,653	52,77
764,082	53,39
764,51	53,19
764,939	53,5
765,368	53
765,797	53,02
766,225	53,18
766,654	53,41
767,082	53,37
767,51	53,08
767,938	53,05
768,367	53,02
768,795	52,67
769,222	52,9
769,65	52,39
770,078	52,5
770,505	52,97
770,933	53,17
771,36	53,1
771,788	52,45
772,215	52,81
772,642	52,92
773,069	52,85
773,496	52,7
773,923	52,11
774,349	52,5
774,776	53,2
775,203	52,51
775,629	52,57
776,055	52,3
776,482	52,44
776,908	52,79
777,334	52,88
777,76	52,09
778,186	52,51
778,611	52,12
779,037	51,92
779,463	51,75
779,888	52,2
780,314	52,48
780,739	52,71
781,164	52,65
781,589	52,18
782,014	52,14
782,439	52,19
782,864	51,92
783,289	52,48
783,713	51,84
784,138	52,28
784,562	51,91
784,987	52,18
785,411	52,07
785,835	51,82
786,259	52,04
786,683	51,81
787,107	51,66
787,531	51,81
787,954	52,23
788,378	51,68
788,802	52,04
789,225	51,71
789,648	51,8
790,071	51,71
790,495	51,7
790,918	52,01
791,34	51,99
791,763	51,53
792,186	51,58
792,609	51,59
793,031	51,7
793,454	51,91
793,876	51,88
794,298	52,06
794,721	51,01
795,143	51,72
795,565	51,95
795,986	51,83
796,408	51,78
796,83	51,7
797,252	51,69
797,673	51,95
798,094	51,68
798,516	51,5
798,937	51,49
799,358	51,48
799,779	51,3
800,2	51,29
800,621	51,46
801,042	51,56
801,462	51,32
801,883	51,62
802,303	51,57
802,724	51,23
803,144	51,94
803,564	51,5
803,984	51,83
804,404	50,79
804,824	51,43
805,244	51,7
805,664	51,34
806,084	51,32
806,503	51,27
806,923	51,19
807,342	51,1
807,761	51,37
808,18	51,26
808,599	51,4
809,018	51,39
809,437	51,16
809,856	51,16
810,275	51,7
810,693	51,41
811,112	51,39
811,53	51,05
811,949	51,35
812,367	51,25
812,785	51,56
813,203	51,33
813,621	51,33
814,039	51,06
814,457	51,42
814,874	51,16
815,292	51,46
815,709	51,31
816,127	51,17
816,544	51,37
816,961	51,01
817,378	50,69
817,795	51,42
818,212	51,27
818,629	51,49
819,046	51,18
819,462	51,77
819,879	51,95
820,295	51,54
820,712	51,1
821,128	51,34
821,544	51,56
821,96	51,07
822,376	51,05
822,792	51,06
823,208	51,29
823,624	51,44
824,039	50,92
824,455	50,68
824,87	51,49
825,286	50,91
825,701	51,16
826,116	51,38
826,531	50,78
826,946	50,8
827,361	51,76
827,776	51,11
828,19	51,2
828,605	50,78
829,02	51,02
829,434	51,37
829,848	50,81
830,263	51,59
830,677	50,77
831,091	51,36
831,505	51,08
831,919	51,48
832,332	51,28
832,746	51,02
833,16	50,75
833,573	51,37
833,987	51,13
834,4	51,06
834,813	50,96
835,226	51,14
835,639	51,53
836,052	51,14
836,465	51,12
836,878	50,94
837,29	50,94
837,703	51,34
838,116	51,21
838,528	50,78
838,94	50,73
839,352	50,97
839,765	51,1
840,177	50,58
840,589	50,76
841	50,85
841,412	50,86
841,824	51,08
842,235	51,01
