Data from A_6_Relative__3__00013.txt Node

Date: Tue Jan 30 09:45:50 CET 2024
User: diatiterra
Spectrometer: HDX00911
Trigger mode: 0
Integration Time (sec): 6,000000E-3
Scans to average: 2
Nonlinearity correction enabled: false
Boxcar width: 0
Storing dark spectrum: false
XAxis mode: Wavelengths
Number of Pixels in Spectrum: 2068
>>>>>Begin Spectral Data<<<<<
194,468	68,48
195,025	44,94
195,581	66,2
196,138	58,43
196,694	56,08
197,251	76,87
197,807	46,59
198,363	47,56
198,919	55,36
199,474	55,06
200,03	45,25
200,586	41,14
201,141	51,88
201,696	58,33
202,251	46,88
202,806	46,04
203,361	57,67
203,916	55,41
204,471	52,14
205,025	60,27
205,58	44,44
206,134	50,31
206,688	61,64
207,242	59,87
207,796	44,91
208,35	50,62
208,904	62,2
209,457	56,4
210,011	62,8
210,564	46,58
211,117	67,47
211,67	53,29
212,223	51,97
212,776	54,39
213,329	42,51
213,881	53,38
214,434	48,17
214,986	52,87
215,538	55,29
216,09	54,49
216,642	49,67
217,194	58,55
217,746	53,8
218,297	46,15
218,849	53,33
219,4	41,36
219,951	44,05
220,502	47,75
221,053	47,34
221,604	54,12
222,155	50,34
222,705	45,7
223,256	48,57
223,806	42,07
224,356	54,26
224,906	53,7
225,456	39,63
226,006	44,91
226,556	60,4
227,106	64,71
227,655	58,99
228,204	61,54
228,754	56,47
229,303	58,39
229,852	60,13
230,401	54,09
230,949	59,87
231,498	50,72
232,047	49,13
232,595	48,6
233,143	59,06
233,691	53,57
234,239	53,3
234,787	48
235,335	51,82
235,883	69,66
236,43	51,28
236,978	53,46
237,525	53,7
238,072	52,55
238,619	34,35
239,166	48,68
239,713	50,97
240,26	52,12
240,806	48,3
241,353	45,29
241,899	41,36
242,445	40,67
242,991	42,6
243,537	44,67
244,083	44,74
244,629	52,05
245,174	42,68
245,72	51,06
246,265	41,61
246,81	52,87
247,355	58,48
247,9	56,55
248,445	66,67
248,99	55,47
249,534	56,97
250,079	54,14
250,623	45,81
251,168	60,95
251,712	46,67
252,256	52,67
252,8	46,41
253,343	52,6
253,887	42,93
254,43	50,54
254,974	72,99
255,517	55,88
256,06	55,74
256,603	57,93
257,146	53,02
257,689	49,34
258,232	58,78
258,774	55,74
259,317	63,12
259,859	50,34
260,401	69,67
260,943	49,01
261,485	65,52
262,027	57,62
262,569	44,97
263,11	48,59
263,652	57,24
264,193	59,15
264,734	45,52
265,275	53,74
265,816	53,62
266,357	38,3
266,898	60,51
267,438	44,52
267,979	54,62
268,519	54,11
269,059	61,11
269,6	50,32
270,14	53,96
270,68	63,19
271,219	61,07
271,759	64,06
272,298	52,47
272,838	58,6
273,377	65,99
273,916	60
274,455	61,81
274,994	58,09
275,533	53,57
276,072	54,97
276,61	49,68
277,149	59,86
277,687	60,61
278,225	70,25
278,763	74,05
279,301	50,93
279,839	58,71
280,377	53,68
280,914	64,06
281,452	56,17
281,989	60,84
282,526	43,4
283,064	63,89
283,601	54,07
284,137	54,74
284,674	57,79
285,211	70,08
285,747	59,88
286,284	46,91
286,82	55,56
287,356	50,37
287,892	41,72
288,428	55,24
288,964	67,3
289,5	48,12
290,035	50,79
290,571	65,22
291,106	75,51
291,641	58,33
292,176	46,21
292,711	53,42
293,246	64,23
293,781	44,78
294,315	70,97
294,85	60,14
295,384	48,76
295,918	53,07
296,453	58,23
296,987	60,71
297,52	48,91
298,054	48,99
298,588	66,15
299,121	49,61
299,655	46,9
300,188	55,8
300,721	63,95
301,254	47,89
301,787	72,65
302,32	53,38
302,853	47,67
303,385	52,9
303,918	47,01
304,45	55,1
304,982	59,87
305,514	46,2
306,046	61,97
306,578	53,28
307,11	62,13
307,641	52,26
308,173	52,5
308,704	64,09
309,236	65,58
309,767	58,62
310,298	56
310,829	76
311,359	47,83
311,89	64,19
312,421	50,35
312,951	60
313,481	53,57
314,012	58,79
314,542	57,72
315,072	55,63
315,601	64,29
316,131	58,96
316,661	61,59
317,19	49,22
317,72	51,02
318,249	48,12
318,778	66,86
319,307	55,06
319,836	53,55
320,365	52,38
320,893	68,97
321,422	47,41
321,95	48,47
322,479	58,99
323,007	58,28
323,535	60,11
324,063	72,55
324,591	65,41
325,118	65,87
325,646	53,68
326,173	65,12
326,701	46
327,228	57,89
327,755	41,48
328,282	57,34
328,809	64,89
329,336	58,75
329,862	68,54
330,389	45,73
330,915	58,17
331,441	50
331,968	56,93
332,494	47,68
333,02	51,74
333,545	45,68
334,071	57,14
334,597	63,64
335,122	60,99
335,648	57,23
336,173	56,05
336,698	51,33
337,223	59,71
337,748	66,45
338,272	52,17
338,797	64,57
339,322	64,38
339,846	60,36
340,37	62,82
340,894	59,49
341,419	68,49
341,942	49,2
342,466	49,66
342,99	56,96
343,514	51,91
344,037	49,43
344,56	52,54
345,084	55,62
345,607	54,14
346,13	49,72
346,653	60,93
347,175	52,87
347,698	52,17
348,221	59,38
348,743	60,61
349,265	57,47
349,787	45,89
350,309	58,97
350,831	54,1
351,353	49,39
351,875	60,54
352,397	57,82
352,918	53,27
353,439	51,55
353,961	56,93
354,482	51,47
355,003	58,29
355,524	47,29
356,044	46,91
356,565	52,13
357,086	56,16
357,606	50,79
358,126	54,41
358,646	47,34
359,167	52,29
359,687	47,11
360,206	54,47
360,726	58,49
361,246	54,25
361,765	53,52
362,285	56,94
362,804	48,04
363,323	54,74
363,842	52,05
364,361	56,28
364,88	53,66
365,398	46,48
365,917	57,01
366,435	57,09
366,954	54,84
367,472	51,19
367,99	46,01
368,508	53,41
369,026	51,37
369,544	56,64
370,061	47,02
370,579	54,85
371,096	52,58
371,613	50,18
372,131	53,92
372,648	53,49
373,165	53,87
373,681	54,41
374,198	52,2
374,715	55,76
375,231	55,89
375,747	58,67
376,264	47,63
376,78	50,77
377,296	50,99
377,812	43,64
378,327	50,29
378,843	46,55
379,359	47,32
379,874	47,3
380,389	44,13
380,905	53,12
381,42	53,14
381,935	50,53
382,449	52,83
382,964	54,02
383,479	50,37
383,993	51,31
384,508	45,32
385,022	50
385,536	50,59
386,05	45,8
386,564	48,19
387,078	49,48
387,592	45,14
388,105	49,81
388,619	47,24
389,132	47,21
389,645	42,52
390,158	45,35
390,671	50,09
391,184	47,23
391,697	46,92
392,21	44,1
392,722	44,72
393,235	40,5
393,747	40,49
394,259	41,82
394,771	40,58
395,283	47,4
395,795	43,33
396,307	40,56
396,818	40,67
397,33	44,05
397,841	41,1
398,353	42,17
398,864	41,76
399,375	39,19
399,886	35,18
400,397	37,93
400,907	37,03
401,418	37,42
401,928	40,41
402,439	37,45
402,949	35,65
403,459	36,09
403,969	36,05
404,479	35,57
404,989	36,38
405,498	32,29
406,008	30,69
406,517	30,36
407,027	30,96
407,536	28,46
408,045	29,61
408,554	27,28
409,063	28,38
409,572	26,19
410,08	25,94
410,589	24,91
411,097	22,81
411,606	24,07
412,114	21,43
412,622	22,08
413,13	22,52
413,638	22,25
414,145	21,92
414,653	20,13
415,16	19,09
415,668	20,97
416,175	19,1
416,682	17,93
417,189	18,95
417,696	17,74
418,203	16,52
418,71	16,75
419,216	17,67
419,723	16,53
420,229	15,95
420,735	16,57
421,242	15,59
421,748	15,49
422,254	17,33
422,759	16,34
423,265	14,94
423,771	14,73
424,276	15,26
424,781	16,01
425,287	15,47
425,792	14,4
426,297	14,2
426,802	14,74
427,306	14,94
427,811	15,18
428,316	15,39
428,82	14
429,324	15,08
429,829	14,56
430,333	15,24
430,837	15,07
431,34	14,92
431,844	14,66
432,348	14,3
432,851	14,13
433,355	13,48
433,858	14,37
434,361	13,96
434,864	13,67
435,367	15,2
435,87	13,72
436,373	14,32
436,876	13,91
437,378	14,03
437,88	14,15
438,383	14,68
438,885	14,82
439,387	13,39
439,889	13,97
440,391	13,96
440,892	14,35
441,394	14,45
441,896	14,09
442,397	13,87
442,898	14,08
443,399	14
443,9	13,96
444,401	13,56
444,902	13,52
445,403	13,89
445,903	14,11
446,404	14,25
446,904	14,58
447,405	14,61
447,905	14,18
448,405	14,31
448,905	13,7
449,404	14,27
449,904	14,66
450,404	14,66
450,903	14,59
451,403	14,83
451,902	14,94
452,401	14,6
452,9	14,38
453,399	14,94
453,898	15,23
454,396	15,73
454,895	15,5
455,393	15,8
455,892	15,44
456,39	14,97
456,888	15,43
457,386	15,25
457,884	15,11
458,382	15,12
458,879	15,54
459,377	15,59
459,874	15,21
460,372	15,88
460,869	15,77
461,366	15,46
461,863	16,42
462,36	14,9
462,857	15,29
463,353	15,29
463,85	14,95
464,346	15,83
464,843	14,87
465,339	15,77
465,835	15,83
466,331	14,87
466,827	15,21
467,323	15,02
467,818	14,98
468,314	15,3
468,809	15,41
469,305	15,9
469,8	15,24
470,295	15,54
470,79	15,57
471,285	15,27
471,78	15,27
472,274	15,26
472,769	15,41
473,263	14,86
473,758	15,06
474,252	15,52
474,746	16,17
475,24	15,29
475,734	16,07
476,228	15,39
476,721	15,72
477,215	15,43
477,708	15,29
478,202	15,87
478,695	15,44
479,188	15,63
479,681	15,11
480,174	15,61
480,667	15,46
481,159	15,65
481,652	15,86
482,144	15,7
482,637	15,91
483,129	15,68
483,621	16,17
484,113	16,02
484,605	15,78
485,097	15,41
485,588	15,48
486,08	15,74
486,571	15,59
487,063	16,65
487,554	15,83
488,045	16,15
488,536	16,16
489,027	16,53
489,518	15,66
490,008	15,92
490,499	15,89
490,989	16,11
491,48	15,4
491,97	17,19
492,46	16,07
492,95	16,36
493,44	16,87
493,93	17,18
494,419	17,1
494,909	16,41
495,398	17,51
495,888	17,06
496,377	16,92
496,866	17,46
497,355	17,34
497,844	17,63
498,333	17,44
498,821	17,44
499,31	17,75
499,798	18,1
500,287	17,78
500,775	17,72
501,263	18,19
501,751	18,32
502,239	18,65
502,727	18,6
503,215	19,1
503,702	18,1
504,19	19,17
504,677	19,58
505,164	19,48
505,651	19,9
506,139	20,13
506,625	20,07
507,112	19,96
507,599	20,71
508,086	20,04
508,572	20,92
509,058	20,84
509,545	21,57
510,031	20,93
510,517	21,66
511,003	22,12
511,489	21,87
511,974	22,65
512,46	22,9
512,946	22,99
513,431	23,07
513,916	23,85
514,401	23,43
514,887	24,08
515,371	24,65
515,856	24,68
516,341	25,32
516,826	24,98
517,31	25,91
517,795	26,33
518,279	25,98
518,763	26,73
519,247	27,33
519,731	27,68
520,215	27,47
520,699	26,97
521,182	28
521,666	27,92
522,149	28,87
522,633	29,33
523,116	29,25
523,599	29,42
524,082	29,54
524,565	30,26
525,048	30,26
525,53	30,62
526,013	30,61
526,495	32,07
526,978	31,93
527,46	31,44
527,942	31,35
528,424	32,41
528,906	32,39
529,388	33,18
529,87	32,79
530,351	32,89
530,833	34,18
531,314	34,22
531,795	34,24
532,277	33,58
532,758	34,23
533,238	33,72
533,719	34,17
534,2	34,92
534,681	35,39
535,161	33,71
535,642	34,62
536,122	35,15
536,602	34,16
537,082	35,08
537,562	34,65
538,042	34,67
538,522	34,93
539,001	35,26
539,481	35,34
539,96	35,5
540,44	35,71
540,919	35,56
541,398	35,93
541,877	35,89
542,356	35,69
542,835	35,64
543,313	35,3
543,792	35,49
544,27	35,49
544,749	36,46
545,227	35,49
545,705	36,37
546,183	36,08
546,661	35,89
547,139	36,17
547,616	35,83
548,094	36,5
548,571	36,01
549,049	36,43
549,526	36,07
550,003	36,53
550,48	36,37
550,957	36,29
551,434	36,53
551,911	36,44
552,387	36,08
552,864	36,14
553,34	36,68
553,817	36,35
554,293	36,59
554,769	36,35
555,245	36,83
555,721	35,76
556,197	36,85
556,672	36,03
557,148	36,32
557,623	36,44
558,099	36,29
558,574	36,6
559,049	37,17
559,524	36,21
559,999	36,15
560,474	36,48
560,948	35,42
561,423	35,74
561,897	35,87
562,372	35,24
562,846	35,54
563,32	35,94
563,794	35,71
564,268	35,72
564,742	35,6
565,216	34,98
565,69	35,23
566,163	35,02
566,636	35,14
567,11	35,2
567,583	34,14
568,056	34,24
568,529	34,52
569,002	34
569,475	34,08
569,947	33,87
570,42	33,88
570,892	32,5
571,365	32,78
571,837	33,88
572,309	32,87
572,781	32,59
573,253	32,19
573,725	32,14
574,197	32,61
574,668	31,95
575,14	31,78
575,611	31,88
576,082	31,6
576,554	31,69
577,025	31,57
577,496	31,36
577,967	31,11
578,437	31,26
578,908	30,68
579,379	30,38
579,849	30,11
580,319	30,23
580,79	30,37
581,26	29,69
581,73	29,54
582,2	29,47
582,669	30,11
583,139	29,13
583,609	29,47
584,078	29,43
584,548	29,32
585,017	28,95
585,486	28,99
585,955	29,04
586,424	28,25
586,893	28,82
587,362	28,43
587,83	28,64
588,299	28,86
588,767	28,63
589,236	28,12
589,704	27,95
590,172	28,11
590,64	28,35
591,108	27,95
591,576	27,71
592,043	27,76
592,511	27,44
592,978	27,73
593,446	27,22
593,913	27,61
594,38	27,51
594,847	27,24
595,314	27,29
595,781	27,37
596,248	27,32
596,715	27,22
597,181	26,77
597,647	27,23
598,114	27,53
598,58	27,06
599,046	27,18
599,512	27,16
599,978	26,84
600,444	27,16
600,91	26,84
601,375	27,05
601,841	26,54
602,306	26,47
602,771	26,84
603,236	26,58
603,702	26,56
604,167	26,63
604,631	26,31
605,096	26,47
605,561	26,07
606,025	26,25
606,49	26,02
606,954	26,25
607,418	25,72
607,882	26,17
608,347	25,94
608,81	25,53
609,274	25,59
609,738	25,83
610,202	24,95
610,665	25,51
611,128	25,1
611,592	25,46
612,055	24,91
612,518	25,23
612,981	24,61
613,444	25,03
613,907	25,12
614,369	24,63
614,832	24,55
615,294	24,76
615,757	24,37
616,219	24,12
616,681	24,28
617,143	24,05
617,605	23,81
618,067	24,12
618,529	24,01
618,99	23,85
619,452	23,7
619,913	23,73
620,375	23,23
620,836	23,83
621,297	23,72
621,758	23,16
622,219	23,28
622,68	23,42
623,14	23,08
623,601	23,31
624,061	23,18
624,522	22,87
624,982	23,02
625,442	23,04
625,902	22,84
626,362	22,98
626,822	23,08
627,282	22,7
627,742	22,93
628,201	22,85
628,661	22,46
629,12	22,62
629,579	22,65
630,038	22,54
630,497	22,75
630,956	22,58
631,415	22,77
631,874	22,42
632,332	22,76
632,791	22,79
633,249	22,13
633,708	22,42
634,166	22,44
634,624	22,36
635,082	22,14
635,54	21,92
635,998	21,91
636,455	21,93
636,913	22,05
637,37	21,64
637,828	21,64
638,285	21,32
638,742	21,22
639,199	21,43
639,656	21
640,113	21,24
640,57	20,83
641,027	20,58
641,483	20,55
641,94	20,53
642,396	20,25
642,852	20,3
643,309	20,21
643,765	20,38
644,221	20,04
644,676	19,48
645,132	19,7
645,588	19,64
646,043	19,55
646,499	19,33
646,954	19,33
647,409	19,09
647,864	18,77
648,319	18,72
648,774	18,73
649,229	18,7
649,684	18,65
650,139	18,62
650,593	18,42
651,047	17,87
651,502	18,42
651,956	18,12
652,41	17,99
652,864	17,97
653,318	18,08
653,772	18,1
654,225	17,82
654,679	17,79
655,133	17,55
655,586	17,61
656,039	17,5
656,492	17,66
656,946	17,6
657,399	17,62
657,851	17,2
658,304	17,06
658,757	17
659,209	17,11
659,662	17,09
660,114	16,46
660,567	16,72
661,019	16,49
661,471	16,55
661,923	16,31
662,375	16,44
662,826	16,36
663,278	16,36
663,73	15,76
664,181	16,16
664,632	15,93
665,084	15,77
665,535	15,85
665,986	15,85
666,437	15,61
666,888	15,46
667,338	15,75
667,789	15,62
668,24	15,59
668,69	15,67
669,14	15,51
669,591	15,63
670,041	15,61
670,491	15,55
670,941	15,4
671,391	15,63
671,84	15,37
672,29	15,97
672,74	15,65
673,189	15,7
673,638	15,68
674,088	15,72
674,537	15,83
674,986	15,75
675,435	16,1
675,883	16,06
676,332	16,01
676,781	16,37
677,229	16,14
677,678	16,64
678,126	16,35
678,574	16,48
679,022	16,73
679,47	16,8
679,918	16,94
680,366	16,84
680,814	17,08
681,261	17,33
681,709	17,52
682,156	17,75
682,604	17,66
683,051	17,95
683,498	18,02
683,945	18,18
684,392	18,2
684,839	18,33
685,286	18,62
685,732	18,64
686,179	18,72
686,625	19,01
687,071	19,17
687,518	19,44
687,964	19,69
688,41	19,76
688,856	20,22
689,301	20,48
689,747	20,95
690,193	21,24
690,638	21,49
691,084	21,99
691,529	22,34
691,974	22,51
692,419	22,97
692,864	23,89
693,309	24,21
693,754	24,35
694,199	24,63
694,643	25,56
695,088	26,01
695,532	26,33
695,977	26,78
696,421	27,45
696,865	28,07
697,309	28,41
697,753	28,93
698,197	29,33
698,64	29,86
699,084	30,57
699,527	30,65
699,971	31,37
700,414	31,8
700,857	32,33
701,3	32,73
701,743	33,03
702,186	33,67
702,629	34,32
703,072	34,73
703,515	34,7
703,957	35,71
704,399	36,27
704,842	36,32
705,284	37,01
705,726	36,89
706,168	37,81
706,61	37,94
707,052	38,57
707,494	39,4
707,935	39,31
708,377	39,35
708,818	39,92
709,26	40,11
709,701	40,83
710,142	40,88
710,583	41,23
711,024	41,55
711,465	42,04
711,905	42,34
712,346	42,15
712,787	42,57
713,227	43,12
713,667	43,66
714,108	43,66
714,548	43,41
714,988	44,7
715,428	44,72
715,868	44,93
716,307	45,19
716,747	45,26
717,186	45,65
717,626	45,28
718,065	45,78
718,504	46,3
718,944	46,66
719,383	46,79
719,822	46,74
720,261	47,19
720,699	47,54
721,138	47,45
721,576	47,68
722,015	48,23
722,453	48,51
722,892	48,46
723,33	48,49
723,768	49,25
724,206	48,72
724,644	49,46
725,081	49,14
725,519	49,16
725,957	49,55
726,394	49,46
726,832	49,79
727,269	49,91
727,706	50,3
728,143	50,22
728,58	50,54
729,017	50,03
729,454	50,53
729,89	50,62
730,327	50,72
730,764	50,88
731,2	50,84
731,636	50,74
732,072	50,79
732,509	51,31
732,945	51,57
733,38	51,1
733,816	51,53
734,252	50,98
734,688	51,19
735,123	51,78
735,559	51,51
735,994	51,22
736,429	51,97
736,864	51,32
737,299	51,99
737,734	51,84
738,169	51,97
738,604	51,98
739,038	51,56
739,473	51,7
739,907	52,23
740,342	51,79
740,776	52,03
741,21	52
741,644	51,66
742,078	51,7
742,512	51,44
742,946	51,84
743,379	51,65
743,813	51,72
744,246	51,11
744,68	51,68
745,113	51,93
745,546	51,73
745,979	51,67
746,412	51,6
746,845	51,69
747,278	51,3
747,711	51,63
748,143	51,7
748,576	51,29
749,008	51,77
749,441	51,31
749,873	51,5
750,305	51,49
750,737	51,17
751,169	51,38
751,601	51,26
752,032	50,81
752,464	51,21
752,896	50,81
753,327	51,3
753,758	50,82
754,19	51,12
754,621	50,63
755,052	50,84
755,483	50,64
755,914	50,95
756,344	51,02
756,775	50,87
757,206	50,49
757,636	50,66
758,066	50,45
758,497	50,31
758,927	50,64
759,357	50,84
759,787	50,19
760,217	50,3
760,647	50,41
761,076	50,66
761,506	50,52
761,935	50,32
762,365	50,14
762,794	49,96
763,223	50,09
763,653	50,07
764,082	50,36
764,51	49,66
764,939	49,41
765,368	50,44
765,797	49,7
766,225	49,85
766,654	49,87
767,082	50,01
767,51	49,77
767,938	49,58
768,367	49,82
768,795	49,68
769,222	49,81
769,65	49,53
770,078	49,5
770,505	49,87
770,933	49,91
771,36	49,77
771,788	49,07
772,215	49,42
772,642	49,02
773,069	49,46
773,496	49,45
773,923	49,4
774,349	49,14
774,776	49,61
775,203	49,21
775,629	49,22
776,055	49,59
776,482	49,19
776,908	48,99
777,334	49,21
777,76	48,81
778,186	49,22
778,611	48,47
779,037	49,15
779,463	48,86
779,888	48,41
780,314	49,33
780,739	49,31
781,164	49,26
781,589	48,67
782,014	48,55
782,439	48,83
782,864	48,69
783,289	48,69
783,713	48,55
784,138	48,54
784,562	48,44
784,987	48,81
785,411	48,66
785,835	48,63
786,259	48,41
786,683	48,75
787,107	48,38
787,531	48,59
787,954	48,54
788,378	48,4
788,802	48,62
789,225	48,29
789,648	48,38
790,071	48,37
790,495	48,01
790,918	48,28
791,34	48,31
791,763	48,49
792,186	48,46
792,609	48,39
793,031	48,4
793,454	48,3
793,876	48,64
794,298	48,43
794,721	47,83
795,143	48,43
795,565	48,64
795,986	48,34
796,408	48,6
796,83	48,19
797,252	48,34
797,673	47,81
798,094	48,14
798,516	48,24
798,937	48,08
799,358	48,49
799,779	48,36
800,2	48,19
800,621	48,26
801,042	48,46
801,462	48,09
801,883	48,09
802,303	48,03
802,724	48,27
803,144	48,56
803,564	47,94
803,984	48,05
804,404	48,22
804,824	48,37
805,244	48,04
805,664	47,84
806,084	48,09
806,503	47,89
806,923	48,25
807,342	48,15
807,761	47,88
808,18	48,03
808,599	47,81
809,018	48,52
809,437	47,71
809,856	48,02
810,275	47,82
810,693	48,02
811,112	48
811,53	47,87
811,949	47,52
812,367	47,8
812,785	48,21
813,203	48,35
813,621	47,94
814,039	47,53
814,457	47,95
814,874	47,81
815,292	47,65
815,709	47,89
816,127	47,58
816,544	47,63
816,961	47,76
817,378	47,45
817,795	48,39
818,212	47,86
818,629	47,45
819,046	47,9
819,462	47,71
819,879	48,08
820,295	48,02
820,712	48,05
821,128	47,77
821,544	48,3
821,96	47,65
822,376	47,58
822,792	47,68
823,208	47,39
823,624	47,46
824,039	47,98
824,455	47,76
824,87	47,57
825,286	47,21
825,701	47,68
826,116	47,9
826,531	47,63
826,946	47,68
827,361	47,74
827,776	47,64
828,19	47,34
828,605	47,48
829,02	47,81
829,434	47,72
829,848	47,67
830,263	48,01
830,677	47,25
831,091	47,34
831,505	47,42
831,919	47,59
832,332	47,34
832,746	47,13
833,16	47,21
833,573	47,58
