Data from B_1_Relative__6__00025.txt Node

Date: Tue Jan 30 09:50:25 CET 2024
User: diatiterra
Spectrometer: HDX00911
Trigger mode: 0
Integration Time (sec): 6,000000E-3
Scans to average: 2
Nonlinearity correction enabled: false
Boxcar width: 0
Storing dark spectrum: false
XAxis mode: Wavelengths
Number of Pixels in Spectrum: 2068
>>>>>Begin Spectral Data<<<<<
194,468	107,61
195,025	76,4
195,581	78,87
196,138	87,64
196,694	68,24
197,251	72,39
197,807	64,77
198,363	58,54
198,919	61,9
199,474	66,46
200,03	56,98
200,586	62,03
201,141	74,38
201,696	64,74
202,251	54,69
202,806	66,19
203,361	76,07
203,916	68,15
204,471	61,54
205,025	67,12
205,58	62,5
206,134	75,78
206,688	75,34
207,242	68,15
207,796	53,29
208,35	68,12
208,904	77,44
209,457	70,93
210,011	60,37
210,564	63,01
211,117	75,9
211,67	65,79
212,223	67,76
212,776	62,57
213,329	52,1
213,881	65,54
214,434	62,8
214,986	56,69
215,538	80,59
216,09	59,88
216,642	65,36
217,194	74,34
217,746	75,95
218,297	69,23
218,849	76,97
219,4	59,26
219,951	58,93
220,502	61,8
221,053	66,27
221,604	66,47
222,155	66,21
222,705	61,59
223,256	72
223,806	66,46
224,356	68,22
224,906	62,96
225,456	65,24
226,006	57,49
226,556	70,47
227,106	79,41
227,655	75,54
228,204	68,59
228,754	61,18
229,303	71,81
229,852	66,46
230,401	57,86
230,949	76,97
231,498	78,99
232,047	61,85
232,595	60,34
233,143	56,14
233,691	69,9
234,239	70,88
234,787	65,33
235,335	54,01
235,883	64,14
236,43	65,38
236,978	69,18
237,525	70,99
238,072	65,69
238,619	55,73
239,166	53,95
239,713	70,32
240,26	68,48
240,806	68,03
241,353	65,29
241,899	66,05
242,445	54
242,991	59,76
243,537	56
244,083	56,58
244,629	56,16
245,174	68,29
245,72	55,85
246,265	62,73
246,81	64,33
247,355	67,84
247,9	69,64
248,445	86,82
248,99	66,42
249,534	69,09
250,079	84,96
250,623	68,39
251,168	68,64
251,712	54,81
252,256	58,02
252,8	69,28
253,343	60,12
253,887	61,41
254,43	66,13
254,974	70,07
255,517	67,65
256,06	62,3
256,603	73,17
257,146	65,77
257,689	59,87
258,232	77,1
258,774	63,11
259,317	68,79
259,859	64,83
260,401	74,59
260,943	60,26
261,485	75,86
262,027	56,29
262,569	59,73
263,11	68,31
263,652	51,72
264,193	61,97
264,734	71,72
265,275	74,83
265,816	58,7
266,357	56,03
266,898	61,78
267,438	74,84
267,979	71,54
268,519	60,27
269,059	63,49
269,6	58,06
270,14	74,1
270,68	75
271,219	72,48
271,759	63,28
272,298	62,35
272,838	68,15
273,377	75,51
273,916	69,38
274,455	83,33
274,994	69,12
275,533	60,12
276,072	68,21
276,61	70,7
277,149	68,31
277,687	78,18
278,225	76,03
278,763	72,52
279,301	60,87
279,839	64,52
280,377	67,65
280,914	65,62
281,452	65,43
281,989	72,29
282,526	45,91
283,064	79,86
283,601	68,6
284,137	62,04
284,674	66,88
285,211	76,38
285,747	74,85
286,284	74,07
286,82	77,78
287,356	71,85
287,892	66,23
288,428	72,03
288,964	70,44
289,5	69,92
290,035	82,54
290,571	60,87
291,106	94,9
291,641	81,67
292,176	64,14
292,711	65,75
293,246	86,86
293,781	69,4
294,315	58,87
294,85	59,46
295,384	76,03
295,918	71,51
296,453	81,65
296,987	86,61
297,52	67,15
298,054	65,1
298,588	70
299,121	79,53
299,655	51,03
300,188	71,01
300,721	78,91
301,254	64,08
301,787	96,58
302,32	75,94
302,853	56,98
303,385	69,03
303,918	88,89
304,45	64,63
304,982	80,26
305,514	58,23
306,046	73,24
306,578	72,26
307,11	81,07
307,641	66,45
308,173	51,88
308,704	67,4
309,236	66,23
309,767	65,52
310,298	71,43
310,829	79,33
311,359	67,08
311,89	75
312,421	65,25
312,951	64,52
313,481	67,14
314,012	73,94
314,542	88,62
315,072	66,9
315,601	82,14
316,131	73,88
316,661	78,66
317,19	74,22
317,72	55,78
318,249	63,91
318,778	69,82
319,307	72,15
319,836	64,52
320,365	72,11
320,893	68,39
321,422	65,93
321,95	59,51
322,479	84,89
323,007	70,86
323,535	63,93
324,063	79,08
324,591	80,5
325,118	73,02
325,646	58,09
326,173	67,44
326,701	65,33
327,228	59,06
327,755	56,3
328,282	74,13
328,809	61,83
329,336	74,38
329,862	67,42
330,389	54,88
330,915	72,55
331,441	62,9
331,968	68,61
332,494	58,94
333,02	55,23
333,545	56,79
334,071	57,14
334,597	57,14
335,122	51,77
335,648	64,16
336,173	73,25
336,698	54,67
337,223	60,43
337,748	65,81
338,272	63,98
338,797	57,71
339,322	56,25
339,846	59,17
340,37	65,38
340,894	65,19
341,419	74,66
341,942	56,15
342,466	51,02
342,99	59,49
343,514	56,28
344,037	56,25
344,56	57,06
345,084	58,13
345,607	52,49
346,13	45,81
346,653	56,29
347,175	45,4
347,698	59,24
348,221	56,25
348,743	68,69
349,265	55,75
349,787	50,65
350,309	54,87
350,831	59,02
351,353	51,22
351,875	63,24
352,397	54,03
352,918	56,28
353,439	52,17
353,961	56,44
354,482	62,25
355,003	55,92
355,524	59,11
356,044	55,15
356,565	49,29
357,086	55,25
357,606	48,17
358,126	55,39
358,646	43,96
359,167	56,88
359,687	39,56
360,206	49,79
360,726	47,64
361,246	50,2
361,765	47,89
362,285	50,72
362,804	43,63
363,323	51,29
363,842	43,84
364,361	46,75
364,88	47,97
365,398	53,05
365,917	46,15
366,435	46,96
366,954	43,15
367,472	38,49
367,99	36,88
368,508	43,94
369,026	37,67
369,544	39,86
370,061	42,46
370,579	41,79
371,096	38,83
371,613	30,4
372,131	40,96
372,648	45,85
373,165	38,38
373,681	38,31
374,198	36,16
374,715	38,29
375,231	42,09
375,747	38,67
376,264	32,18
376,78	37,46
377,296	35,76
377,812	32,08
378,327	36,47
378,843	28,23
379,359	30,99
379,874	31,88
380,389	29,51
380,905	36,08
381,42	28,86
381,935	31,05
382,449	32,31
382,964	32,41
383,479	27,52
383,993	33,17
384,508	29,56
385,022	27,5
385,536	30,59
386,05	28,1
386,564	26,7
387,078	30,82
387,592	30,57
388,105	27,84
388,619	28,83
389,132	26,1
389,645	25
390,158	28,46
390,671	30,73
391,184	26,83
391,697	25,34
392,21	26,03
392,722	25,13
393,235	26,33
393,747	24,72
394,259	20,83
394,771	26,14
395,283	25,35
395,795	24,18
396,307	22,76
396,818	28,5
397,33	23,95
397,841	21,68
398,353	23,1
398,864	24,18
399,375	21,47
399,886	17,73
400,397	20,73
400,907	19,9
401,418	20,82
401,928	20,87
402,439	17,89
402,949	18,3
403,459	18,83
403,969	17,22
404,479	20,97
404,989	21,21
405,498	18,83
406,008	20,59
406,517	19,11
407,027	18,31
407,536	16,71
408,045	18,33
408,554	16,07
409,063	17,28
409,572	16
410,08	15,67
410,589	14,18
411,097	14,77
411,606	14,21
412,114	10,91
412,622	11,26
413,13	13,23
413,638	13,14
414,145	12,84
414,653	11,24
415,16	11,98
415,668	12,67
416,175	10,45
416,682	9,92
417,189	11,29
417,696	10,76
418,203	9,83
418,71	10,5
419,216	11,23
419,723	10,28
420,229	9,93
420,735	10,75
421,242	10,97
421,748	10,31
422,254	11,55
422,759	10,07
423,265	9,51
423,771	10,01
424,276	8,83
424,781	10,08
425,287	9,43
425,792	9,91
426,297	8,9
426,802	9,84
427,306	9,63
427,811	10,02
428,316	10,47
428,82	8,96
429,324	9,45
429,829	9,96
430,333	9,01
430,837	8,84
431,34	9,43
431,844	8,46
432,348	9,46
432,851	9,34
433,355	9,24
433,858	9,24
434,361	9,63
434,864	9,59
435,367	9,5
435,87	8,9
436,373	8,91
436,876	8,99
437,378	9,06
437,88	8,59
438,383	8,62
438,885	8,77
439,387	8,18
439,889	8,76
440,391	8,22
440,892	9,28
441,394	8,83
441,896	9,04
442,397	8,9
442,898	8,84
443,399	9,06
443,9	8,25
444,401	8,62
444,902	9,01
445,403	8,86
445,903	9,25
446,404	8,9
446,904	8,64
447,405	8,74
447,905	7,98
448,405	8,45
448,905	8,6
449,404	8,24
449,904	8,69
450,404	8,76
450,903	8,68
451,403	8,07
451,902	8,41
452,401	8,62
452,9	8,37
453,399	8,46
453,898	8,42
454,396	8,68
454,895	8,11
455,393	8,18
455,892	8,97
456,39	8,18
456,888	8,78
457,386	8,79
457,884	8,51
458,382	8,47
458,879	8,8
459,377	8,73
459,874	8,59
460,372	8,44
460,869	8,21
461,366	8,11
461,863	9,02
462,36	8,31
462,857	8,69
463,353	8,4
463,85	7,8
464,346	8,59
464,843	8,27
465,339	8,67
465,835	8,13
466,331	7,89
466,827	8,04
467,323	8,56
467,818	8,13
468,314	8,7
468,809	8,42
469,305	8,76
469,8	8,74
470,295	8,62
470,79	8,16
471,285	8,64
471,78	8,37
472,274	8,61
472,769	8,07
473,263	8,63
473,758	8,89
474,252	8,35
474,746	7,86
475,24	8,32
475,734	8,48
476,228	8,4
476,721	8,78
477,215	8,37
477,708	8,51
478,202	8,94
478,695	8,25
479,188	9,01
479,681	8,09
480,174	8,48
480,667	8,47
481,159	8,32
481,652	8,22
482,144	8,16
482,637	8,42
483,129	7,83
483,621	8,63
484,113	8,49
484,605	8,34
485,097	8,38
485,588	8,3
486,08	8,71
486,571	8,43
487,063	8,59
487,554	8,2
488,045	8,4
488,536	8,65
489,027	8,54
489,518	8,49
490,008	8,47
490,499	8,8
490,989	8,82
491,48	8,17
491,97	8,45
492,46	8,47
492,95	8,88
493,44	8,79
493,93	8,56
494,419	8,57
494,909	8,64
495,398	8,56
495,888	8,81
496,377	8,45
496,866	8,84
497,355	8,76
497,844	8,64
498,333	8,48
498,821	8,97
499,31	9,04
499,798	9,24
500,287	9,11
500,775	8,84
501,263	9,08
501,751	9,26
502,239	9,15
502,727	8,98
503,215	8,92
503,702	8,89
504,19	9,33
504,677	9,46
505,164	9,65
505,651	9
506,139	9,47
506,625	9,45
507,112	9,91
507,599	9,86
508,086	9,58
508,572	9,87
509,058	10,01
509,545	10,43
510,031	9,96
510,517	10,08
511,003	10,21
511,489	10,7
511,974	10,7
512,46	10,87
512,946	10,52
513,431	11,02
513,916	11,03
514,401	11,13
514,887	10,82
515,371	11,55
515,856	11,58
516,341	11,66
516,826	11,82
517,31	12,45
517,795	12,48
518,279	12,6
518,763	13,1
519,247	13,03
519,731	13,44
520,215	13,49
520,699	13,9
521,182	13,86
521,666	14,03
522,149	14,37
522,633	14,74
523,116	14,92
523,599	15,01
524,082	15,26
524,565	15,12
525,048	15,44
525,53	16,27
526,013	15,67
526,495	16,56
526,978	16,52
527,46	16,35
527,942	17,12
528,424	16,97
528,906	17,04
529,388	17,57
529,87	17,45
530,351	17,85
530,833	17,89
531,314	17,89
531,795	18,12
532,277	17,83
532,758	18,48
533,238	18,25
533,719	18,79
534,2	19,16
534,681	18,96
535,161	18,51
535,642	19,01
536,122	19,43
536,602	19,09
537,082	19,19
537,562	19,32
538,042	19,52
538,522	19,13
539,001	19,27
539,481	19,26
539,96	19,5
540,44	19,69
540,919	19,83
541,398	19,74
541,877	20
542,356	19,83
542,835	19,63
543,313	19,52
543,792	19,63
544,27	19,57
544,749	20,31
545,227	20,03
545,705	20,38
546,183	19,84
546,661	20,2
547,139	19,68
547,616	19,66
548,094	20,45
548,571	20,17
549,049	20
549,526	19,99
550,003	20,02
550,48	20,55
550,957	20,08
551,434	20,19
551,911	20,4
552,387	20,31
552,864	20,21
553,34	20,47
553,817	20,34
554,293	20,07
554,769	19,97
555,245	20,55
555,721	20,27
556,197	20,15
556,672	19,77
557,148	20,09
557,623	19,98
558,099	19,95
558,574	19,85
559,049	20,17
559,524	19,68
559,999	20,33
560,474	19,94
560,948	19,31
561,423	19,53
561,897	19,39
562,372	19,55
562,846	19,38
563,32	19,68
563,794	18,91
564,268	19,23
564,742	18,9
565,216	18,6
565,69	18,95
566,163	18,61
566,636	18,72
567,11	18,13
567,583	18,31
568,056	17,99
568,529	18
569,002	17,59
569,475	17,93
569,947	17,83
570,42	17,44
570,892	17,13
571,365	16,71
571,837	17,24
572,309	16,94
572,781	16,65
573,253	16,47
573,725	16,62
574,197	16,41
574,668	16,36
575,14	16,44
575,611	15,93
576,082	15,83
576,554	15,79
577,025	15,47
577,496	15,69
577,967	15,4
578,437	15,17
578,908	15,32
579,379	15,26
579,849	14,75
580,319	14,72
580,79	14,63
581,26	14,8
581,73	15,03
582,2	14,6
582,669	14,37
583,139	14,16
583,609	14,55
584,078	14,4
584,548	14,07
585,017	14,11
585,486	14,34
585,955	14,14
586,424	13,74
586,893	13,74
587,362	13,84
587,83	13,87
588,299	13,67
588,767	13,87
589,236	13,63
589,704	13,89
590,172	13,64
590,64	13,79
591,108	13,47
591,576	13,66
592,043	13,47
592,511	13,32
592,978	13,46
593,446	13,42
593,913	13,28
594,38	13,25
594,847	13,41
595,314	13,04
595,781	13,32
596,248	12,97
596,715	13,07
597,181	13,2
597,647	13,3
598,114	13,18
598,58	13
599,046	13,32
599,512	13,42
599,978	12,87
600,444	13,1
600,91	12,64
601,375	13,06
601,841	12,98
602,306	12,76
602,771	12,76
603,236	12,73
603,702	12,85
604,167	12,71
604,631	12,8
605,096	12,74
605,561	12,65
606,025	12,6
606,49	12,39
606,954	12,62
607,418	12,62
607,882	12,56
608,347	12,47
608,81	12,19
609,274	12,35
609,738	12,22
610,202	12,1
610,665	11,96
611,128	11,94
611,592	12,12
612,055	11,76
612,518	11,96
612,981	11,91
613,444	11,78
613,907	11,67
614,369	11,39
614,832	11,58
615,294	11,61
615,757	11,38
616,219	11,55
616,681	11,5
617,143	11,19
617,605	11,48
618,067	11,43
618,529	11,29
618,99	11,17
619,452	11,36
619,913	11,28
620,375	11,04
620,836	11,08
621,297	11,32
621,758	10,78
622,219	11,21
622,68	11,17
623,14	11,03
623,601	11,04
624,061	10,96
624,522	10,84
624,982	10,85
625,442	11,01
625,902	10,76
626,362	10,89
626,822	11,02
627,282	11,07
627,742	10,6
628,201	10,86
628,661	10,97
629,12	10,66
629,579	10,81
630,038	10,81
630,497	10,63
630,956	10,8
631,415	10,65
631,874	10,69
632,332	10,55
632,791	10,8
633,249	10,68
633,708	10,67
634,166	10,61
634,624	10,51
635,082	10,68
635,54	10,44
635,998	10,34
636,455	10,39
636,913	10,68
637,37	10,38
637,828	10,18
638,285	10,36
638,742	10,17
639,199	10,26
639,656	10,1
640,113	10,23
640,57	10,24
641,027	9,97
641,483	10,05
641,94	10,03
642,396	9,84
642,852	9,8
643,309	9,73
643,765	9,81
644,221	9,64
644,676	9,52
645,132	9,64
645,588	9,54
646,043	9,51
646,499	9,55
646,954	9,39
647,409	9,52
647,864	9,15
648,319	9,16
648,774	9,17
649,229	9,38
649,684	9,34
650,139	9,1
650,593	9,13
651,047	9,03
651,502	9,17
651,956	9,08
652,41	8,9
652,864	9,2
653,318	9,13
653,772	8,99
654,225	9
654,679	9,02
655,133	8,97
655,586	8,86
656,039	9,03
656,492	9,03
656,946	9
657,399	8,98
657,851	8,89
658,304	8,95
658,757	8,97
659,209	9
659,662	9,01
660,114	8,89
660,567	8,72
661,019	8,75
661,471	8,79
661,923	8,71
662,375	8,68
662,826	8,92
663,278	8,78
663,73	8,79
664,181	8,85
664,632	8,69
665,084	8,66
665,535	8,86
665,986	8,76
666,437	8,92
666,888	8,99
667,338	8,92
667,789	9,03
668,24	9,03
668,69	8,85
669,14	9,01
669,591	9,06
670,041	8,94
670,491	9,11
670,941	9,09
671,391	9,25
671,84	9,19
672,29	9,32
672,74	9,31
673,189	9,49
673,638	9,37
674,088	9,5
674,537	9,81
674,986	9,68
675,435	9,86
675,883	9,72
676,332	9,74
676,781	9,82
677,229	9,99
677,678	10,09
678,126	10,12
678,574	10,32
679,022	10,44
679,47	10,53
679,918	10,49
680,366	10,6
680,814	10,68
681,261	10,7
681,709	10,87
682,156	10,93
682,604	11,13
683,051	11
683,498	11,05
683,945	11,08
684,392	11,32
684,839	11,19
685,286	11,12
685,732	11,32
686,179	11,22
686,625	11,29
687,071	11,38
687,518	11,42
687,964	11,43
688,41	11,19
688,856	11,4
689,301	11,63
689,747	11,82
690,193	11,79
690,638	11,9
691,084	12,15
691,529	12,1
691,974	12,3
692,419	12,34
692,864	12,77
693,309	12,81
693,754	13,06
694,199	13,46
694,643	13,78
695,088	14
695,532	14,41
695,977	14,41
696,421	14,88
696,865	15,52
697,309	15,78
697,753	16,35
698,197	16,36
698,64	17,11
699,084	17,48
699,527	18,04
699,971	18,31
700,414	18,76
700,857	19,45
701,3	19,57
701,743	20,11
702,186	20,53
702,629	21,13
703,072	21,68
703,515	21,83
703,957	22,71
704,399	23,25
704,842	23,58
705,284	24,16
705,726	24,36
706,168	24,63
706,61	25,38
707,052	26,12
707,494	26,51
707,935	26,82
708,377	27,26
708,818	28,02
709,26	28,12
709,701	28,81
710,142	29,22
710,583	30,07
711,024	30,2
711,465	30,7
711,905	30,97
712,346	31,46
712,787	31,99
713,227	32,51
713,667	32,97
714,108	33,57
714,548	33,61
714,988	34,22
715,428	34,85
715,868	35,21
716,307	35,54
716,747	36,11
717,186	36,67
717,626	37,2
718,065	37,43
718,504	38,03
718,944	38,79
719,383	38,59
719,822	39,19
720,261	39,34
720,699	40,03
721,138	40,62
721,576	40,38
722,015	41,3
722,453	41,74
722,892	41,84
723,33	42,14
723,768	42,82
724,206	43,13
724,644	43,49
725,081	43,75
725,519	44,2
725,957	43,93
726,394	44,78
726,832	45,03
727,269	45,32
727,706	46,17
728,143	45,98
728,58	46,43
729,017	46,25
729,454	46,72
729,89	46,99
730,327	47,28
730,764	47,45
731,2	47,96
731,636	48,12
732,072	48,04
732,509	48,32
732,945	48,59
733,38	48,9
733,816	48,93
734,252	48,76
734,688	49,09
735,123	50,09
735,559	49,37
735,994	49,49
736,429	50,1
736,864	50,02
737,299	49,99
737,734	50,39
738,169	50,54
738,604	50,77
739,038	50,83
739,473	50,87
739,907	51,6
740,342	50,84
740,776	51,22
741,21	51,01
741,644	51
742,078	51,59
742,512	51,41
742,946	51,68
743,379	51
743,813	51,48
744,246	51,37
744,68	51,27
745,113	51,56
745,546	51,92
745,979	51,95
746,412	51,87
746,845	51,76
747,278	51,63
747,711	52,04
748,143	51,91
748,576	51,97
749,008	52,29
749,441	52,28
749,873	51,54
750,305	51,84
750,737	51,83
751,169	51,84
751,601	51,95
752,032	51,55
752,464	52,17
752,896	51,57
753,327	51,58
753,758	51,53
754,19	51,49
754,621	51,96
755,052	51,47
755,483	51,85
755,914	51,81
756,344	51,75
756,775	51,87
757,206	51,85
757,636	51,5
758,066	51,66
758,497	51,44
758,927	51,35
759,357	52,16
759,787	51,03
760,217	51,16
760,647	51,85
761,076	51,51
761,506	51,32
761,935	51,04
762,365	51,46
762,794	50,98
763,223	51,71
763,653	50,78
764,082	51,61
764,51	51,03
764,939	51,23
765,368	51,29
765,797	51,08
766,225	51,23
766,654	50,83
767,082	51,09
767,51	50,91
767,938	50,99
768,367	51,03
768,795	50,62
769,222	50,72
769,65	51,08
770,078	50,7
770,505	51,16
770,933	51,1
771,36	50,46
771,788	50,56
772,215	51,25
772,642	50,53
773,069	50,65
773,496	50,36
773,923	50,43
774,349	50,22
774,776	51,25
775,203	50,44
775,629	50,43
776,055	50,65
776,482	50,78
776,908	50,34
777,334	50,32
777,76	50,04
778,186	50,41
778,611	50,3
779,037	50,39
779,463	50,27
779,888	50,17
780,314	50,67
780,739	50,61
781,164	50,48
781,589	50,23
782,014	50,51
782,439	50,06
782,864	50,08
783,289	50,43
783,713	50,11
784,138	49,87
784,562	49,84
784,987	50,26
785,411	50,34
785,835	50,11
786,259	50,22
786,683	50,29
787,107	49,79
787,531	49,64
787,954	50,18
788,378	50,04
788,802	50,29
789,225	49,56
789,648	49,79
790,071	50,11
790,495	49,67
790,918	50,31
791,34	50,06
791,763	50
792,186	49,78
792,609	49,61
793,031	49,88
793,454	49,9
793,876	50,4
794,298	50,54
794,721	49,4
795,143	49,99
795,565	49,86
795,986	50
796,408	50,26
796,83	49,93
797,252	49,93
797,673	49,95
798,094	50,24
798,516	50,09
798,937	49,71
799,358	49,91
799,779	49,64
800,2	50
800,621	49,86
801,042	49,71
801,462	49,84
801,883	50,03
802,303	49,9
802,724	49,59
803,144	49,9
803,564	49,41
803,984	49,55
804,404	49,73
804,824	49,57
805,244	49,85
805,664	49,39
806,084	49,86
806,503	49,21
806,923	49,45
807,342	49,62
807,761	50,05
808,18	49,64
808,599	50,12
809,018	49,96
809,437	49,64
809,856	49,96
810,275	49,74
810,693	49,56
811,112	49,78
811,53	49,3
811,949	49,69
812,367	49,68
812,785	49,71
813,203	49,44
813,621	49,05
814,039	49,65
814,457	49,98
814,874	49,48
815,292	49,71
815,709	49,31
816,127	49,65
816,544	49,14
816,961	49,4
817,378	49,35
817,795	49,29
818,212	49,63
818,629	49,82
819,046	49,76
819,462	49,62
819,879	49,94
820,295	49,93
820,712	49,16
821,128	49,5
821,544	49,89
821,96	49,6
822,376	49,36
822,792	49,76
823,208	49,63
823,624	49,27
824,039	49,45
824,455	49,46
824,87	49,6
825,286	49,2
825,701	49,55
826,116	49,87
826,531	49,49
826,946	48,93
827,361	49,41
827,776	49,24
828,19	49,27
828,605	49,17
829,02	49,27
829,434	49,26
829,848	49,07
830,263	49,76
830,677	49,34
831,091	49,37
831,505	48,85
831,919	49,35
832,332	49,72
832,746	49,73
833,16	49,06
833,573	49,06
833,987	49,79
834,4	48,64
834,813	49,28
835,226	49,07
835,639	49,69
836,052	49,26
836,465	49,71
836,878	49,45
837,29	49,56
837,703	48,72
838,116	49,27
838,528	48,74
838,94	49,28
839,352	49,01
839,765	49,49
840,177	49,25
840,589	48,87
841	49,21
841,412	49,04
