Data from B_5_Relative__4__00030.txt Node

Date: Tue Jan 30 09:51:17 CET 2024
User: diatiterra
Spectrometer: HDX00911
Trigger mode: 0
Integration Time (sec): 6,000000E-3
Scans to average: 2
Nonlinearity correction enabled: false
Boxcar width: 0
Storing dark spectrum: false
XAxis mode: Wavelengths
Number of Pixels in Spectrum: 2068
>>>>>Begin Spectral Data<<<<<
194,468	96,74
195,025	83,15
195,581	91,55
196,138	101,12
196,694	73,65
197,251	84,33
197,807	59,66
198,363	70,73
198,919	61,31
199,474	72,78
200,03	59,78
200,586	75,95
201,141	83,12
201,696	64,74
202,251	76,56
202,806	76,26
203,361	74,23
203,916	72,61
204,471	78,63
205,025	74,66
205,58	77,08
206,134	69,57
206,688	72,6
207,242	79,62
207,796	68,86
208,35	73,75
208,904	71,95
209,457	81,98
210,011	64,02
210,564	64,38
211,117	77,11
211,67	75
212,223	79,61
212,776	71,93
213,329	67,07
213,881	72,3
214,434	78,05
214,986	72,61
215,538	77,06
216,09	70,06
216,642	86,27
217,194	81,58
217,746	76,58
218,297	78,21
218,849	78,79
219,4	67,9
219,951	67,26
220,502	75,84
221,053	72,78
221,604	75,88
222,155	80,69
222,705	73,51
223,256	68
223,806	68,29
224,356	75,19
224,906	78,4
225,456	59,76
226,006	64,07
226,556	72,48
227,106	82,35
227,655	72,66
228,204	78,85
228,754	67,65
229,303	69,8
229,852	70,89
230,401	78,62
230,949	85,53
231,498	66,67
232,047	76,3
232,595	74,3
233,143	64,33
233,691	70,92
234,239	65,93
234,787	84
235,335	75,18
235,883	80,69
236,43	81,41
236,978	64,15
237,525	66,67
238,072	56,93
238,619	61,83
239,166	72,37
239,713	69,68
240,26	70,91
240,806	78,23
241,353	74,12
241,899	67,28
242,445	74
242,991	66,86
243,537	72,67
244,083	59,21
244,629	66,44
245,174	70,73
245,72	63,3
246,265	64,6
246,81	70,7
247,355	85,96
247,9	73,21
248,445	71,32
248,99	66,42
249,534	69,7
250,079	88,72
250,623	74,19
251,168	63,31
251,712	65,19
252,256	74,05
252,8	66,67
253,343	61,85
253,887	58,7
254,43	73,66
254,974	93,43
255,517	61,03
256,06	80,33
256,603	64,02
257,146	77,18
257,689	63,16
258,232	70,23
258,774	73,77
259,317	74,47
259,859	59,31
260,401	77,87
260,943	74,17
261,485	93,97
262,027	72,85
262,569	60,4
263,11	74,65
263,652	78,62
264,193	66,9
264,734	75,86
265,275	68,03
265,816	71,01
266,357	74,47
266,898	70,7
267,438	69,68
267,979	71,54
268,519	67,81
269,059	80,16
269,6	59,35
270,14	76,98
270,68	85,42
271,219	60,4
271,759	79,69
272,298	64,2
272,838	73,25
273,377	70,75
273,916	66,25
274,455	72,92
274,994	69,85
275,533	57,14
276,072	72,85
276,61	59,24
277,149	72,54
277,687	77,58
278,225	73,55
278,763	77,86
279,301	72,05
279,839	69,03
280,377	75
280,914	62,5
281,452	53,09
281,989	62,05
282,526	57,23
283,064	84,03
283,601	69,77
284,137	61,31
284,674	64,94
285,211	78,74
285,747	62,28
286,284	70,37
286,82	75,69
287,356	74,07
287,892	55,63
288,428	74,13
288,964	62,89
289,5	66,92
290,035	81,75
290,571	75,16
291,106	92,86
291,641	70
292,176	68,97
292,711	71,92
293,246	79,56
293,781	67,91
294,315	76,61
294,85	68,92
295,384	67,77
295,918	58,1
296,453	77,85
296,987	78,57
297,52	61,31
298,054	74,5
298,588	84,62
299,121	69,29
299,655	64,14
300,188	75,36
300,721	69,39
301,254	66,2
301,787	91,45
302,32	68,42
302,853	65,12
303,385	70,32
303,918	75,21
304,45	74,83
304,982	68,42
305,514	59,49
306,046	69,01
306,578	65,69
307,11	75,15
307,641	63,23
308,173	67,5
308,704	71,82
309,236	66,88
309,767	79,31
310,298	58,86
310,829	85,33
311,359	67,7
311,89	74,32
312,421	66,67
312,951	61,29
313,481	67,14
314,012	66,67
314,542	82,93
315,072	75,35
315,601	73,57
316,131	79,1
316,661	73,78
317,19	64,84
317,72	67,35
318,249	77,44
318,778	67,46
319,307	76,58
319,836	64,52
320,365	74,83
320,893	72,99
321,422	68,89
321,95	57,67
322,479	76,26
323,007	62,91
323,535	73,22
324,063	67,97
324,591	74,21
325,118	72,22
325,646	55,88
326,173	65,89
326,701	66
327,228	61,99
327,755	64,44
328,282	73,43
328,809	82,44
329,336	58,13
329,862	68,54
330,389	53,05
330,915	67,97
331,441	63,44
331,968	67,15
332,494	66,89
333,02	61,05
333,545	56,17
334,071	75,97
334,597	72,73
335,122	73,05
335,648	68,79
336,173	57,32
336,698	58,67
337,223	66,19
337,748	78,06
338,272	64,6
338,797	59,43
339,322	59,38
339,846	52,07
340,37	59,62
340,894	56,33
341,419	68,49
341,942	59,89
342,466	47,62
342,99	59,49
343,514	57,92
344,037	59,09
344,56	59,89
345,084	71,25
345,607	64,09
346,13	53,07
346,653	66,89
347,175	65,52
347,698	67,93
348,221	66,88
348,743	68,69
349,265	59,2
349,787	48,05
350,309	58,46
350,831	54,64
351,353	53,66
351,875	56,76
352,397	55,45
352,918	51,76
353,439	76,4
353,961	62,38
354,482	68,14
355,003	65,88
355,524	51,72
356,044	53,61
356,565	54,98
357,086	57,08
357,606	54,45
358,126	62,25
358,646	51,21
359,167	57,8
359,687	58,22
360,206	58,72
360,726	57,55
361,246	53,85
361,765	55,87
362,285	60,77
362,804	55,88
363,323	59,91
363,842	64,38
364,361	58,44
364,88	54,88
365,398	61,03
365,917	55,66
366,435	57,09
366,954	53,63
367,472	55,16
367,99	55,13
368,508	56,06
369,026	52,74
369,544	54,9
370,061	47,02
370,579	51,49
371,096	49,14
371,613	48,72
372,131	52,9
372,648	53,49
373,165	53,87
373,681	57,09
374,198	49,37
374,715	55,39
375,231	56,23
375,747	51,67
376,264	47,95
376,78	49,54
377,296	48,68
377,812	39,6
378,327	53,24
378,843	42,94
379,359	47,61
379,874	47,56
380,389	44,99
380,905	49,72
381,42	47,43
381,935	48,95
382,449	44,81
382,964	49,75
383,479	45,45
383,993	42,72
384,508	43,1
385,022	43,64
385,536	40,47
386,05	36,06
386,564	39,14
387,078	38,99
387,592	39,47
388,105	39,39
388,619	44,79
389,132	40,04
389,645	34,49
390,158	40,23
390,671	40,22
391,184	35,6
391,697	38,36
392,21	32,77
392,722	35,68
393,235	35,17
393,747	33,33
394,259	36,14
394,771	35,88
395,283	37,67
395,795	32,81
396,307	31,73
396,818	32,83
397,33	36,17
397,841	31,88
398,353	29,61
398,864	35,01
399,375	31,83
399,886	25,76
400,397	30,59
400,907	26,18
401,418	28,38
401,928	27,62
402,439	26,65
402,949	26,91
403,459	27,1
403,969	23,31
404,479	25,25
404,989	26,67
405,498	21,36
406,008	24,12
406,517	21,44
407,027	21,42
407,536	21,41
408,045	21,15
408,554	18,59
409,063	20,78
409,572	18,3
410,08	18,67
410,589	16,56
411,097	17,07
411,606	15,86
412,114	12,1
412,622	13,9
413,13	14,1
413,638	14,12
414,145	13,95
414,653	12,86
415,16	12,85
415,668	13,8
416,175	12,51
416,682	12,02
417,189	12,03
417,696	10,9
418,203	10,87
418,71	11,78
419,216	11,01
419,723	11,15
420,229	10,44
420,735	9,92
421,242	11,35
421,748	10,9
422,254	11,59
422,759	10,04
423,265	9,51
423,771	9,63
424,276	10,07
424,781	8,85
425,287	10,13
425,792	10,25
426,297	9,24
426,802	8,45
427,306	9,63
427,811	9,09
428,316	10,37
428,82	9,47
429,324	9,01
429,829	9,92
430,333	9,11
430,837	9,51
431,34	9,01
431,844	8,7
432,348	9,43
432,851	9,32
433,355	8,35
433,858	9,21
434,361	9,05
434,864	8,51
435,367	9,28
435,87	8,98
436,373	8,55
436,876	9,28
437,378	8,61
437,88	8,77
438,383	9,41
438,885	8,56
439,387	8
439,889	8,23
440,391	8,9
440,892	9,18
441,394	9,14
441,896	9,38
442,397	8,97
442,898	8,86
443,399	9,36
443,9	8,07
444,401	9,06
444,902	8,74
445,403	8,48
445,903	8,72
446,404	9,58
446,904	9,31
447,405	8,95
447,905	8,32
448,405	8,37
448,905	8,62
449,404	8,72
449,904	9,02
450,404	8,6
450,903	9,07
451,403	8,54
451,902	9,2
452,401	8,88
452,9	9,13
453,399	9,09
453,898	8,91
454,396	8,99
454,895	9,11
455,393	9,26
455,892	8,93
456,39	9,29
456,888	9,17
457,386	9,37
457,884	9,13
458,382	9,55
458,879	9,46
459,377	9,3
459,874	9,51
460,372	9,59
460,869	9,5
461,366	8,99
461,863	9,32
462,36	9,41
462,857	8,49
463,353	9,13
463,85	9,12
464,346	9,06
464,843	9,42
465,339	9,15
465,835	9,11
466,331	8,62
466,827	8,9
467,323	8,8
467,818	9,14
468,314	9,22
468,809	8,82
469,305	9,07
469,8	9,5
470,295	9,36
470,79	9,4
471,285	9,44
471,78	9,03
472,274	8,76
472,769	9,17
473,263	9,1
473,758	9,11
474,252	9,27
474,746	9,13
475,24	9,13
475,734	9,25
476,228	8,93
476,721	9,39
477,215	9,23
477,708	9,55
478,202	9,3
478,695	9,02
479,188	9,4
479,681	9,1
480,174	9,27
480,667	9,17
481,159	9,18
481,652	9,31
482,144	9,49
482,637	9,25
483,129	9,06
483,621	9,59
484,113	9,41
484,605	9,75
485,097	9,04
485,588	9,26
486,08	9,64
486,571	9,18
487,063	9,48
487,554	9,54
488,045	9,31
488,536	9,57
489,027	9,72
489,518	10,04
490,008	9,76
490,499	10,07
490,989	9,84
491,48	9,96
491,97	10,38
492,46	9,86
492,95	9,96
493,44	10,23
493,93	10,39
494,419	10,61
494,909	10,2
495,398	10,42
495,888	10,54
496,377	10,39
496,866	11,09
497,355	10,98
497,844	10,78
498,333	10,89
498,821	11,61
499,31	11,45
499,798	11,68
500,287	11,36
500,775	11,76
501,263	12,35
501,751	12,18
502,239	12,4
502,727	12,53
503,215	12,81
503,702	12,73
504,19	13,32
504,677	13,92
505,164	13,73
505,651	13,94
506,139	14,36
506,625	13,78
507,112	14,4
507,599	15,1
508,086	15,53
508,572	15,33
509,058	16,16
509,545	16,57
510,031	16,5
510,517	17,04
511,003	17,2
511,489	17,48
511,974	17,89
512,46	17,65
512,946	18,62
513,431	18,61
513,916	19,14
514,401	19,55
514,887	19,88
515,371	20,13
515,856	19,98
516,341	20,8
516,826	21,36
517,31	21,83
517,795	21,87
518,279	22,86
518,763	23,02
519,247	23,03
519,731	23,35
520,215	23,28
520,699	24,19
521,182	24,57
521,666	25,32
522,149	25,8
522,633	25,81
523,116	25,89
523,599	26,59
524,082	26,88
524,565	26,8
525,048	27,47
525,53	27,69
526,013	27,8
526,495	28,93
526,978	28,51
527,46	29,36
527,942	28,74
528,424	29,58
528,906	29,56
529,388	30,6
529,87	30,76
530,351	30,35
530,833	31,36
531,314	31,31
531,795	31,77
532,277	31,12
532,758	31,47
533,238	31,25
533,719	31,91
534,2	32,12
534,681	32,41
535,161	32,16
535,642	31,66
536,122	32,54
536,602	32,86
537,082	32,71
537,562	32,75
538,042	32,9
538,522	32,36
539,001	32,94
539,481	32,59
539,96	33,05
540,44	33,3
540,919	33,42
541,398	32,67
541,877	33,52
542,356	33,5
542,835	33,34
543,313	33,31
543,792	32,78
544,27	33,6
544,749	34,07
545,227	33,15
545,705	34,1
546,183	33,46
546,661	33,38
547,139	33,66
547,616	33,84
548,094	34,62
548,571	33,71
549,049	34,3
549,526	34,24
550,003	33,8
550,48	33,94
550,957	33,99
551,434	34,03
551,911	34,19
552,387	34,09
552,864	34,01
553,34	34,08
553,817	34,67
554,293	33,94
554,769	34,4
555,245	34,32
555,721	33,78
556,197	34,02
556,672	33,83
557,148	34,33
557,623	34,34
558,099	33,87
558,574	33,8
559,049	34,25
559,524	33,38
559,999	34,47
560,474	33,94
560,948	33,16
561,423	33,78
561,897	33,06
562,372	33,05
562,846	32,84
563,32	32,97
563,794	32,59
564,268	32,8
564,742	33,22
565,216	32,37
565,69	32,29
566,163	32,6
566,636	32,86
567,11	32,37
567,583	31,81
568,056	31,87
568,529	31,61
569,002	31,45
569,475	30,99
569,947	31,18
570,42	31,01
570,892	30,44
571,365	30,54
571,837	30,47
572,309	29,74
572,781	29,52
573,253	29,34
573,725	29,15
574,197	29,2
574,668	28,89
575,14	28,7
575,611	28,87
576,082	28,35
576,554	28,38
577,025	27,98
577,496	27,57
577,967	27,48
578,437	27,45
578,908	27,22
579,379	27,46
579,849	26,66
580,319	26,75
580,79	26,8
581,26	26,62
581,73	26,46
582,2	26,31
582,669	26,18
583,139	25,98
583,609	25,73
584,078	25,85
584,548	25,81
585,017	25,96
585,486	25,32
585,955	25,15
586,424	25,09
586,893	24,98
587,362	24,78
587,83	24,62
588,299	24,63
588,767	24,67
589,236	24,53
589,704	24,87
590,172	24,16
590,64	24,37
591,108	24,4
591,576	23,93
592,043	24,02
592,511	23,88
592,978	23,85
593,446	23,85
593,913	23,91
594,38	24,01
594,847	23,66
595,314	23,77
595,781	23,8
596,248	23,77
596,715	23,18
597,181	23,54
597,647	23,16
598,114	23,62
598,58	23,14
599,046	23,34
599,512	23,24
599,978	22,78
600,444	23,21
600,91	22,7
601,375	23,24
601,841	23,12
602,306	23,06
602,771	23,08
603,236	22,66
603,702	22,42
604,167	22,63
604,631	22,52
605,096	22,67
605,561	22,27
606,025	22,33
606,49	22,45
606,954	21,9
607,418	22,01
607,882	22,14
608,347	21,67
608,81	21,81
609,274	21,85
609,738	21,67
610,202	21,22
610,665	21,25
611,128	20,88
611,592	21
612,055	20,86
612,518	20,84
612,981	20,57
613,444	20,69
613,907	20,41
614,369	20,42
614,832	20,09
615,294	20,31
615,757	20,04
616,219	20,14
616,681	19,72
617,143	19,57
617,605	19,66
618,067	19,54
618,529	19,36
618,99	19,34
619,452	19,53
619,913	19,48
620,375	18,97
620,836	19,3
621,297	18,8
621,758	18,8
622,219	18,66
622,68	19,04
623,14	18,54
623,601	18,64
624,061	18,66
624,522	18,71
624,982	18,34
625,442	18,34
625,902	18,27
626,362	18,17
626,822	18,22
627,282	18,61
627,742	18,23
628,201	18,26
628,661	18,15
629,12	18,4
629,579	18,05
630,038	17,97
630,497	18,17
630,956	18,24
631,415	18,44
631,874	17,86
632,332	17,78
632,791	17,83
633,249	17,92
633,708	17,92
634,166	17,78
634,624	17,49
635,082	17,72
635,54	17,39
635,998	17,29
636,455	17,14
636,913	16,91
637,37	16,95
637,828	16,82
638,285	16,65
638,742	16,44
639,199	16,35
639,656	16,33
640,113	16,18
640,57	15,65
641,027	15,51
641,483	15,34
641,94	15,18
642,396	15,39
642,852	15
643,309	14,79
643,765	14,92
644,221	14,77
644,676	14,28
645,132	14,08
645,588	14,09
646,043	13,82
646,499	13,77
646,954	13,4
647,409	13,47
647,864	13,24
648,319	13,31
648,774	12,93
649,229	12,94
649,684	12,87
650,139	12,62
650,593	12,76
651,047	12,48
651,502	12,4
651,956	12,14
652,41	12,14
652,864	12,37
653,318	12,01
653,772	11,99
654,225	12,14
654,679	11,94
655,133	12,14
655,586	11,92
656,039	11,73
656,492	11,66
656,946	11,51
657,399	11,54
657,851	11,49
658,304	11,57
658,757	11
659,209	11,17
659,662	11,29
660,114	10,98
660,567	10,77
661,019	10,62
661,471	10,5
661,923	10,42
662,375	10,43
662,826	10,22
663,278	10,11
663,73	10,1
664,181	9,93
664,632	9,99
665,084	9,73
665,535	9,8
665,986	9,83
666,437	9,56
666,888	9,66
667,338	9,52
667,789	9,65
668,24	9,51
668,69	9,39
669,14	9,34
669,591	9,44
670,041	9,3
670,491	9,45
670,941	9,46
671,391	9,51
671,84	9,58
672,29	9,6
672,74	9,55
673,189	9,79
673,638	9,8
674,088	9,82
674,537	9,99
674,986	10,15
675,435	10,15
675,883	10,21
676,332	10,41
676,781	10,24
677,229	10,6
677,678	10,48
678,126	10,68
678,574	10,85
679,022	10,92
679,47	11,07
679,918	11,36
680,366	11,27
680,814	11,45
681,261	11,76
681,709	11,87
682,156	11,83
682,604	12,05
683,051	12,53
683,498	12,35
683,945	12,72
684,392	13,02
684,839	13,04
685,286	13,37
685,732	13,34
686,179	13,75
686,625	13,89
687,071	14,27
687,518	14,36
687,964	14,74
688,41	14,93
688,856	15,68
689,301	15,86
689,747	16,36
690,193	16,86
690,638	17,52
691,084	17,78
691,529	18,31
691,974	19,09
692,419	19,42
692,864	20,13
693,309	20,71
693,754	21,66
694,199	21,9
694,643	22,62
695,088	23,27
695,532	24
695,977	24,62
696,421	25,31
696,865	26,09
697,309	26,75
697,753	27,38
698,197	27,81
698,64	28,62
699,084	29,19
699,527	29,74
699,971	30,09
700,414	31,19
700,857	31,45
701,3	32
701,743	32,72
702,186	33,05
702,629	33,53
703,072	34,33
703,515	34,55
703,957	35,17
704,399	36,06
704,842	36,36
705,284	36,75
705,726	36,69
706,168	37,35
706,61	37,93
707,052	38,2
707,494	38,83
707,935	39,26
708,377	39,31
708,818	39,71
709,26	40,48
709,701	40,43
710,142	41,18
710,583	41,5
711,024	41,42
711,465	41,85
711,905	42,49
712,346	42,79
712,787	42,51
713,227	43,43
713,667	44,12
714,108	43,83
714,548	43,75
714,988	44,33
715,428	45,31
715,868	44,92
716,307	45,27
716,747	45,41
717,186	45,9
717,626	45,63
718,065	46,16
718,504	46,73
718,944	47,37
719,383	46,6
719,822	47,05
720,261	47,42
720,699	47,6
721,138	47,81
721,576	47,73
722,015	48,52
722,453	48,32
722,892	48,78
723,33	48,33
723,768	49,47
724,206	48,78
724,644	49,26
725,081	49,76
725,519	49,51
725,957	49,49
726,394	49,84
726,832	49,91
727,269	50,13
727,706	49,88
728,143	50,04
728,58	50,42
729,017	50,15
729,454	50,53
729,89	50,75
730,327	50,48
730,764	50,64
731,2	50,89
731,636	51,31
732,072	50,48
732,509	50,9
732,945	51,63
733,38	50,86
733,816	51,3
734,252	51,33
734,688	51,51
735,123	51,59
735,559	51,39
735,994	51,9
736,429	51,66
736,864	51,46
737,299	51,56
737,734	51,74
738,169	51,96
738,604	51,88
739,038	51,62
739,473	52,02
739,907	52,35
740,342	51,62
740,776	51,43
741,21	51,43
741,644	51,57
742,078	51,82
742,512	51,77
742,946	51,77
743,379	51,82
743,813	51,12
744,246	52,01
744,68	51,78
745,113	51,62
745,546	51,91
745,979	52,03
746,412	51,89
746,845	51,78
747,278	51,64
747,711	51,69
748,143	51,72
748,576	51,65
749,008	51,99
749,441	51,45
749,873	51,4
750,305	51,07
750,737	51,05
751,169	51,47
751,601	51,22
752,032	51,23
752,464	51,23
752,896	51,33
753,327	51,21
753,758	50,91
754,19	51,06
754,621	51,57
755,052	50,85
755,483	50,89
755,914	51,1
756,344	51,16
756,775	51,34
757,206	50,63
757,636	50,73
758,066	50,51
758,497	50,7
758,927	50,65
759,357	50,8
759,787	50,26
760,217	50,46
760,647	50,58
761,076	50,44
761,506	50,53
761,935	50,27
762,365	50,57
762,794	50,39
763,223	50,32
763,653	50,02
764,082	50,54
764,51	49,72
764,939	50,28
765,368	49,8
765,797	49,9
766,225	50,22
766,654	50,37
767,082	50,32
767,51	49,79
767,938	50,05
768,367	49,44
768,795	49,94
769,222	49,88
769,65	49,47
770,078	49,56
770,505	49,57
770,933	50,05
771,36	49,73
771,788	49,35
772,215	49,58
772,642	49,26
773,069	49,5
773,496	49,64
773,923	49,05
774,349	49,16
774,776	50,14
775,203	49,36
775,629	49,47
776,055	49,33
776,482	49,21
776,908	49,4
777,334	49,68
777,76	48,91
778,186	49,4
778,611	49,43
779,037	48,85
779,463	48,62
779,888	48,88
780,314	49,03
780,739	49,53
781,164	49,43
781,589	49,05
782,014	49,55
782,439	48,78
782,864	48,81
783,289	49,06
783,713	48,75
784,138	49,2
784,562	48,81
784,987	49,34
785,411	49,04
785,835	49,03
786,259	48,99
786,683	49,04
787,107	49,12
787,531	48,34
787,954	49
788,378	48,61
788,802	48,74
789,225	48,64
789,648	48,47
790,071	48,94
790,495	48,61
790,918	48,55
791,34	48,66
791,763	48,93
792,186	48,88
792,609	48,79
793,031	48,63
793,454	48,64
793,876	48,8
794,298	49,11
794,721	48,21
795,143	48,27
795,565	48,55
795,986	48,67
796,408	49,22
796,83	48,73
797,252	48,68
797,673	48,98
798,094	48,59
798,516	48,3
798,937	48,6
799,358	48,64
799,779	48,64
800,2	48,69
800,621	48,12
801,042	48,51
801,462	48,24
801,883	49
802,303	48,3
802,724	47,91
803,144	48,31
803,564	48,23
803,984	48,29
804,404	48,32
804,824	48,47
805,244	48,1
805,664	48,21
806,084	48,36
806,503	48,47
806,923	48,5
807,342	48,09
807,761	48,41
808,18	48,33
808,599	48,31
809,018	48,54
809,437	48,17
809,856	48,27
810,275	48,42
810,693	48,13
811,112	48,47
811,53	48,1
811,949	48,33
812,367	48,08
812,785	48,09
813,203	48,06
813,621	48,45
814,039	48,08
814,457	48,19
814,874	48,58
815,292	48,41
815,709	47,97
816,127	47,98
816,544	48,22
816,961	47,81
817,378	48,2
817,795	48,43
818,212	48,38
818,629	48,25
819,046	48,33
819,462	48,49
819,879	48,62
820,295	48,65
820,712	48,15
821,128	47,9
821,544	48,69
821,96	48,33
822,376	48
822,792	48,05
823,208	47,82
823,624	48,23
824,039	48,04
824,455	47,9
824,87	48,32
825,286	47,82
825,701	47,84
826,116	48,59
826,531	48,29
826,946	48,09
827,361	48,64
827,776	47,85
828,19	47,95
828,605	47,84
829,02	47,74
829,434	47,63
829,848	48,01
830,263	48,23
830,677	48,07
831,091	48,1
831,505	48,14
831,919	48,08
832,332	47,88
832,746	48,26
833,16	47,75
833,573	48,07
833,987	47,97
834,4	47,99
834,813	48,08
835,226	48,13
835,639	47,69
836,052	48,12
836,465	47,98
836,878	47,86
837,29	48,22
837,703	48,36
838,116	48,24
838,528	47,91
