Data from C_4_Relative__7__00050.txt Node

Date: Tue Jan 30 09:53:48 CET 2024
User: diatiterra
Spectrometer: HDX00911
Trigger mode: 0
Integration Time (sec): 6,000000E-3
Scans to average: 2
Nonlinearity correction enabled: false
Boxcar width: 0
Storing dark spectrum: false
XAxis mode: Wavelengths
Number of Pixels in Spectrum: 2068
>>>>>Begin Spectral Data<<<<<
194,468	119,57
195,025	93,26
195,581	109,86
196,138	110,11
196,694	93,92
197,251	105,22
197,807	78,41
198,363	82,93
198,919	86,31
199,474	94,3
200,03	89,94
200,586	85,44
201,141	96,88
201,696	88,46
202,251	102,34
202,806	100,72
203,361	93,25
203,916	85,99
204,471	96,58
205,025	103,42
205,58	98,61
206,134	91,93
206,688	102,74
207,242	96,18
207,796	82,63
208,35	96,88
208,904	92,07
209,457	83,72
210,011	86,59
210,564	95,21
211,117	86,14
211,67	90,13
212,223	103,29
212,776	87,13
213,329	82,63
213,881	87,84
214,434	88,41
214,986	89,81
215,538	92,94
216,09	79,04
216,642	100
217,194	92,76
217,746	92,41
218,297	87,82
218,849	89,09
219,4	91,98
219,951	86,31
220,502	89,33
221,053	96,45
221,604	92,35
222,155	97,93
222,705	83,44
223,256	89,71
223,806	75
224,356	106,2
224,906	95,06
225,456	85,98
226,006	78,44
226,556	99,33
227,106	111,76
227,655	102,88
228,204	95,51
228,754	88,82
229,303	95,3
229,852	91,14
230,401	89,31
230,949	116,45
231,498	97,83
232,047	88,44
232,595	88,27
233,143	89,47
233,691	83,16
234,239	81,32
234,787	92
235,335	94,89
235,883	102,07
236,43	89,74
236,978	85,53
237,525	83,33
238,072	103,65
238,619	91,6
239,166	92,76
239,713	99,35
240,26	96,97
240,806	91,84
241,353	99,41
241,899	94,44
242,445	96
242,991	81,07
243,537	89,33
244,083	93,42
244,629	90,41
245,174	87,8
245,72	74,47
246,265	77,64
246,81	84,71
247,355	112,87
247,9	83,93
248,445	113,18
248,99	96,35
249,534	84,85
250,079	113,53
250,623	87,1
251,168	82,84
251,712	89,63
252,256	101,53
252,8	94,77
253,343	76,88
253,887	80,98
254,43	78,49
254,974	109,49
255,517	91,91
256,06	112,3
256,603	100,61
257,146	92,62
257,689	82,89
258,232	93,89
258,774	103,28
259,317	106,38
259,859	91,72
260,401	109,84
260,943	82,12
261,485	106,03
262,027	91,39
262,569	76,51
263,11	94,37
263,652	82,76
264,193	83,1
264,734	92,41
265,275	93,88
265,816	103,62
266,357	92,91
266,898	89,17
267,438	83,87
267,979	91,54
268,519	81,51
269,059	93,65
269,6	93,55
270,14	87,05
270,68	102,78
271,219	100,67
271,759	101,56
272,298	86,42
272,838	87,9
273,377	111,56
273,916	81,25
274,455	98,61
274,994	87,5
275,533	82,14
276,072	88,74
276,61	86,62
277,149	108,45
277,687	98,79
278,225	105,79
278,763	100
279,301	86,96
279,839	95,48
280,377	93,38
280,914	103,12
281,452	91,36
281,989	87,95
282,526	73,58
283,064	97,22
283,601	86,63
284,137	91,24
284,674	87,66
285,211	91,34
285,747	87,43
286,284	91,36
286,82	93,75
287,356	88,15
287,892	71,52
288,428	82,52
288,964	88,68
289,5	77,44
290,035	105,56
290,571	90,06
291,106	129,59
291,641	108,33
292,176	91,72
292,711	85,62
293,246	105,11
293,781	91,79
294,315	100
294,85	77,03
295,384	93,39
295,918	79,89
296,453	84,18
296,987	105,36
297,52	74,45
298,054	81,88
298,588	92,31
299,121	103,15
299,655	77,93
300,188	86,96
300,721	82,99
301,254	74,65
301,787	105,13
302,32	93,23
302,853	69,77
303,385	92,26
303,918	86,32
304,45	85,03
304,982	83,55
305,514	86,71
306,046	92,25
306,578	93,43
307,11	87,57
307,641	89,03
308,173	90,62
308,704	71,82
309,236	88,31
309,767	86,9
310,298	77,14
310,829	88,67
311,359	85,09
311,89	87,16
312,421	84,4
312,951	74,19
313,481	79,29
314,012	83,64
314,542	93,5
315,072	82,39
315,601	98,57
316,131	94,78
316,661	94,51
317,19	94,53
317,72	92,52
318,249	88,72
318,778	93,49
319,307	89,87
319,836	94,84
320,365	99,32
320,893	85,06
321,422	97,78
321,95	80,98
322,479	88,49
323,007	100
323,535	85,25
324,063	88,89
324,591	88,68
325,118	85,71
325,646	108,09
326,173	106,98
326,701	89,33
327,228	83,04
327,755	75,56
328,282	94,41
328,809	87,02
329,336	83,75
329,862	92,13
330,389	76,83
330,915	90,85
331,441	81,72
331,968	104,38
332,494	81,46
333,02	82,56
333,545	83,95
334,071	82,47
334,597	95,45
335,122	97,16
335,648	83,82
336,173	99,36
336,698	85,33
337,223	81,29
337,748	88,39
338,272	83,23
338,797	87,43
339,322	86,88
339,846	81,66
340,37	75
340,894	84,18
341,419	91,1
341,942	83,96
342,466	72,79
342,99	87,97
343,514	88,52
344,037	71,02
344,56	81,36
345,084	80,62
345,607	88,4
346,13	75,42
346,653	78,81
347,175	72,99
347,698	80,98
348,221	90
348,743	78,28
349,265	76,44
349,787	62,34
350,309	78,46
350,831	74,86
351,353	87,8
351,875	86,49
352,397	67,77
352,918	81,91
353,439	75,78
353,961	74,26
354,482	82,35
355,003	78,67
355,524	73,89
356,044	78,35
356,565	70,62
357,086	84,47
357,606	76,96
358,126	82,35
358,646	63,29
359,167	71,1
359,687	71,11
360,206	66,38
360,726	71,7
361,246	72,06
361,765	78,4
362,285	69,86
362,804	70,59
363,323	77,59
363,842	75,34
364,361	70,56
364,88	80,08
365,398	79,34
365,917	83,26
366,435	77,73
366,954	70,16
367,472	63,89
367,99	66,16
368,508	72,73
369,026	68,84
369,544	67,48
370,061	63,86
370,579	69,78
371,096	68,04
371,613	65,2
372,131	66,55
372,648	70,76
373,165	70,42
373,681	77,39
374,198	60,69
374,715	70,26
375,231	70,37
375,747	71,33
376,264	66,25
376,78	63,16
377,296	62,91
377,812	55,2
378,327	69,12
378,843	59,76
379,359	56,62
379,874	60,15
380,389	50,72
380,905	67,05
381,42	68
381,935	64,21
382,449	54,95
382,964	61,56
383,479	52,09
383,993	59,9
384,508	56,65
385,022	51,14
385,536	55,29
386,05	53,32
386,564	52,94
387,078	50,73
387,592	53,44
388,105	50,38
388,619	52,97
389,132	50,6
389,645	44,53
390,158	50,85
390,671	50,84
391,184	48,84
391,697	49,83
392,21	47,17
392,722	46,73
393,235	41,83
393,747	48,13
394,259	42,17
394,771	45,78
395,283	46,01
395,795	43,64
396,307	44,27
396,818	46,67
397,33	45,98
397,841	43,69
398,353	41,55
398,864	44,43
399,375	38,74
399,886	36,15
400,397	39,57
400,907	37,27
401,418	37,55
401,928	39,93
402,439	36,73
402,949	34,93
403,459	36,33
403,969	35,94
404,479	33,48
404,989	33,15
405,498	30,77
406,008	31,08
406,517	27,84
407,027	31,65
407,536	29,72
408,045	28,67
408,554	26,76
409,063	27,88
409,572	23,97
410,08	25,79
410,589	24,33
411,097	23,09
411,606	23,79
412,114	19,99
412,622	19,56
413,13	22,08
413,638	20,78
414,145	20,16
414,653	17,84
415,16	17,84
415,668	18,38
416,175	18,85
416,682	15,78
417,189	16,74
417,696	15,54
418,203	15,94
418,71	17,12
419,216	16,7
419,723	14,75
420,229	14,81
420,735	14,98
421,242	15,25
421,748	14,82
422,254	15,85
422,759	15,25
423,265	13,48
423,771	13,79
424,276	14,78
424,781	14,2
425,287	13,8
425,792	13,4
426,297	12,83
426,802	14,44
427,306	13,39
427,811	13,99
428,316	14,31
428,82	13,49
429,324	13,57
429,829	13,55
430,333	12,92
430,837	13,67
431,34	13,13
431,844	12,28
432,348	13,81
432,851	13,67
433,355	12,68
433,858	12,55
434,361	13,01
434,864	12,85
435,367	13,34
435,87	12,97
436,373	12,62
436,876	12,16
437,378	12,69
437,88	10,94
438,383	12,72
438,885	12,25
439,387	12,27
439,889	12,2
440,391	11,85
440,892	12,9
441,394	11,98
441,896	11,78
442,397	11,93
442,898	12,6
443,399	12,21
443,9	12,07
444,401	12,63
444,902	12,26
445,403	12,9
445,903	12,55
446,404	13
446,904	12,14
447,405	12
447,905	11,67
448,405	12,15
448,905	12
449,404	12,33
449,904	12,55
450,404	12,24
450,903	12,56
451,403	11,9
451,902	12,5
452,401	12,29
452,9	12,74
453,399	12,68
453,898	12,12
454,396	12,68
454,895	12,79
455,393	13,48
455,892	12,8
456,39	12,39
456,888	13,48
457,386	13,06
457,884	12,65
458,382	12,79
458,879	13,5
459,377	12,58
459,874	13,07
460,372	13,35
460,869	12,88
461,366	12,2
461,863	12,98
462,36	12,85
462,857	12,42
463,353	13,29
463,85	13
464,346	12,51
464,843	13,25
465,339	12,84
465,835	13,12
466,331	12,23
466,827	12,61
467,323	12,01
467,818	12,68
468,314	12,31
468,809	12,49
469,305	12,87
469,8	12,83
470,295	13,28
470,79	12,75
471,285	12,87
471,78	12,41
472,274	12,82
472,769	12,34
473,263	12,61
473,758	12,95
474,252	12,79
474,746	13
475,24	12,83
475,734	12,92
476,228	12,36
476,721	12,88
477,215	12,35
477,708	12,32
478,202	12,53
478,695	13,03
479,188	12,56
479,681	12,77
480,174	12,6
480,667	12,55
481,159	12,88
481,652	12,99
482,144	12,56
482,637	12,68
483,129	12,25
483,621	12,78
484,113	12,69
484,605	12,63
485,097	13,72
485,588	12,62
486,08	13,09
486,571	12,89
487,063	13,43
487,554	13
488,045	13,37
488,536	13,39
489,027	13,34
489,518	13,05
490,008	13,43
490,499	13,7
490,989	13,93
491,48	13
491,97	13,33
492,46	13,4
492,95	13,18
493,44	13,6
493,93	14,08
494,419	14,13
494,909	12,95
495,398	14,39
495,888	14,13
496,377	14,26
496,866	14,42
497,355	14,3
497,844	13,98
498,333	14,57
498,821	14,78
499,31	15,29
499,798	15,1
500,287	15,19
500,775	15,27
501,263	16,01
501,751	16,04
502,239	16,31
502,727	15,74
503,215	16,37
503,702	16,66
504,19	16,66
504,677	17,34
505,164	17,22
505,651	17,89
506,139	17,89
506,625	17,79
507,112	18,43
507,599	18,94
508,086	18,97
508,572	19,49
509,058	19,75
509,545	20,26
510,031	20,17
510,517	20,24
511,003	20,7
511,489	21,62
511,974	22,07
512,46	21,86
512,946	22,01
513,431	22,15
513,916	23,1
514,401	23,84
514,887	24,2
515,371	24,79
515,856	24,62
516,341	25,42
516,826	25,63
517,31	26,6
517,795	27,03
518,279	26,51
518,763	28,07
519,247	27,95
519,731	28,63
520,215	28,8
520,699	29,42
521,182	29,94
521,666	30,54
522,149	31,18
522,633	31,45
523,116	32,11
523,599	32,63
524,082	32,99
524,565	33,27
525,048	33,65
525,53	34,13
526,013	34,73
526,495	35,11
526,978	35,97
527,46	35,34
527,942	36,49
528,424	36,51
528,906	37,42
529,388	37,37
529,87	37,05
530,351	37,52
530,833	38,33
531,314	38,43
531,795	39,22
532,277	38,59
532,758	38,72
533,238	39,36
533,719	38,63
534,2	40,11
534,681	40,02
535,161	40
535,642	39,98
536,122	40,37
536,602	40,17
537,082	39,71
537,562	40,4
538,042	40,54
538,522	41,17
539,001	40,81
539,481	40,08
539,96	41,63
540,44	41,11
540,919	41,69
541,398	41,52
541,877	41,27
542,356	41,71
542,835	41,51
543,313	41,09
543,792	41,95
544,27	41,41
544,749	41,84
545,227	41,81
545,705	42,19
546,183	41,71
546,661	42,18
547,139	42
547,616	42,29
548,094	42,88
548,571	42,48
549,049	42,6
549,526	42,16
550,003	42,07
550,48	42,29
550,957	42,46
551,434	43
551,911	43,08
552,387	42,97
552,864	42,69
553,34	42,62
553,817	42,7
554,293	42,18
554,769	43,43
555,245	42,98
555,721	42,48
556,197	42,16
556,672	42,68
557,148	42,54
557,623	42,79
558,099	42,16
558,574	42,34
559,049	42,2
559,524	42,23
559,999	42,26
560,474	42,58
560,948	41,74
561,423	41,83
561,897	41,29
562,372	41,2
562,846	40,87
563,32	41,51
563,794	40,51
564,268	41,28
564,742	40,26
565,216	39,46
565,69	40,46
566,163	40,16
566,636	39,85
567,11	40,19
567,583	38,94
568,056	38,81
568,529	39,35
569,002	39,02
569,475	38,23
569,947	38,25
570,42	37,82
570,892	37,35
571,365	37,06
571,837	37,27
572,309	36,46
572,781	37,03
573,253	35,95
573,725	35,57
574,197	35,81
574,668	35,2
575,14	35,64
575,611	35,39
576,082	35,35
576,554	34,8
577,025	34,46
577,496	34,43
577,967	34,08
578,437	34,13
578,908	33,88
579,379	33,53
579,849	33,3
580,319	32,83
580,79	32,76
581,26	32,88
581,73	32,25
582,2	31,61
582,669	32,28
583,139	31,82
583,609	31,95
584,078	31,96
584,548	31,69
585,017	31,32
585,486	30,88
585,955	30,55
586,424	31,03
586,893	30,26
587,362	30,46
587,83	30,53
588,299	30,87
588,767	30,09
589,236	29,94
589,704	30,12
590,172	29,99
590,64	30,06
591,108	29,47
591,576	29,72
592,043	29,87
592,511	29,84
592,978	29,65
593,446	28,96
593,913	28,95
594,38	28,99
594,847	28,67
595,314	28,79
595,781	29,25
596,248	28,64
596,715	28,63
597,181	28,36
597,647	28,26
598,114	28,9
598,58	28,69
599,046	28,61
599,512	28,51
599,978	28,3
600,444	28,47
600,91	28
601,375	28,1
601,841	27,81
602,306	28,22
602,771	28,22
603,236	27,72
603,702	27,92
604,167	27,24
604,631	27,73
605,096	27,39
605,561	27,51
606,025	27,12
606,49	27,37
606,954	26,99
607,418	27,15
607,882	26,87
608,347	26,12
608,81	26,64
609,274	26,44
609,738	26,64
610,202	26,15
610,665	25,95
611,128	26,02
611,592	25,6
612,055	25,58
612,518	25,36
612,981	25,3
613,444	25,17
613,907	25,1
614,369	24,91
614,832	24,94
615,294	25
615,757	24,1
616,219	24,13
616,681	24,22
617,143	23,99
617,605	24,01
618,067	23,85
618,529	23,66
618,99	23,69
619,452	23,63
619,913	23,36
620,375	22,94
620,836	23,29
621,297	23,09
621,758	23,35
622,219	22,78
622,68	22,91
623,14	22,88
623,601	23
624,061	22,49
624,522	22,52
624,982	22,41
625,442	22,35
625,902	22,37
626,362	22,29
626,822	22,43
627,282	22,5
627,742	22,12
628,201	22,23
628,661	22,2
629,12	22,17
629,579	22,08
630,038	22,1
630,497	22,03
630,956	21,92
631,415	22,12
631,874	21,96
632,332	22,15
632,791	21,71
633,249	21,69
633,708	21,9
634,166	21,98
634,624	21,4
635,082	21,36
635,54	21,34
635,998	21,01
636,455	21,1
636,913	21,03
637,37	20,73
637,828	20,27
638,285	20,52
638,742	20,3
639,199	20,33
639,656	20,05
640,113	19,99
640,57	19,46
641,027	19,05
641,483	19,1
641,94	19,12
642,396	18,87
642,852	18,66
643,309	18,24
643,765	18,35
644,221	17,96
644,676	18,02
645,132	17,65
645,588	17,54
646,043	17,41
646,499	17,12
646,954	17,41
647,409	16,83
647,864	16,51
648,319	16,48
648,774	16,21
649,229	16,25
649,684	16,07
650,139	16,02
650,593	15,84
651,047	15,48
651,502	15,47
651,956	15,6
652,41	15,62
652,864	15,64
653,318	15,07
653,772	15,27
654,225	15,12
654,679	15
655,133	15,11
655,586	14,61
656,039	14,77
656,492	14,79
656,946	14,63
657,399	14,46
657,851	14,3
658,304	14,34
658,757	14,21
659,209	14,23
659,662	13,81
660,114	13,68
660,567	13,65
661,019	13,53
661,471	13,27
661,923	13,15
662,375	13,14
662,826	12,93
663,278	12,9
663,73	12,66
664,181	12,75
664,632	12,62
665,084	12,44
665,535	12,37
665,986	12,1
666,437	12,22
666,888	12,28
667,338	12,18
667,789	12,11
668,24	12,01
668,69	12,04
669,14	11,99
669,591	12,05
670,041	11,95
670,491	12,01
670,941	12,24
671,391	12,19
671,84	12,15
672,29	12,18
672,74	12,24
673,189	12,31
673,638	12,21
674,088	12,35
674,537	12,32
674,986	12,46
675,435	12,6
675,883	12,7
676,332	12,93
676,781	12,81
677,229	13,02
677,678	12,86
678,126	13,05
678,574	13,26
679,022	13,28
679,47	13,45
679,918	13,75
680,366	13,63
680,814	13,85
681,261	14,09
681,709	14,14
682,156	14,44
682,604	14,62
683,051	14,79
683,498	14,88
683,945	15,09
684,392	15,36
684,839	15,49
685,286	15,77
685,732	16,11
686,179	16,21
686,625	16,57
687,071	16,83
687,518	16,79
687,964	17,52
688,41	17,74
688,856	18,25
689,301	18,89
689,747	19,21
690,193	19,84
690,638	20,35
691,084	20,84
691,529	21,62
691,974	22,13
692,419	22,5
692,864	24,03
693,309	24,52
693,754	25,14
694,199	25,74
694,643	26,89
695,088	27,79
695,532	28,64
695,977	29,19
696,421	30,08
696,865	30,91
697,309	31,89
697,753	32,66
698,197	33,58
698,64	34,27
699,084	35,38
699,527	36,13
699,971	36,85
700,414	37,68
700,857	38,54
701,3	39,18
701,743	39,84
702,186	40,81
702,629	41,24
703,072	42,54
703,515	42,61
703,957	43,84
704,399	44,46
704,842	45,26
705,284	45,74
705,726	46,36
706,168	47,21
706,61	47,43
707,052	48,53
707,494	49,4
707,935	49,48
708,377	49,98
708,818	50,63
709,26	50,99
709,701	52,53
710,142	52,52
710,583	52,95
711,024	53,76
711,465	53,88
711,905	54,93
712,346	54,66
712,787	55,63
713,227	56,25
713,667	56,8
714,108	57,23
714,548	57,5
714,988	58,26
715,428	58,13
715,868	58,49
716,307	59,64
716,747	59,59
717,186	60,28
717,626	60,57
718,065	61,09
718,504	61,5
718,944	62,23
719,383	62,16
719,822	62,52
720,261	63,28
720,699	63,49
721,138	63,9
721,576	63,85
722,015	64,43
722,453	64,78
722,892	65,03
723,33	65,39
723,768	65,92
724,206	65,32
724,644	65,91
725,081	67,1
725,519	67,03
725,957	66,81
726,394	66,78
726,832	67,22
727,269	67,63
727,706	68,16
728,143	68,07
728,58	68,78
729,017	68,38
729,454	68,68
729,89	68,61
730,327	68,76
730,764	69,5
731,2	69,57
731,636	69,45
732,072	69,66
732,509	70,05
732,945	70,14
733,38	69,9
733,816	70,09
734,252	70,52
734,688	70,21
735,123	70,57
735,559	70,7
735,994	70,14
736,429	70,67
736,864	70,89
737,299	70,82
737,734	71,38
738,169	71,49
738,604	71,51
739,038	71,11
739,473	71,83
739,907	71,92
740,342	71,14
740,776	71,43
741,21	70,85
741,644	71,07
742,078	71,8
742,512	71,3
742,946	71,47
743,379	71,74
743,813	72,28
744,246	71,31
744,68	71,43
745,113	71,92
745,546	71,42
745,979	72,25
746,412	71,41
746,845	71,5
747,278	72,07
747,711	71,65
748,143	71,15
748,576	71,29
749,008	72,24
749,441	71,51
749,873	71,2
750,305	71,6
750,737	71,32
751,169	71,21
751,601	71,1
752,032	71,03
752,464	71,35
752,896	71,14
753,327	71,25
753,758	70,97
754,19	71,03
754,621	71,16
755,052	71,02
755,483	71,1
755,914	70,96
756,344	70,49
756,775	70,82
757,206	70,78
757,636	70,5
758,066	70,34
758,497	70,24
758,927	70,47
759,357	70,52
759,787	70,14
760,217	70,26
760,647	70,98
761,076	70,4
761,506	70,7
761,935	70,36
762,365	70,27
762,794	70,52
763,223	70,05
763,653	69,93
764,082	70,32
764,51	69,91
764,939	69,9
765,368	69,49
765,797	70,05
766,225	70,49
766,654	70,3
767,082	69,99
767,51	70,15
767,938	69,37
768,367	69,37
768,795	70,03
769,222	69,57
769,65	69,71
770,078	69,21
770,505	69,88
770,933	69,66
771,36	69,62
771,788	69,04
772,215	69,73
772,642	69,49
773,069	69,09
773,496	69,31
773,923	69,65
774,349	69,02
774,776	69,98
775,203	69,2
775,629	68,93
776,055	69,32
776,482	69,21
776,908	69,5
777,334	69,39
777,76	69,22
778,186	69,05
778,611	68,8
779,037	68,7
779,463	68,93
779,888	68,38
780,314	68,96
780,739	69,43
781,164	69,12
781,589	68,79
782,014	68,85
782,439	69,13
782,864	68,76
783,289	68,75
783,713	68,52
784,138	68,87
784,562	68,75
784,987	69,37
785,411	68,61
785,835	69,06
786,259	68,91
786,683	69,07
787,107	68,59
787,531	68,58
787,954	68,57
788,378	67,85
788,802	68,7
789,225	68,76
789,648	68,83
790,071	68,51
790,495	67,95
790,918	68,78
791,34	68,37
791,763	68,38
792,186	68,36
792,609	68,2
793,031	68,77
793,454	68,38
793,876	68,65
794,298	68,36
794,721	67,64
795,143	68,18
795,565	68,95
795,986	68,26
796,408	68,47
796,83	68,55
797,252	68,76
797,673	68,21
798,094	68,67
798,516	68,1
798,937	67,72
799,358	68,48
799,779	68,47
800,2	68,82
800,621	67,73
801,042	68,41
801,462	67,92
801,883	68,48
802,303	68,32
802,724	67,73
803,144	68,5
803,564	68,3
803,984	68,52
804,404	68,13
804,824	68,5
805,244	68,75
805,664	68,33
806,084	68,25
806,503	67,63
806,923	68,19
807,342	67,63
807,761	67,8
808,18	67,89
808,599	67,98
809,018	69,06
809,437	67,88
809,856	68,07
810,275	68,04
810,693	68,09
811,112	68,45
811,53	68,15
811,949	68,08
812,367	68,13
812,785	68,65
813,203	67,72
813,621	68,39
814,039	68,08
814,457	67,94
814,874	68
815,292	68,16
815,709	68,12
816,127	67,66
816,544	68,31
816,961	68,3
817,378	68,05
817,795	68,95
818,212	68,11
818,629	67,83
819,046	68
819,462	68,1
819,879	68,43
820,295	68,21
820,712	68,03
821,128	68,26
821,544	68,3
821,96	67,79
822,376	67,48
822,792	68,16
823,208	67,88
823,624	67,5
824,039	68,51
824,455	67,8
824,87	68,24
825,286	67,71
825,701	67,68
826,116	67,93
826,531	67,92
826,946	67,73
827,361	68,18
827,776	68,02
828,19	67,58
828,605	67,53
829,02	67,63
829,434	68,27
829,848	67,47
830,263	68,11
830,677	67,6
831,091	68,08
831,505	67,87
831,919	67,99
832,332	67,73
832,746	67,8
833,16	67,37
833,573	67,57
