Data from C_6_Relative__0__00052.txt Node

Date: Tue Jan 30 09:54:09 CET 2024
User: diatiterra
Spectrometer: HDX00911
Trigger mode: 0
Integration Time (sec): 6,000000E-3
Scans to average: 2
Nonlinearity correction enabled: false
Boxcar width: 0
Storing dark spectrum: false
XAxis mode: Wavelengths
Number of Pixels in Spectrum: 2068
>>>>>Begin Spectral Data<<<<<
194,468	121,74
195,025	92,13
195,581	100
196,138	91,01
196,694	82,43
197,251	88,81
197,807	75
198,363	73,17
198,919	74,4
199,474	77,22
200,03	64,8
200,586	68,35
201,141	69,38
201,696	73,72
202,251	78,91
202,806	85,61
203,361	77,3
203,916	71,97
204,471	79,49
205,025	69,86
205,58	75,69
206,134	75,78
206,688	77,4
207,242	65,61
207,796	76,65
208,35	66,88
208,904	69,51
209,457	80,81
210,011	70,73
210,564	76,71
211,117	78,92
211,67	82,24
212,223	77,63
212,776	77,78
213,329	66,47
213,881	68,92
214,434	79,88
214,986	70,06
215,538	77,65
216,09	72,46
216,642	81,7
217,194	74,34
217,746	88,61
218,297	90,38
218,849	92,12
219,4	70,99
219,951	79,17
220,502	82,58
221,053	77,51
221,604	81,76
222,155	86,21
222,705	68,21
223,256	82,86
223,806	75,61
224,356	82,95
224,906	77,16
225,456	67,68
226,006	65,27
226,556	82,55
227,106	97,79
227,655	83,45
228,204	78,85
228,754	80
229,303	87,25
229,852	70,25
230,401	71,07
230,949	89,47
231,498	80,43
232,047	65,32
232,595	73,74
233,143	75,44
233,691	81,12
234,239	68,13
234,787	74,67
235,335	88,32
235,883	77,93
236,43	86,54
236,978	79,87
237,525	67,28
238,072	70,8
238,619	78,63
239,166	78,95
239,713	78,06
240,26	74,55
240,806	76,19
241,353	71,76
241,899	68,52
242,445	70,67
242,991	78,11
243,537	70
244,083	82,89
244,629	79,45
245,174	75
245,72	63,83
246,265	81,37
246,81	70,7
247,355	83,04
247,9	70,83
248,445	88,37
248,99	77,37
249,534	72,73
250,079	91,73
250,623	69,03
251,168	83,43
251,712	67,41
252,256	80,15
252,8	76,47
253,343	69,94
253,887	60,33
254,43	83,33
254,974	95,62
255,517	82,35
256,06	78,69
256,603	68,9
257,146	87,25
257,689	70,39
258,232	74,05
258,774	80,33
259,317	80,85
259,859	65,52
260,401	77,87
260,943	72,85
261,485	102,59
262,027	66,89
262,569	73,83
263,11	72,54
263,652	68,28
264,193	76,76
264,734	79,31
265,275	85,71
265,816	78,99
266,357	78,72
266,898	71,97
267,438	72,9
267,979	86,92
268,519	65,75
269,059	80,16
269,6	68,39
270,14	87,77
270,68	75
271,219	72,48
271,759	80,47
272,298	62,96
272,838	82,8
273,377	89,8
273,916	84,38
274,455	74,31
274,994	72,06
275,533	71,43
276,072	84,11
276,61	76,43
277,149	78,87
277,687	74,55
278,225	86,78
278,763	92,37
279,301	77,02
279,839	85,81
280,377	78,68
280,914	69,53
281,452	77,16
281,989	77,11
282,526	63,52
283,064	85,42
283,601	65,7
284,137	74,45
284,674	77,92
285,211	87,4
285,747	78,44
286,284	71,6
286,82	87,5
287,356	78,52
287,892	71,52
288,428	73,43
288,964	73,58
289,5	73,68
290,035	95,24
290,571	78,26
291,106	96,94
291,641	75
292,176	88,28
292,711	59,59
293,246	88,32
293,781	82,09
294,315	82,26
294,85	72,3
295,384	74,38
295,918	61,45
296,453	79,75
296,987	98,21
297,52	65,69
298,054	69,8
298,588	84,62
299,121	80,31
299,655	56,55
300,188	81,16
300,721	74,15
301,254	75,35
301,787	96,58
302,32	81,95
302,853	66,28
303,385	80
303,918	82,05
304,45	63,27
304,982	77,63
305,514	67,09
306,046	76,76
306,578	72,26
307,11	76,33
307,641	71,61
308,173	64,38
308,704	73,48
309,236	79,22
309,767	64,83
310,298	64,57
310,829	67,33
311,359	78,88
311,89	79,05
312,421	66,67
312,951	70,97
313,481	64,29
314,012	72,73
314,542	65,04
315,072	73,94
315,601	79,29
316,131	77,61
316,661	76,22
317,19	72,66
317,72	60,54
318,249	74,44
318,778	78,11
319,307	69,62
319,836	86,45
320,365	74,83
320,893	93,1
321,422	80
321,95	74,23
322,479	82,01
323,007	77,48
323,535	73,77
324,063	74,51
324,591	77,36
325,118	70,63
325,646	67,65
326,173	86,05
326,701	66
327,228	63,16
327,755	61,48
328,282	80,42
328,809	79,39
329,336	80,62
329,862	83,71
330,389	63,41
330,915	68,63
331,441	67,2
331,968	81,02
332,494	72,85
333,02	59,88
333,545	65,43
334,071	64,94
334,597	68,18
335,122	70,92
335,648	67,63
336,173	63,69
336,698	70,67
337,223	73,38
337,748	79,35
338,272	63,35
338,797	71,43
339,322	73,75
339,846	65,68
340,37	67,95
340,894	62,03
341,419	73,97
341,942	56,15
342,466	51,7
342,99	66,46
343,514	63,39
344,037	59,09
344,56	62,71
345,084	60
345,607	61,88
346,13	56,42
346,653	55,63
347,175	54,02
347,698	64,13
348,221	60
348,743	69,7
349,265	54,02
349,787	50,22
350,309	54,87
350,831	72,13
351,353	54,88
351,875	61,62
352,397	59,72
352,918	55,78
353,439	73,29
353,961	59,41
354,482	64,22
355,003	72,51
355,524	63,55
356,044	58,25
356,565	50,71
357,086	53,42
357,606	61,78
358,126	64,22
358,646	43,48
359,167	58,26
359,687	60
360,206	64,26
360,726	55,19
361,246	50,61
361,765	53,52
362,285	53,59
362,804	55,88
363,323	49,57
363,842	50,23
364,361	52,81
364,88	53,66
365,398	57,75
365,917	52,04
366,435	56,28
366,954	46,77
367,472	50,79
367,99	46,77
368,508	52,65
369,026	48,29
369,544	53,5
370,061	48,42
370,579	48,88
371,096	42,27
371,613	52,38
372,131	46,42
372,648	49,83
373,165	47,18
373,681	50,96
374,198	44,03
374,715	48,33
375,231	50,51
375,747	42
376,264	44,48
376,78	46,13
377,296	45,36
377,812	38,15
378,327	42,35
378,843	43,84
379,359	44,23
379,874	39,59
380,389	42,69
380,905	45,17
381,42	40
381,935	46,32
382,449	39,39
382,964	47,24
383,479	35,87
383,993	40,1
384,508	38,42
385,022	33,18
385,536	37,88
386,05	34,73
386,564	33,26
387,078	37,95
387,592	33,6
388,105	28,6
388,619	37,63
389,132	30,88
389,645	29,2
390,158	33,97
390,671	33,52
391,184	31,66
391,697	30,82
392,21	30,93
392,722	31,66
393,235	28,5
393,747	28,62
394,259	24,78
394,771	27,27
395,283	31,42
395,795	27
396,307	27,71
396,818	31,17
397,33	30,06
397,841	25,57
398,353	27,13
398,864	28,41
399,375	25,68
399,886	21,47
400,397	25,41
400,907	21,47
401,418	23,92
401,928	22,32
402,439	22,57
402,949	19,38
403,459	22,11
403,969	20,55
404,479	21,08
404,989	18,3
405,498	19,03
406,008	18,53
406,517	18,33
407,027	18,89
407,536	17,89
408,045	16,92
408,554	15,12
409,063	15,53
409,572	13,48
410,08	13,04
410,589	13,61
411,097	14,07
411,606	13,93
412,114	10,91
412,622	11,32
413,13	12,16
413,638	11,12
414,145	11,37
414,653	9,56
415,16	11,71
415,668	11,37
416,175	9,99
416,682	7,91
417,189	9,87
417,696	8,47
418,203	9,03
418,71	8,49
419,216	8,99
419,723	8,68
420,229	8,08
420,735	8,03
421,242	8,31
421,748	7,82
422,254	8,95
422,759	8,05
423,265	7,04
423,771	6,99
424,276	7,48
424,781	7,05
425,287	6,81
425,792	7,44
426,297	6,5
426,802	6,19
427,306	6,24
427,811	6,96
428,316	7,37
428,82	6,54
429,324	6,68
429,829	7,25
430,333	6,54
430,837	6,38
431,34	5,88
431,844	6,11
432,348	6,74
432,851	6,21
433,355	5,72
433,858	6,12
434,361	6,35
434,864	6,09
435,367	7,04
435,87	5,67
436,373	5,5
436,876	6,35
437,378	5,91
437,88	5,48
438,383	5,95
438,885	5,38
439,387	5,26
439,889	5,84
440,391	5,39
440,892	5,65
441,394	5,86
441,896	6,11
442,397	5,82
442,898	5,41
443,399	6,1
443,9	5,75
444,401	5,58
444,902	5,94
445,403	6,22
445,903	5,8
446,404	5,87
446,904	6,33
447,405	5,85
447,905	5,71
448,405	5,96
448,905	6,27
449,404	5,86
449,904	5,79
450,404	6,23
450,903	6,65
451,403	5,93
451,902	5,91
452,401	6,26
452,9	6,56
453,399	6,34
453,898	6,01
454,396	6,51
454,895	6,17
455,393	6,17
455,892	6,61
456,39	6,04
456,888	6,69
457,386	6,58
457,884	6,45
458,382	6,61
458,879	6,83
459,377	6,85
459,874	6,94
460,372	6,92
460,869	6,78
461,366	6,15
461,863	6,87
462,36	6,44
462,857	6,01
463,353	6,31
463,85	6,18
464,346	6,01
464,843	6,5
465,339	6,66
465,835	6,34
466,331	6,27
466,827	6,46
467,323	6,31
467,818	6,51
468,314	6,55
468,809	6,67
469,305	6,67
469,8	6,45
470,295	6,73
470,79	6,54
471,285	6,5
471,78	5,96
472,274	6,56
472,769	6,12
473,263	6,19
473,758	6,48
474,252	5,83
474,746	6,17
475,24	6,17
475,734	6,43
476,228	6,03
476,721	6,56
477,215	6,04
477,708	6,32
478,202	6,36
478,695	6,19
479,188	6,97
479,681	5,93
480,174	6,42
480,667	6,73
481,159	6,48
481,652	6,01
482,144	6,16
482,637	6,54
483,129	6,11
483,621	6,79
484,113	6,72
484,605	6,48
485,097	6,07
485,588	6,43
486,08	6,56
486,571	6,71
487,063	7
487,554	6,77
488,045	6,29
488,536	6,41
489,027	7,02
489,518	7,19
490,008	7,01
490,499	6,99
490,989	6,85
491,48	7,1
491,97	7,66
492,46	7,06
492,95	7,2
493,44	7,54
493,93	7,55
494,419	7,55
494,909	7,14
495,398	7,88
495,888	7,64
496,377	7,77
496,866	8,06
497,355	8,11
497,844	8,19
498,333	8,58
498,821	8,3
499,31	8,7
499,798	8,94
500,287	8,84
500,775	8,89
501,263	9,48
501,751	9,48
502,239	9,68
502,727	9,56
503,215	10,08
503,702	10,09
504,19	10,21
504,677	10,78
505,164	10,92
505,651	10,83
506,139	11,13
506,625	11,35
507,112	11,44
507,599	12,23
508,086	12,31
508,572	12,35
509,058	12,31
509,545	12,44
510,031	12,9
510,517	13,85
511,003	12,83
511,489	14,32
511,974	14,52
512,46	14,2
512,946	14,75
513,431	14,5
513,916	15,43
514,401	15,63
514,887	16,07
515,371	16,02
515,856	16,77
516,341	16,94
516,826	17,59
517,31	17,83
517,795	17,95
518,279	18,34
518,763	18,91
519,247	19,48
519,731	18,79
520,215	19,27
520,699	19,83
521,182	20,27
521,666	20,65
522,149	20,63
522,633	21,37
523,116	21,61
523,599	22,18
524,082	22,4
524,565	22,14
525,048	22,45
525,53	23,12
526,013	23,22
526,495	23,46
526,978	24,32
527,46	23,79
527,942	24,34
528,424	24,57
528,906	24,74
529,388	24,57
529,87	24,97
530,351	25,33
530,833	25,73
531,314	26,2
531,795	26,32
532,277	25,41
532,758	26,1
533,238	26,55
533,719	26,47
534,2	27
534,681	27,1
535,161	26,58
535,642	26,64
536,122	26,98
536,602	27,36
537,082	26,94
537,562	27,35
538,042	26,88
538,522	27,17
539,001	27,53
539,481	27,89
539,96	27,71
540,44	28,27
540,919	28,18
541,398	27,4
541,877	28,24
542,356	27,62
542,835	28,09
543,313	27,7
543,792	28,13
544,27	27,66
544,749	28,51
545,227	27,83
545,705	28,31
546,183	28,4
546,661	28,28
547,139	28,52
547,616	27,85
548,094	28,45
548,571	28,71
549,049	28,58
549,526	28,41
550,003	28,11
550,48	28,36
550,957	28,07
551,434	28,49
551,911	28,35
552,387	28,69
552,864	28,59
553,34	28,36
553,817	28,84
554,293	28,29
554,769	28,78
555,245	29,1
555,721	28,09
556,197	28,41
556,672	28,75
557,148	28,48
557,623	28,37
558,099	28,14
558,574	28,11
559,049	28,5
559,524	27,96
559,999	28,45
560,474	28,3
560,948	27,52
561,423	28,03
561,897	27,83
562,372	27,73
562,846	27,43
563,32	27,81
563,794	27,01
564,268	27,7
564,742	27,07
565,216	26,93
565,69	27,3
566,163	26,94
566,636	26,95
567,11	26,8
567,583	26,31
568,056	26,37
568,529	26,32
569,002	25,98
569,475	25,94
569,947	25,92
570,42	25,31
570,892	25,09
571,365	24,84
571,837	24,99
572,309	24,33
572,781	24,22
573,253	24,48
573,725	23,82
574,197	23,76
574,668	23,98
575,14	23,66
575,611	23,95
576,082	23,45
576,554	23,37
577,025	23,29
577,496	23,26
577,967	22,83
578,437	23,06
578,908	22,65
579,379	22,4
579,849	22,17
580,319	22,12
580,79	21,84
581,26	21,8
581,73	21,84
582,2	21,63
582,669	21,44
583,139	21,41
583,609	21,2
584,078	21,17
584,548	20,96
585,017	21,14
585,486	20,97
585,955	20,4
586,424	20,77
586,893	20,6
587,362	20,06
587,83	20,23
588,299	20,48
588,767	20,39
589,236	20,09
589,704	20,1
590,172	19,91
590,64	20,07
591,108	19,64
591,576	19,49
592,043	19,77
592,511	19,77
592,978	19,3
593,446	19,3
593,913	19,29
594,38	19,41
594,847	19,59
595,314	19,39
595,781	19,48
596,248	19,24
596,715	19,01
597,181	18,85
597,647	18,93
598,114	19,07
598,58	18,94
599,046	18,92
599,512	19,27
599,978	18,87
600,444	18,84
600,91	18,6
601,375	18,75
601,841	18,68
602,306	18,81
602,771	18,9
603,236	18,92
603,702	18,67
604,167	18,32
604,631	18,52
605,096	18,24
605,561	18,46
606,025	17,81
606,49	18,22
606,954	18,53
607,418	17,75
607,882	17,95
608,347	17,81
608,81	17,45
609,274	17,41
609,738	17,52
610,202	17,29
610,665	17,31
611,128	17,16
611,592	17,29
612,055	16,73
612,518	16,88
612,981	16,8
613,444	16,99
613,907	16,84
614,369	16,27
614,832	16,37
615,294	16,32
615,757	15,81
616,219	16,07
616,681	15,89
617,143	16,11
617,605	15,66
618,067	15,58
618,529	15,44
618,99	15,25
619,452	15,39
619,913	15,58
620,375	15,21
620,836	15,18
621,297	15,26
621,758	15,08
622,219	14,85
622,68	15,09
623,14	15,08
623,601	15,15
624,061	14,82
624,522	15,05
624,982	14,89
625,442	14,51
625,902	14,77
626,362	14,86
626,822	14,89
627,282	14,85
627,742	14,3
628,201	14,48
628,661	14,53
629,12	14,69
629,579	14,47
630,038	14,58
630,497	14,52
630,956	14,35
631,415	14,5
631,874	14,21
632,332	14,32
632,791	14,42
633,249	14,37
633,708	14,3
634,166	14,11
634,624	14,24
635,082	13,89
635,54	13,93
635,998	13,48
636,455	13,78
636,913	13,91
637,37	13,6
637,828	13,47
638,285	13,35
638,742	13,24
639,199	13,18
639,656	12,87
640,113	12,99
640,57	12,77
641,027	12,56
641,483	12,46
641,94	11,99
642,396	12,03
642,852	12,07
643,309	11,79
643,765	11,71
644,221	11,66
644,676	11,15
645,132	11,17
645,588	11,08
646,043	10,97
646,499	10,74
646,954	10,69
647,409	10,59
647,864	10,28
648,319	10,3
648,774	10,03
649,229	10,1
649,684	10,17
650,139	9,99
650,593	9,78
651,047	9,85
651,502	9,52
651,956	9,5
652,41	9,46
652,864	9,44
653,318	9,24
653,772	9,42
654,225	9,08
654,679	9,1
655,133	9,22
655,586	9,1
656,039	9
656,492	9,03
656,946	8,79
657,399	8,79
657,851	8,84
658,304	8,72
658,757	8,45
659,209	8,4
659,662	8,23
660,114	8,08
660,567	7,79
661,019	7,85
661,471	7,85
661,923	7,64
662,375	7,66
662,826	7,27
663,278	7,45
663,73	7,34
664,181	7,19
664,632	7,03
665,084	6,78
665,535	6,88
665,986	6,74
666,437	6,66
666,888	6,84
667,338	6,59
667,789	6,69
668,24	6,45
668,69	6,4
669,14	6,38
669,591	6,28
670,041	6,29
670,491	6,44
670,941	6,52
671,391	6,22
671,84	6,49
672,29	6,24
672,74	6,28
673,189	6,45
673,638	6,48
674,088	6,54
674,537	6,5
674,986	6,35
675,435	6,56
675,883	6,7
676,332	6,62
676,781	6,91
677,229	6,99
677,678	6,88
678,126	6,91
678,574	7,06
679,022	7,33
679,47	7,36
679,918	7,48
680,366	7,46
680,814	7,81
681,261	7,96
681,709	7,97
682,156	7,95
682,604	8,19
683,051	8,48
683,498	8,49
683,945	8,76
684,392	9,05
684,839	9,14
685,286	9,24
685,732	9,82
686,179	9,93
686,625	9,95
687,071	10,38
687,518	10,58
687,964	11,22
688,41	11,41
688,856	11,57
689,301	12,15
689,747	12,48
690,193	12,93
690,638	13,3
691,084	13,67
691,529	14,33
691,974	15,01
692,419	15,71
692,864	16,31
693,309	16,73
693,754	17,22
694,199	17,98
694,643	18,36
695,088	18,96
695,532	19,82
695,977	20,2
696,421	20,75
696,865	21,48
697,309	22,07
697,753	22,43
698,197	23,35
698,64	23,72
699,084	24,15
699,527	24,83
699,971	25,5
700,414	25,96
700,857	26,64
701,3	27,44
701,743	27,83
702,186	28,26
702,629	28,69
703,072	29,54
703,515	29,24
703,957	29,98
704,399	30,53
704,842	31,23
705,284	31,86
705,726	32,24
706,168	32,57
706,61	33,05
707,052	33,36
707,494	33,74
707,935	34,34
708,377	34,66
708,818	35,03
709,26	35,38
709,701	35,78
710,142	35,97
710,583	36,63
711,024	37,14
711,465	36,69
711,905	37,28
712,346	37,68
712,787	37,94
713,227	38,3
713,667	38,94
714,108	39,4
714,548	39,29
714,988	39,82
715,428	40,01
715,868	40,44
716,307	40,68
716,747	40,63
717,186	41,36
717,626	41,43
718,065	41,09
718,504	42,1
718,944	42,92
719,383	42,44
719,822	42,62
720,261	42,98
720,699	43,36
721,138	43,25
721,576	43,47
722,015	44,51
722,453	44,15
722,892	44,32
723,33	44,49
723,768	45,16
724,206	44,73
724,644	45,35
725,081	45,39
725,519	45,38
725,957	45,45
726,394	45,47
726,832	45,66
727,269	46,09
727,706	46,03
728,143	46,25
728,58	46,68
729,017	46,45
729,454	46,42
729,89	47,16
730,327	47,01
730,764	47,17
731,2	47,33
731,636	47,33
732,072	47,41
732,509	47,19
732,945	48,02
733,38	47,56
733,816	47,52
734,252	47,74
734,688	47,94
735,123	47,95
735,559	47,66
735,994	48,22
736,429	48,25
736,864	48,09
737,299	48,53
737,734	48,68
738,169	48,58
738,604	48,55
739,038	48,21
739,473	48,58
739,907	48,99
740,342	48,34
740,776	48,41
741,21	48,07
741,644	48,69
742,078	48,7
742,512	48,76
742,946	48,62
743,379	48,7
743,813	48,82
744,246	48,97
744,68	48,76
745,113	48,74
745,546	48,47
745,979	48,96
746,412	48,87
746,845	48,85
747,278	48,69
747,711	49,17
748,143	48,72
748,576	48,34
749,008	48,98
749,441	48,92
749,873	48,75
750,305	48,54
750,737	48,4
751,169	48,44
751,601	48,65
752,032	48,16
752,464	48,29
752,896	48,37
753,327	48,77
753,758	48,13
754,19	48,59
754,621	48,52
755,052	48,6
755,483	48,23
755,914	47,96
756,344	48,35
756,775	48,23
757,206	48,09
757,636	48,22
758,066	48,18
758,497	48,21
758,927	48,48
759,357	48,23
759,787	48,03
760,217	48,04
760,647	48,36
761,076	47,92
761,506	48
761,935	47,69
762,365	48,05
762,794	48,05
763,223	47,92
763,653	47,57
764,082	48,23
764,51	47,79
764,939	47,71
765,368	47,83
765,797	47,76
766,225	47,63
766,654	47,54
767,082	47,68
767,51	47,85
767,938	47,45
768,367	47,63
768,795	47,66
769,222	47,65
769,65	47,5
770,078	47,4
770,505	47,36
770,933	47,15
771,36	47,35
771,788	47,24
772,215	47,48
772,642	47,33
773,069	47,4
773,496	47,38
773,923	47,59
774,349	47,43
774,776	47,7
775,203	47,24
775,629	47,26
776,055	47,42
776,482	47,47
776,908	47,11
777,334	47,63
777,76	47,04
778,186	47,7
778,611	47,26
779,037	46,71
779,463	46,99
779,888	46,74
780,314	47,31
780,739	47,07
781,164	47,22
781,589	47,31
782,014	47,13
782,439	47,16
782,864	47,26
783,289	46,95
783,713	46,81
784,138	46,85
784,562	46,97
784,987	47,09
785,411	47
785,835	47,39
786,259	47,38
786,683	46,82
787,107	47,02
787,531	46,63
787,954	46,59
788,378	46,71
788,802	46,7
789,225	46,69
789,648	46,86
790,071	46,83
790,495	46,69
790,918	46,87
791,34	46,76
791,763	46,97
792,186	46,65
792,609	46,47
793,031	46,82
793,454	46,81
793,876	46,96
794,298	46,85
794,721	46,5
795,143	46,79
795,565	46,95
795,986	46,63
796,408	46,97
796,83	46,66
797,252	47,05
797,673	46,69
798,094	46,79
798,516	46,96
798,937	46,94
799,358	46,84
799,779	46,84
800,2	46,59
800,621	46,71
801,042	47,01
801,462	46,45
801,883	46,98
802,303	46,72
802,724	46,48
803,144	46,98
803,564	46,42
803,984	46,3
804,404	46,65
804,824	46,64
805,244	46,86
805,664	46,5
806,084	46,56
806,503	46,76
806,923	46,9
807,342	46,44
807,761	46,92
808,18	46,05
808,599	46,73
809,018	47,49
809,437	46,79
809,856	46,79
810,275	46,63
810,693	46,85
811,112	47,06
811,53	46,49
811,949	46,62
812,367	46,68
812,785	46,55
813,203	46,84
813,621	46,72
814,039	46,63
814,457	46,69
814,874	46,47
815,292	46,64
815,709	46,45
816,127	46,49
816,544	46,26
816,961	46,51
817,378	46,06
817,795	46,87
818,212	46,46
818,629	46,76
819,046	46,39
819,462	46,54
819,879	47,12
820,295	46,9
820,712	46,4
821,128	46,51
821,544	46,61
821,96	46,39
822,376	46,15
822,792	46,55
823,208	46,42
823,624	46,14
824,039	46,62
824,455	46,45
824,87	46,54
825,286	46,2
825,701	45,96
826,116	46,9
826,531	46,83
826,946	46,41
827,361	46,49
827,776	45,92
828,19	46,28
828,605	46,24
829,02	46,3
829,434	46,37
829,848	46,22
830,263	46,66
830,677	46,34
831,091	46,53
831,505	46,3
831,919	46,63
832,332	46,4
832,746	46,48
833,16	45,93
833,573	46,26
833,987	46,42
834,4	46,34
834,813	46,23
835,226	46,17
835,639	46,14
836,052	46,19
836,465	46,21
836,878	46,25
837,29	46,6
837,703	46,11
838,116	46,37
838,528	46,15
838,94	46,58
839,352	45,98
839,765	46,92
840,177	46,5
840,589	46,23
841	46,1
841,412	46,16
