Data from C_6_Relative__6__00058.txt Node

Date: Tue Jan 30 09:54:42 CET 2024
User: diatiterra
Spectrometer: HDX00911
Trigger mode: 0
Integration Time (sec): 6,000000E-3
Scans to average: 2
Nonlinearity correction enabled: false
Boxcar width: 0
Storing dark spectrum: false
XAxis mode: Wavelengths
Number of Pixels in Spectrum: 2068
>>>>>Begin Spectral Data<<<<<
194,468	125
195,025	104,49
195,581	115,49
196,138	103,37
196,694	85,14
197,251	82,09
197,807	75
198,363	84,15
198,919	69,64
199,474	82,91
200,03	71,51
200,586	68,35
201,141	77,5
201,696	66,03
202,251	69,53
202,806	75,54
203,361	76,07
203,916	80,25
204,471	82,05
205,025	84,93
205,58	77,78
206,134	73,29
206,688	82,19
207,242	67,52
207,796	76,05
208,35	84,38
208,904	79,88
209,457	81,98
210,011	73,17
210,564	78,08
211,117	77,71
211,67	82,89
212,223	85,53
212,776	77,78
213,329	80,84
213,881	77,03
214,434	70,12
214,986	80,25
215,538	90
216,09	70,66
216,642	88,89
217,194	84,87
217,746	85,44
218,297	82,69
218,849	75,76
219,4	68,52
219,951	77,98
220,502	73,03
221,053	82,84
221,604	80,59
222,155	85,52
222,705	76,16
223,256	81,14
223,806	81,71
224,356	93,8
224,906	85,8
225,456	64,63
226,006	67,66
226,556	83,22
227,106	87,5
227,655	79,14
228,204	77,56
228,754	74,12
229,303	82,55
229,852	79,11
230,401	84,28
230,949	92,76
231,498	76,09
232,047	80,35
232,595	74,86
233,143	70,76
233,691	76,02
234,239	80,77
234,787	78,67
235,335	72,26
235,883	86,21
236,43	73,72
236,978	81,76
237,525	79,63
238,072	85,4
238,619	64,12
239,166	76,97
239,713	76,13
240,26	78,18
240,806	86,39
241,353	74,71
241,899	77,16
242,445	76,67
242,991	72,78
243,537	81,33
244,083	67,76
244,629	73,29
245,174	67,07
245,72	72,34
246,265	78,26
246,81	83,44
247,355	83,04
247,9	79,76
248,445	91,47
248,99	83,94
249,534	66,06
250,079	88,72
250,623	82,58
251,168	86,39
251,712	64,44
252,256	68,7
252,8	80,39
253,343	73,41
253,887	68,48
254,43	83,33
254,974	97,81
255,517	79,41
256,06	98,36
256,603	89,02
257,146	81,21
257,689	80,26
258,232	78,63
258,774	89,34
259,317	87,94
259,859	73,79
260,401	90,16
260,943	80,79
261,485	95,69
262,027	79,47
262,569	71,81
263,11	86,62
263,652	70,34
264,193	83,1
264,734	82,76
265,275	92,52
265,816	73,19
266,357	89,36
266,898	75,16
267,438	74,19
267,979	88,46
268,519	81,51
269,059	92,86
269,6	72,26
270,14	77,7
270,68	86,11
271,219	88,59
271,759	84,38
272,298	69,14
272,838	75,8
273,377	81,63
273,916	75,62
274,455	80,56
274,994	82,35
275,533	83,33
276,072	82,78
276,61	80,89
277,149	97,89
277,687	79,39
278,225	93,39
278,763	100
279,301	76,4
279,839	82,58
280,377	91,18
280,914	89,84
281,452	75,31
281,989	83,73
282,526	65,41
283,064	90,28
283,601	82,56
284,137	76,64
284,674	77,92
285,211	83,46
285,747	78,44
286,284	69,75
286,82	88,19
287,356	76,3
287,892	72,85
288,428	72,73
288,964	87,42
289,5	71,43
290,035	98,41
290,571	86,34
291,106	98,98
291,641	86,67
292,176	86,21
292,711	76,71
293,246	95,62
293,781	86,57
294,315	72,58
294,85	75
295,384	90,91
295,918	70,39
296,453	74,05
296,987	93,75
297,52	78,83
298,054	75,17
298,588	93,08
299,121	92,13
299,655	70,34
300,188	73,91
300,721	69,39
301,254	78,17
301,787	110,26
302,32	81,2
302,853	72,67
303,385	86,45
303,918	88,89
304,45	64,63
304,982	84,21
305,514	76,58
306,046	83,1
306,578	92,7
307,11	75,15
307,641	74,84
308,173	78,75
308,704	83,98
309,236	75,32
309,767	77,24
310,298	73,14
310,829	89,33
311,359	72,67
311,89	81,76
312,421	78,72
312,951	71,61
313,481	82,86
314,012	72,73
314,542	79,67
315,072	78,17
315,601	89,29
316,131	85,07
316,661	82,93
317,19	92,19
317,72	71,43
318,249	80,45
318,778	84,02
319,307	82,28
319,836	82,58
320,365	82,99
320,893	82,76
321,422	82,22
321,95	76,07
322,479	91,37
323,007	72,19
323,535	78,14
324,063	85,62
324,591	90,57
325,118	83,33
325,646	95,59
326,173	96,12
326,701	82,67
327,228	76,61
327,755	62,22
328,282	80,42
328,809	78,63
329,336	83,12
329,862	83,15
330,389	68,9
330,915	72,55
331,441	72,58
331,968	78,1
332,494	71,52
333,02	62,21
333,545	77,78
334,071	70,13
334,597	70,78
335,122	82,27
335,648	74,57
336,173	82,8
336,698	72
337,223	76,98
337,748	85,81
338,272	78,26
338,797	72,57
339,322	85,62
339,846	79,29
340,37	73,08
340,894	75,32
341,419	84,25
341,942	68,45
342,466	61,9
342,99	74,68
343,514	67,21
344,037	67,61
344,56	73,45
345,084	86,88
345,607	75,69
346,13	65,92
346,653	88,08
347,175	62,64
347,698	78,8
348,221	79,38
348,743	81,31
349,265	78,74
349,787	62,77
350,309	70,26
350,831	79,78
351,353	72,56
351,875	76,22
352,397	62,09
352,918	63,32
353,439	77,02
353,961	72,77
354,482	75,49
355,003	74,41
355,524	69,46
356,044	80,41
356,565	69,67
357,086	70,78
357,606	68,59
358,126	73,04
358,646	62,32
359,167	66,06
359,687	62,67
360,206	73,19
360,726	72,17
361,246	64,78
361,765	65,73
362,285	62,68
362,804	72,55
363,323	70,69
363,842	59,82
364,361	65,8
364,88	74,39
365,398	68,54
365,917	70,59
366,435	70,45
366,954	69,35
367,472	69,05
367,99	62,74
368,508	66,67
369,026	52,74
369,544	64,34
370,061	59,3
370,579	62,69
371,096	60,48
371,613	57,88
372,131	62,46
372,648	68,44
373,165	61,97
373,681	73,18
374,198	61,01
374,715	62,45
375,231	59,26
375,747	61,67
376,264	56,15
376,78	59,44
377,296	57,28
377,812	55,2
378,327	59,41
378,843	53,15
379,359	51,83
379,874	53,47
380,389	51,86
380,905	59,94
381,42	61,71
381,935	57,11
382,449	56,6
382,964	59,8
383,479	50,12
383,993	53,94
384,508	50,74
385,022	51,14
385,536	46,82
386,05	46,02
386,564	50,23
387,078	54,09
387,592	50,4
388,105	49,81
388,619	51,12
389,132	49,4
389,645	44,89
390,158	44,21
390,671	48,98
391,184	42,04
391,697	43,49
392,21	42,27
392,722	41,54
393,235	40,83
393,747	38,05
394,259	41,31
394,771	40,42
395,283	42,19
395,795	42,39
396,307	40,4
396,818	43,17
397,33	41,64
397,841	39,32
398,353	39,38
398,864	40,97
399,375	38,29
399,886	33,66
400,397	35,52
400,907	33,17
401,418	33,09
401,928	36,67
402,439	32,41
402,949	33,37
403,459	34,02
403,969	33,87
404,479	34,25
404,989	31,92
405,498	30,47
406,008	29,71
406,517	29,39
407,027	29,89
407,536	27,64
408,045	27,54
408,554	25,11
409,063	25,04
409,572	23,05
410,08	23,99
410,589	21,02
411,097	22,18
411,606	21,31
412,114	18,8
412,622	19,43
413,13	18,9
413,638	20,05
414,145	19,81
414,653	16,61
415,16	17,41
415,668	17,41
416,175	17,51
416,682	15,44
417,189	15,66
417,696	15,26
418,203	15,09
418,71	15,47
419,216	15,33
419,723	14,19
420,229	13,93
420,735	13,68
421,242	14,84
421,748	13,67
422,254	14,81
422,759	13,26
423,265	12,96
423,771	13,11
424,276	12,74
424,781	12,61
425,287	12,19
425,792	12,82
426,297	11,74
426,802	12,2
427,306	12,52
427,811	12,89
428,316	13,27
428,82	12,25
429,324	12,81
429,829	13,2
430,333	12,36
430,837	12,09
431,34	12,01
431,844	12,28
432,348	11,88
432,851	11,93
433,355	10,87
433,858	11,96
434,361	11,51
434,864	11,41
435,367	12,28
435,87	11,85
436,373	11,26
436,876	11,69
437,378	11,59
437,88	11,12
438,383	11,42
438,885	11,2
439,387	10,49
439,889	11,15
440,391	10,85
440,892	11,79
441,394	11,4
441,896	11,74
442,397	11,67
442,898	11,53
443,399	10,92
443,9	10,37
444,401	11
444,902	10,92
445,403	11,25
445,903	11,58
446,404	11,54
446,904	11,17
447,405	11,5
447,905	10,58
448,405	10,88
448,905	11,15
449,404	10,85
449,904	11,47
450,404	11,52
450,903	11,99
451,403	11,79
451,902	11,43
452,401	11,02
452,9	11,87
453,399	11,46
453,898	11,28
454,396	11,85
454,895	12,19
455,393	11,79
455,892	11,88
456,39	10,87
456,888	11,85
457,386	11,84
457,884	11,14
458,382	11,52
458,879	11,74
459,377	11,49
459,874	11,98
460,372	12,29
460,869	11,93
461,366	11,73
461,863	11,67
462,36	10,94
462,857	11,28
463,353	11,84
463,85	11,21
464,346	11,32
464,843	12,02
465,339	12
465,835	12,05
466,331	11,42
466,827	11,39
467,323	11,39
467,818	11,49
468,314	11,55
468,809	11,46
469,305	11,59
469,8	11,81
470,295	11,86
470,79	11,21
471,285	11,26
471,78	11,78
472,274	11,22
472,769	11,41
473,263	11,42
473,758	11,63
474,252	11,47
474,746	11,37
475,24	11,36
475,734	10,91
476,228	11,14
476,721	11,71
477,215	11,74
477,708	11,89
478,202	11,56
478,695	11,63
479,188	12,14
479,681	11,39
480,174	11,49
480,667	11,75
481,159	11,55
481,652	11,8
482,144	11,65
482,637	11,27
483,129	12,02
483,621	11,65
484,113	11,71
484,605	11,46
485,097	11,5
485,588	11,33
486,08	11,8
486,571	11,46
487,063	12,09
487,554	11,65
488,045	12,04
488,536	11,69
489,027	11,54
489,518	11,98
490,008	11,95
490,499	11,81
490,989	11,97
491,48	11,75
491,97	12,25
492,46	11,73
492,95	11,92
493,44	11,89
493,93	11,8
494,419	12,19
494,909	11,66
495,398	12,44
495,888	12,58
496,377	12,17
496,866	12,57
497,355	12,55
497,844	12,63
498,333	12,4
498,821	13,1
499,31	13,37
499,798	13,12
500,287	13,04
500,775	13,23
501,263	13,42
501,751	13,24
502,239	13,13
502,727	13,51
503,215	13,39
503,702	13,6
504,19	14,13
504,677	14,5
505,164	14
505,651	14,73
506,139	14,9
506,625	14,51
507,112	14,81
507,599	15,38
508,086	15,26
508,572	15,23
509,058	15,77
509,545	15,75
510,031	16,18
510,517	16,31
511,003	16,43
511,489	17,28
511,974	17,3
512,46	16,84
512,946	17,69
513,431	17,34
513,916	18,41
514,401	18,43
514,887	18,64
515,371	19,08
515,856	18,91
516,341	19,87
516,826	19,49
517,31	20,25
517,795	20,54
518,279	20,7
518,763	21,41
519,247	21,28
519,731	22,72
520,215	21,62
520,699	22,75
521,182	22,6
521,666	22,72
522,149	23,87
522,633	23,76
523,116	24,16
523,599	24,53
524,082	24,59
524,565	25,43
525,048	25,46
525,53	26,2
526,013	26,35
526,495	27,2
526,978	27,17
527,46	26,64
527,942	27,2
528,424	27,57
528,906	27,76
529,388	28,22
529,87	27,91
530,351	28,45
530,833	28,81
531,314	29,11
531,795	29,66
532,277	28,91
532,758	29,89
533,238	29,81
533,719	30,15
534,2	29,99
534,681	30,24
535,161	30,26
535,642	30,45
536,122	30,41
536,602	30,6
537,082	30,71
537,562	30,68
538,042	30,55
538,522	30,87
539,001	30,88
539,481	30,63
539,96	30,56
540,44	30,97
540,919	31,84
541,398	31,57
541,877	31,17
542,356	31,74
542,835	31,02
543,313	31,12
543,792	31,34
544,27	31,46
544,749	31,73
545,227	31,42
545,705	31,91
546,183	31,52
546,661	31,73
547,139	31,92
547,616	31,65
548,094	32,16
548,571	31,89
549,049	31,91
549,526	32,02
550,003	31,91
550,48	32,13
550,957	32,08
551,434	32,3
551,911	32,17
552,387	32,53
552,864	32,15
553,34	32,72
553,817	32,07
554,293	31,7
554,769	32,38
555,245	32,28
555,721	31,63
556,197	32,2
556,672	32,21
557,148	32,53
557,623	31,94
558,099	32,33
558,574	31,4
559,049	32,21
559,524	31,7
559,999	31,51
560,474	31,66
560,948	31,11
561,423	31,53
561,897	31,63
562,372	31,06
562,846	31,19
563,32	31,42
563,794	30,98
564,268	30,36
564,742	31,21
565,216	30,59
565,69	30,42
566,163	30,19
566,636	30,76
567,11	29,92
567,583	29,76
568,056	29,78
568,529	29,23
569,002	29,18
569,475	29,27
569,947	28,99
570,42	29,11
570,892	28,07
571,365	28,28
571,837	27,59
572,309	28,02
572,781	27,69
573,253	27,5
573,725	27,53
574,197	27,08
574,668	26,74
575,14	26,83
575,611	26,65
576,082	26,29
576,554	26,24
577,025	25,98
577,496	26,12
577,967	25,85
578,437	25,7
578,908	25,56
579,379	25,1
579,849	25,2
580,319	24,65
580,79	24,64
581,26	24,1
581,73	24,64
582,2	24,43
582,669	24,2
583,139	23,9
583,609	23,75
584,078	23,86
584,548	24,13
585,017	23,53
585,486	23,11
585,955	23,53
586,424	23
586,893	23,54
587,362	22,99
587,83	22,82
588,299	23,21
588,767	22,94
589,236	22,98
589,704	22,68
590,172	22,15
590,64	22,96
591,108	22,36
591,576	22,4
592,043	22,27
592,511	22,08
592,978	21,9
593,446	22,17
593,913	21,8
594,38	21,8
594,847	21,61
595,314	21,69
595,781	21,66
596,248	21,57
596,715	21,88
597,181	21,64
597,647	22,1
598,114	21,79
598,58	21,67
599,046	21,64
599,512	21,46
599,978	21,2
600,444	21,5
600,91	21,34
601,375	21,12
601,841	21,19
602,306	21,11
602,771	21,14
603,236	20,85
603,702	20,79
604,167	20,72
604,631	21,21
605,096	20,94
605,561	20,59
606,025	20,51
606,49	20,67
606,954	20,2
607,418	20,38
607,882	19,94
608,347	19,66
608,81	19,95
609,274	19,6
609,738	20,28
610,202	19,28
610,665	19,81
611,128	19,01
611,592	19,57
612,055	19,11
612,518	19,26
612,981	19,06
613,444	19,04
613,907	18,8
614,369	18,6
614,832	18,48
615,294	18,64
615,757	18,57
616,219	18,54
616,681	18,25
617,143	18,33
617,605	18,05
618,067	18,37
618,529	18,12
618,99	17,93
619,452	18
619,913	17,59
620,375	17,6
620,836	17,89
621,297	17,68
621,758	17,28
622,219	17,45
622,68	17,42
623,14	17,01
623,601	17,25
624,061	17,17
624,522	17,37
624,982	16,99
625,442	17,08
625,902	17,07
626,362	16,87
626,822	17,27
627,282	16,74
627,742	16,49
628,201	17,26
628,661	17,12
629,12	17,01
629,579	16,71
630,038	16,8
630,497	16,69
630,956	16,99
631,415	16,51
631,874	16,59
632,332	16,65
632,791	16,61
633,249	16,43
633,708	16,52
634,166	16,59
634,624	16,2
635,082	16,37
635,54	16,16
635,998	16,28
636,455	16,1
636,913	16,25
637,37	16,02
637,828	15,89
638,285	15,75
638,742	15,43
639,199	15,65
639,656	15,31
640,113	15,43
640,57	15,08
641,027	14,72
641,483	14,96
641,94	14,73
642,396	14,8
642,852	14,66
643,309	14,32
643,765	14,34
644,221	14,24
644,676	13,91
645,132	13,89
645,588	13,86
646,043	13,52
646,499	13,9
646,954	13,48
647,409	13,56
647,864	13,14
648,319	13,23
648,774	12,97
649,229	12,88
649,684	12,78
650,139	12,9
650,593	12,55
651,047	12,75
651,502	12,62
651,956	12,72
652,41	12,36
652,864	12,67
653,318	12,32
653,772	12,45
654,225	12,63
654,679	12,15
655,133	12,38
655,586	11,92
656,039	12,15
656,492	12,11
656,946	12,18
657,399	11,93
657,851	12,14
658,304	12,02
658,757	11,73
659,209	11,79
659,662	11,85
660,114	11,34
660,567	11,62
661,019	11,41
661,471	11,42
661,923	11,4
662,375	11,25
662,826	11,32
663,278	11,19
663,73	11,18
664,181	11,05
664,632	11,1
665,084	10,94
665,535	10,83
665,986	10,88
666,437	11,04
666,888	10,86
667,338	10,96
667,789	10,85
668,24	10,99
668,69	10,8
669,14	10,91
669,591	11,01
670,041	10,88
670,491	11,07
670,941	11,16
671,391	11,14
671,84	11,2
672,29	11,16
672,74	11,31
673,189	11,5
673,638	11,34
674,088	11,54
674,537	11,54
674,986	11,48
675,435	11,69
675,883	11,92
676,332	11,78
676,781	12,03
677,229	12,22
677,678	12,43
678,126	12,3
678,574	12,51
679,022	12,5
679,47	12,7
679,918	13,01
680,366	12,92
680,814	13,26
681,261	13,26
681,709	13,44
682,156	13,63
682,604	13,4
683,051	13,85
683,498	13,89
683,945	14,21
684,392	14,1
684,839	14,13
685,286	14,29
685,732	14,38
686,179	14,73
686,625	14,81
687,071	14,89
687,518	15,18
687,964	15,28
688,41	15,14
688,856	15,66
689,301	15,88
689,747	16,19
690,193	16,48
690,638	16,82
691,084	16,92
691,529	17,41
691,974	17,8
692,419	18,23
692,864	18,66
693,309	19,22
693,754	19,84
694,199	20,29
694,643	21,16
695,088	21,61
695,532	22,06
695,977	22,23
696,421	22,86
696,865	23,89
697,309	24,07
697,753	24,63
698,197	25,3
698,64	25,96
699,084	26,53
699,527	27,27
699,971	27,71
700,414	28,3
700,857	29,01
701,3	29,18
701,743	30,03
702,186	30,38
702,629	31,23
703,072	31,72
703,515	31,95
703,957	32,84
704,399	33,11
704,842	33,84
705,284	34,45
705,726	34,61
706,168	35,48
706,61	35,58
707,052	36,28
707,494	36,81
707,935	37,43
708,377	37,56
708,818	38,14
709,26	38,62
709,701	39,11
710,142	39,11
710,583	39,73
711,024	40,06
711,465	40,45
711,905	40,7
712,346	41,03
712,787	41,6
713,227	41,84
713,667	42,66
714,108	42,9
714,548	43,08
714,988	43,28
715,428	43,79
715,868	44,38
716,307	44,71
716,747	44,86
717,186	45,39
717,626	45,22
718,065	45,59
718,504	46,53
718,944	46,77
719,383	46,78
719,822	46,93
720,261	47,63
720,699	47,67
721,138	47,97
721,576	47,83
722,015	48,72
722,453	48,31
722,892	48,68
723,33	49,13
723,768	49,52
724,206	49
724,644	49,82
725,081	50,42
725,519	50,43
725,957	50,51
726,394	50,38
726,832	50,51
727,269	51
727,706	50,95
728,143	50,83
728,58	51,41
729,017	51,38
729,454	51,43
729,89	52,15
730,327	51,43
730,764	52,35
731,2	52,61
731,636	52,61
732,072	52,09
732,509	52,31
732,945	52,97
733,38	52,43
733,816	52,37
734,252	52,92
734,688	52,72
735,123	53,13
735,559	52,79
735,994	53,03
736,429	52,89
736,864	53,17
737,299	53,31
737,734	53,26
738,169	53,42
738,604	53,41
739,038	53,39
739,473	53,56
739,907	53,83
740,342	53,4
740,776	53,62
741,21	53,13
741,644	53,64
742,078	53,72
742,512	53,32
742,946	53,75
743,379	53,47
743,813	53,95
744,246	53,26
744,68	53,65
745,113	53,67
745,546	53,82
745,979	53,52
746,412	53,33
746,845	53,56
747,278	53,2
747,711	53,54
748,143	53,33
748,576	53,45
749,008	53,55
749,441	53,22
749,873	53,33
750,305	53,02
750,737	53,18
751,169	52,94
751,601	53,22
752,032	52,88
752,464	52,96
752,896	53,1
753,327	53,03
753,758	52,59
754,19	52,87
754,621	52,77
755,052	52,39
755,483	52,68
755,914	52,15
756,344	52,45
756,775	53,01
757,206	52,62
757,636	52,74
758,066	52,39
758,497	52,54
758,927	52,24
759,357	52,87
759,787	52,11
760,217	51,9
760,647	52,16
761,076	52,14
761,506	52,35
761,935	51,79
762,365	52,25
762,794	52,33
763,223	52,42
763,653	51,6
764,082	51,76
764,51	51,57
764,939	51,94
765,368	51,7
765,797	51,75
766,225	51,56
766,654	51,6
767,082	51,92
767,51	51,47
767,938	51,13
768,367	51,56
768,795	51,69
769,222	51,62
769,65	51,37
770,078	51,33
770,505	51,56
770,933	51,69
771,36	51,45
771,788	50,83
772,215	51,31
772,642	51,19
773,069	51
773,496	51,25
773,923	51,25
774,349	50,59
774,776	51,79
775,203	50,91
775,629	50,89
776,055	50,92
776,482	50,68
776,908	50,75
777,334	51,43
777,76	51,07
778,186	51,06
778,611	50,63
779,037	50,73
779,463	50,76
779,888	50,02
780,314	50,7
780,739	50,92
781,164	50,5
781,589	50,47
782,014	50,58
782,439	50,55
782,864	50,7
783,289	50,66
783,713	50,54
784,138	50,37
784,562	50,5
784,987	50,54
785,411	50,54
785,835	50,51
786,259	50,36
786,683	50,56
787,107	50,55
787,531	50,45
787,954	50,43
788,378	50,2
788,802	50,81
789,225	50,09
789,648	50,34
790,071	50,15
790,495	49,84
790,918	50,26
791,34	50,29
791,763	50,16
792,186	50,44
792,609	49,84
793,031	49,91
793,454	50,54
793,876	50,55
794,298	50,57
794,721	49,76
795,143	50,12
795,565	50,36
795,986	50,02
796,408	50,21
796,83	50,23
797,252	50,35
797,673	50,12
798,094	50,23
798,516	50,11
798,937	50,02
799,358	50,53
799,779	49,96
800,2	50,18
800,621	49,84
801,042	49,75
801,462	49,69
801,883	50,08
802,303	50,32
802,724	49,8
803,144	50,24
803,564	49,76
803,984	49,76
804,404	49,35
804,824	50,01
805,244	49,9
805,664	49,95
806,084	50,18
806,503	50,12
806,923	50,2
807,342	49,77
807,761	49,89
808,18	49,59
808,599	49,63
809,018	50,31
809,437	49,52
809,856	49,84
810,275	50,17
810,693	49,99
811,112	50,19
811,53	49,09
811,949	49,79
812,367	49,8
812,785	49,89
813,203	49,95
813,621	49,85
814,039	49,7
814,457	49,6
814,874	49,46
815,292	50,01
815,709	49,52
816,127	49,62
816,544	49,42
816,961	49,72
817,378	49,25
817,795	50,03
818,212	49,42
818,629	49,63
819,046	49,67
819,462	49,85
819,879	50,19
820,295	49,97
820,712	49,81
821,128	49,71
821,544	49,73
821,96	49,54
822,376	49,4
822,792	49,48
823,208	49,54
823,624	49,5
824,039	49,64
824,455	49,5
824,87	49,53
825,286	49,29
825,701	49,73
826,116	50,02
826,531	49,32
826,946	49,82
827,361	49,79
827,776	49,45
828,19	49,3
828,605	49,43
829,02	49,48
829,434	49,63
829,848	49,55
830,263	49,99
830,677	49,66
831,091	49,38
831,505	49,3
831,919	49,94
832,332	49,49
832,746	49,36
833,16	49,12
833,573	49,54
