Data from C_6_Relative__9__00061.txt Node

Date: Tue Jan 30 09:55:22 CET 2024
User: diatiterra
Spectrometer: HDX00911
Trigger mode: 0
Integration Time (sec): 6,000000E-3
Scans to average: 2
Nonlinearity correction enabled: false
Boxcar width: 0
Storing dark spectrum: false
XAxis mode: Wavelengths
Number of Pixels in Spectrum: 2068
>>>>>Begin Spectral Data<<<<<
194,468	92,54
195,025	87,85
195,581	83,87
196,138	88,6
196,694	78,75
197,251	90,32
197,807	87,8
198,363	69,74
198,919	70,33
199,474	83,14
200,03	80,22
200,586	84,11
201,141	75,41
201,696	73,14
202,251	69,93
202,806	86,59
203,361	68,02
203,916	75,84
204,471	70,62
205,025	71,91
205,58	66,04
206,134	80,56
206,688	66,47
207,242	64,29
207,796	76,16
208,35	75,72
208,904	69,89
209,457	75,25
210,011	90,85
210,564	81,21
211,117	64,73
211,67	75,92
212,223	64,86
212,776	76,68
213,329	64,55
213,881	71,74
214,434	59,15
214,986	68,85
215,538	72,59
216,09	76,34
216,642	88,44
217,194	78,77
217,746	66,67
218,297	75,84
218,849	67,88
219,4	75,9
219,951	78,33
220,502	71,43
221,053	73,8
221,604	69,19
222,155	83,24
222,705	73,41
223,256	74,75
223,806	65,33
224,356	71,26
224,906	70,56
225,456	77,71
226,006	70,81
226,556	68,89
227,106	58,06
227,655	60,59
228,204	67,89
228,754	69,19
229,303	73,03
229,852	72,19
230,401	76,3
230,949	76,14
231,498	71,95
232,047	73,22
232,595	70,31
233,143	67,17
233,691	67,57
234,239	78,69
234,787	67,63
235,335	79,39
235,883	64,32
236,43	71,73
236,978	66,67
237,525	73,18
238,072	75,95
238,619	69,33
239,166	63,04
239,713	66,84
240,26	69,31
240,806	67,66
241,353	73,08
241,899	72,73
242,445	77,78
242,991	76,54
243,537	69,71
244,083	80,77
244,629	74,85
245,174	65,46
245,72	75,29
246,265	60,61
246,81	63
247,355	75,79
247,9	71,73
248,445	66,14
248,99	56,65
249,534	74,73
250,079	70,49
250,623	67,04
251,168	67,35
251,712	54,75
252,256	63,64
252,8	68,42
253,343	65,48
253,887	65,33
254,43	75,96
254,974	68,93
255,517	58,58
256,06	68,18
256,603	61,86
257,146	67,5
257,689	64,86
258,232	69,7
258,774	63,64
259,317	78,21
259,859	63,79
260,401	71,86
260,943	63,68
261,485	63,84
262,027	66,29
262,569	65,19
263,11	64,5
263,652	60,69
264,193	67,7
264,734	75,15
265,275	63,08
265,816	64,29
266,357	65,31
266,898	67,82
267,438	66,67
267,979	70,73
268,519	57,37
269,059	69,64
269,6	77,65
270,14	70,69
270,68	60,84
271,219	70,06
271,759	70,91
272,298	78,11
272,838	77,05
273,377	69,78
273,916	59,34
274,455	74,85
274,994	64,24
275,533	68,75
276,072	72,83
276,61	77,01
277,149	64,16
277,687	80,79
278,225	84,05
278,763	64,84
279,301	66,3
279,839	84,21
280,377	72,05
280,914	56,21
281,452	67,78
281,989	74,44
282,526	70,59
283,064	72,53
283,601	74,47
284,137	57,52
284,674	66,67
285,211	74,4
285,747	73,94
286,284	72,88
286,82	70,59
287,356	67,09
287,892	74,21
288,428	69,28
288,964	72,09
289,5	68,7
290,035	73,81
290,571	79,88
291,106	67,88
291,641	65,45
292,176	71,68
292,711	74,71
293,246	78,02
293,781	75,16
294,315	55,93
294,85	74,85
295,384	68,83
295,918	70,74
296,453	62,11
296,987	68,05
297,52	58,23
298,054	71,93
298,588	81,46
299,121	61,82
299,655	75,8
300,188	81,13
300,721	66,86
301,254	64,5
301,787	75
302,32	66,3
302,853	78,29
303,385	64,55
303,918	75
304,45	70,7
304,982	72,88
305,514	73,33
306,046	71,34
306,578	73,89
307,11	83,04
307,641	64,5
308,173	68,21
308,704	74,23
309,236	68,1
309,767	67,28
310,298	70,86
310,829	75,29
311,359	81,76
311,89	80,86
312,421	71,17
312,951	70,29
313,481	74,68
314,012	71,43
314,542	74,38
315,072	78,52
315,601	66,28
316,131	65,09
316,661	77,14
317,19	74,47
317,72	64,77
318,249	80,54
318,778	76,97
319,307	71,76
319,836	67,55
320,365	69,88
320,893	79,12
321,422	76,88
321,95	80,24
322,479	76,32
323,007	64,37
323,535	85,64
324,063	72,28
324,591	79,01
325,118	57,5
325,646	61,14
326,173	65,85
326,701	73,65
327,228	66,12
327,755	80,29
328,282	75,56
328,809	63,37
329,336	65
329,862	85,48
330,389	70,86
330,915	67,86
331,441	80,81
331,968	67,11
332,494	62,43
333,02	67,38
333,545	70,18
334,071	77,16
334,597	94,19
335,122	71,76
335,648	73,03
336,173	85,35
336,698	70,2
337,223	85,82
337,748	78,18
338,272	73,33
338,797	75,44
339,322	78,95
339,846	62,57
340,37	76,97
340,894	72,46
341,419	75,69
341,942	67,91
342,466	60,96
342,99	66,49
343,514	69,84
344,037	69,78
344,56	74,73
345,084	70,18
345,607	74,16
346,13	71,1
346,653	66,86
347,175	71,68
347,698	69,63
348,221	70,05
348,743	73,47
349,265	60,53
349,787	68,78
350,309	58,95
350,831	61,84
351,353	53,89
351,875	77,89
352,397	59,15
352,918	68,1
353,439	63,27
353,961	70,71
354,482	63,68
355,003	62,04
355,524	56,89
356,044	62,32
356,565	65,88
357,086	70,67
357,606	62,91
358,126	61,5
358,646	56,48
359,167	69,6
359,687	58,74
360,206	64,92
360,726	61,02
361,246	74,89
361,765	64,26
362,285	57,94
362,804	60,91
363,323	54,85
363,842	59,92
364,361	58,85
364,88	63,49
365,398	57,71
365,917	55,56
366,435	57,43
366,954	52,94
367,472	52,31
367,99	58,8
368,508	61,69
369,026	58,55
369,544	48,92
370,061	55,98
370,579	59,56
371,096	61,83
371,613	59,29
372,131	50,88
372,648	63,41
373,165	50,66
373,681	57,42
374,198	54,67
374,715	54,04
375,231	50
375,747	52,29
376,264	48,91
376,78	53,7
377,296	56,76
377,812	49,82
378,327	49,68
378,843	53,2
379,359	46,43
379,874	54,07
380,389	50,16
380,905	46,98
381,42	49,72
381,935	53,11
382,449	49,87
382,964	50,96
383,479	43,29
383,993	40,91
384,508	44,99
385,022	45,37
385,536	42,39
386,05	44,44
386,564	40,14
387,078	42,39
387,592	48,75
388,105	39,78
388,619	43,29
389,132	42,95
389,645	40,92
390,158	39,57
390,671	41,52
391,184	43,87
391,697	38,46
392,21	40,76
392,722	38,67
393,235	41,01
393,747	42,54
394,259	36,1
394,771	36,19
395,283	32,45
395,795	38,75
396,307	36,48
396,818	36,55
397,33	33,39
397,841	31,3
398,353	32,03
398,864	38,67
399,375	34,36
399,886	32,27
400,397	31,93
400,907	31,49
401,418	31,82
401,928	31,23
402,439	30,59
402,949	27,4
403,459	28,04
403,969	31,23
404,479	27,45
404,989	27,83
405,498	25,52
406,008	30,32
406,517	22,32
407,027	23,68
407,536	23,19
408,045	23,05
408,554	20,04
409,063	21,99
409,572	19,49
410,08	18,99
410,589	19,93
411,097	18,48
411,606	18,9
412,114	16,76
412,622	17,18
413,13	16,28
413,638	17,66
414,145	17,51
414,653	13,11
415,16	14,4
415,668	14
416,175	13,88
416,682	12,86
417,189	12,71
417,696	14,14
418,203	12,71
418,71	12,18
419,216	14,21
419,723	12,6
420,229	12,08
420,735	12,05
421,242	10,62
421,748	12,05
422,254	12,94
422,759	11,49
423,265	11,68
423,771	10,62
424,276	11,52
424,781	10,55
425,287	10,99
425,792	11,63
426,297	10,61
426,802	12,03
427,306	11,61
427,811	10,92
428,316	11,65
428,82	9,97
429,324	10,29
429,829	10,67
430,333	10,01
430,837	10,46
431,34	9,77
431,844	9,46
432,348	9,89
432,851	10,64
433,355	9,23
433,858	10,86
434,361	10,23
434,864	9,78
435,367	10,57
435,87	9,18
436,373	9,45
436,876	9,48
437,378	8,58
437,88	8,56
438,383	9,99
438,885	9,67
439,387	8,86
439,889	8,8
440,391	9,15
440,892	8,66
441,394	9,69
441,896	9,16
442,397	9,35
442,898	9,18
443,399	9,17
443,9	9,16
444,401	9,09
444,902	9,51
445,403	9,29
445,903	10,13
446,404	9,88
446,904	9,54
447,405	9,98
447,905	9,65
448,405	8,85
448,905	9,27
449,404	9,25
449,904	9,01
450,404	9,54
450,903	9,53
451,403	9,07
451,902	9,86
452,401	9,29
452,9	10,1
453,399	10,06
453,898	9,59
454,396	10,63
454,895	9,8
455,393	10,44
455,892	10,15
456,39	8,51
456,888	9,97
457,386	10,36
457,884	9,83
458,382	9,95
458,879	10,07
459,377	9,92
459,874	9,94
460,372	10,36
460,869	9,33
461,366	9,7
461,863	9,76
462,36	9,79
462,857	9,03
463,353	9,52
463,85	10,35
464,346	9,98
464,843	9,98
465,339	10,3
465,835	10,07
466,331	9,24
466,827	10,02
467,323	9,86
467,818	9,61
468,314	9,7
468,809	9,55
469,305	9,84
469,8	9,6
470,295	9,56
470,79	9,24
471,285	9,43
471,78	9,52
472,274	9,16
472,769	10,01
473,263	9,46
473,758	10,07
474,252	9,57
474,746	9,74
475,24	9,57
475,734	9,6
476,228	9,26
476,721	9,47
477,215	9,92
477,708	9,56
478,202	9,94
478,695	9,5
479,188	9,92
479,681	9,75
480,174	9,3
480,667	10,15
481,159	9,43
481,652	9,67
482,144	9,96
482,637	10
483,129	9,7
483,621	9,97
484,113	10,04
484,605	9,7
485,097	9,82
485,588	9,75
486,08	10,21
486,571	10,1
487,063	10,29
487,554	9,75
488,045	9,97
488,536	9,6
489,027	10,17
489,518	10,11
490,008	10,35
490,499	10,41
490,989	10,11
491,48	10,26
491,97	10,26
492,46	10,1
492,95	10,61
493,44	9,9
493,93	10,7
494,419	10,41
494,909	10,53
495,398	10,47
495,888	11,02
496,377	10,61
496,866	10,73
497,355	11,52
497,844	10,62
498,333	11,32
498,821	11,13
499,31	11,88
499,798	11,73
500,287	11,94
500,775	11,83
501,263	11,75
501,751	11,78
502,239	12,06
502,727	12,41
503,215	12,65
503,702	12,69
504,19	12,79
504,677	13,04
505,164	13,74
505,651	13,41
506,139	13,87
506,625	13,62
507,112	14,14
507,599	14,69
508,086	14,86
508,572	15,3
509,058	15,36
509,545	16,02
510,031	15,59
510,517	16,35
511,003	16,6
511,489	17,28
511,974	16,88
512,46	17,62
512,946	18,06
513,431	17,63
513,916	18,78
514,401	18,94
514,887	19,11
515,371	19,9
515,856	19,89
516,341	20,4
516,826	20,69
517,31	20,38
517,795	21,8
518,279	21,51
518,763	22,77
519,247	22,57
519,731	23,45
520,215	23,07
520,699	23,69
521,182	24,08
521,666	25,18
522,149	25,98
522,633	25,44
523,116	25,49
523,599	25,99
524,082	26,06
524,565	27,08
525,048	27,03
525,53	27,9
526,013	28,72
526,495	28,81
526,978	29,29
527,46	29,31
527,942	29,82
528,424	30,29
528,906	30,31
529,388	30,23
529,87	30,85
530,351	30,8
530,833	32,22
531,314	31,97
531,795	31,62
532,277	31,9
532,758	32,27
533,238	32,55
533,719	31,86
534,2	32,55
534,681	34,15
535,161	33,45
535,642	33,38
536,122	33,29
536,602	33,74
537,082	33,67
537,562	33,66
538,042	33,81
538,522	34,03
539,001	34,07
539,481	34,48
539,96	34,43
540,44	34,21
540,919	34,18
541,398	34,37
541,877	34,14
542,356	33,84
542,835	35,07
543,313	34,28
543,792	34,71
544,27	33,98
544,749	34,47
545,227	34,39
545,705	34,86
546,183	34,76
546,661	34,6
547,139	34,56
547,616	34,62
548,094	34,76
548,571	34,53
549,049	34,63
549,526	35,27
550,003	35,17
550,48	35,5
550,957	35,35
551,434	34,89
551,911	35,57
552,387	34,92
552,864	34,8
553,34	35,8
553,817	34,88
554,293	35,04
554,769	34,99
555,245	35,13
555,721	35,34
556,197	35,24
556,672	35,58
557,148	35
557,623	34,61
558,099	34,31
558,574	35,08
559,049	35,41
559,524	34,84
559,999	34,33
560,474	34,32
560,948	34,37
561,423	34,39
561,897	34,57
562,372	34,01
562,846	33,71
563,32	34,2
563,794	33,28
564,268	33,75
564,742	33,63
565,216	32,97
565,69	33,03
566,163	32,8
566,636	33,23
567,11	32,64
567,583	32,28
568,056	31,83
568,529	31,82
569,002	31,44
569,475	31,33
569,947	30,89
570,42	31,12
570,892	30,18
571,365	30,33
571,837	30,49
572,309	30,02
572,781	29,78
573,253	29,59
573,725	29,23
574,197	28,97
574,668	28,73
575,14	28,86
575,611	28,5
576,082	28,42
576,554	28,53
577,025	27,98
577,496	27,88
577,967	27,61
578,437	27,24
578,908	27,04
579,379	26,99
579,849	26,53
580,319	26,95
580,79	25,97
581,26	25,98
581,73	25,7
582,2	26,12
582,669	25,72
583,139	25,48
583,609	25,4
584,078	25,06
584,548	25,41
585,017	25,36
585,486	25,05
585,955	24,7
586,424	25,07
586,893	24,87
587,362	24,54
587,83	24,26
588,299	24,84
588,767	24,29
589,236	24,17
589,704	24,17
590,172	23,7
590,64	24,45
591,108	23,42
591,576	23,35
592,043	23,64
592,511	23,19
592,978	23,49
593,446	23,44
593,913	23,16
594,38	23,01
594,847	23,35
595,314	23,17
595,781	23,1
596,248	23,03
596,715	22,85
597,181	23,02
597,647	22,9
598,114	22,89
598,58	22,69
599,046	22,79
599,512	22,96
599,978	22,87
600,444	22,68
600,91	22,33
601,375	22,44
601,841	22,27
602,306	22,39
602,771	22,49
603,236	22,37
603,702	21,98
604,167	22,34
604,631	21,85
605,096	22,12
605,561	21,49
606,025	21,75
606,49	21,45
606,954	21,47
607,418	21,17
607,882	21,07
608,347	21,4
608,81	20,97
609,274	20,87
609,738	21,02
610,202	20,8
610,665	20,57
611,128	20,43
611,592	20,41
612,055	20,06
612,518	20,15
612,981	20,42
613,444	19,64
613,907	19,65
614,369	19,64
614,832	19,61
615,294	19,07
615,757	19,14
616,219	18,99
616,681	18,74
617,143	18,75
617,605	18,87
618,067	18,39
618,529	18,81
618,99	18,49
619,452	18,41
619,913	18,17
620,375	18,19
620,836	17,81
621,297	17,81
621,758	17,77
622,219	17,68
622,68	17,68
623,14	17,71
623,601	17,61
624,061	17,47
624,522	17,52
624,982	17,53
625,442	17,65
625,902	17,56
626,362	17,2
626,822	17,4
627,282	17,62
627,742	17,26
628,201	17,43
628,661	17,21
629,12	17,21
629,579	17,16
630,038	17,31
630,497	17,25
630,956	16,94
631,415	17,24
631,874	17,11
632,332	17,02
632,791	17,34
633,249	17,15
633,708	17,06
634,166	16,69
634,624	16,79
635,082	16,61
635,54	16,43
635,998	16,27
636,455	16,44
636,913	16,48
637,37	16,01
637,828	16,02
638,285	16,01
638,742	16,1
639,199	15,81
639,656	15,67
640,113	15,08
640,57	15,13
641,027	15,22
641,483	14,7
641,94	14,93
642,396	14,66
642,852	14,45
643,309	14,59
643,765	14,05
644,221	14,33
644,676	13,78
645,132	13,9
645,588	13,76
646,043	13,55
646,499	13,13
646,954	13,08
647,409	12,85
647,864	12,87
648,319	12,94
648,774	12,54
649,229	12,65
649,684	12,39
650,139	12,21
650,593	12,14
651,047	12,13
651,502	12,22
651,956	11,89
652,41	11,9
652,864	11,88
653,318	11,83
653,772	11,69
654,225	11,62
654,679	11,76
655,133	11,82
655,586	11,54
656,039	11,34
656,492	11,14
656,946	11,26
657,399	11,12
657,851	10,96
658,304	11,09
658,757	10,73
659,209	10,87
659,662	10,6
660,114	10,37
660,567	10,35
661,019	10,07
661,471	10,27
661,923	10,15
662,375	9,98
662,826	9,86
663,278	9,77
663,73	9,79
664,181	9,8
664,632	9,61
665,084	9,48
665,535	9,4
665,986	9,35
666,437	9,4
666,888	9,23
667,338	9,24
667,789	9,22
668,24	9,17
668,69	9,07
669,14	9,34
669,591	9,32
670,041	9,05
670,491	9,32
670,941	9,21
671,391	9,5
671,84	9,23
672,29	9,56
672,74	9,55
673,189	9,68
673,638	9,55
674,088	9,9
674,537	9,84
674,986	9,55
675,435	9,78
675,883	9,92
676,332	9,97
676,781	9,93
677,229	10,13
677,678	10,35
678,126	10,23
678,574	10,38
679,022	10,54
679,47	10,65
679,918	10,96
680,366	11
680,814	11,12
681,261	11,33
681,709	11,27
682,156	11,42
682,604	11,46
683,051	11,78
683,498	11,95
683,945	12,23
684,392	12,31
684,839	12,37
685,286	12,87
685,732	12,73
686,179	13,04
686,625	13,34
687,071	13,52
687,518	13,77
687,964	13,85
688,41	14,33
688,856	15,15
689,301	14,91
689,747	15,52
690,193	15,78
690,638	16,26
691,084	16,92
691,529	17,05
691,974	17,88
692,419	18,18
692,864	19,09
693,309	19,58
693,754	20
694,199	21,04
694,643	21,89
695,088	22,48
695,532	23,19
695,977	23,71
696,421	24,41
696,865	25,59
697,309	26,35
697,753	26,59
698,197	27,41
698,64	28,48
699,084	29,06
699,527	29,97
699,971	30,86
700,414	31,38
700,857	32,17
701,3	33,01
701,743	33,58
702,186	34,22
702,629	34,95
703,072	35,97
703,515	36,45
703,957	37,28
704,399	37,82
704,842	38,86
705,284	39,26
705,726	39,46
706,168	40,03
706,61	40,67
707,052	42,22
707,494	42,46
707,935	42,24
708,377	43,58
708,818	44,1
709,26	44,21
709,701	45,26
710,142	45,5
710,583	46,19
711,024	47,33
711,465	46,99
711,905	47,55
712,346	48,38
712,787	48,59
713,227	49,43
713,667	49,81
714,108	50,47
714,548	50,56
714,988	51,08
715,428	51,27
715,868	51,95
716,307	52,36
716,747	52,79
717,186	53,09
717,626	53,87
718,065	53,94
718,504	54,76
718,944	54,77
719,383	55,6
719,822	55,82
720,261	56,43
720,699	56,58
721,138	56,61
721,576	57,37
722,015	57,9
722,453	58,13
722,892	58,13
723,33	58,77
723,768	58,3
724,206	59,42
724,644	59,9
725,081	59,91
725,519	60,17
725,957	60,41
726,394	60,73
726,832	61,24
727,269	61,36
727,706	61,32
728,143	61,25
728,58	61,85
729,017	61,8
729,454	62,4
729,89	62,74
730,327	62,63
730,764	62,83
731,2	62,56
731,636	63
732,072	63,01
732,509	63,36
732,945	63,26
733,38	63,76
733,816	63,97
734,252	64,23
734,688	64,18
735,123	64,07
735,559	64,15
735,994	64,47
736,429	64,72
736,864	64,46
737,299	64,28
737,734	64,5
738,169	64,9
738,604	64,95
739,038	64,51
739,473	65,02
739,907	64,98
740,342	65,06
740,776	64,92
741,21	64,88
741,644	65,02
742,078	65,88
742,512	64,97
742,946	65,46
743,379	65,56
743,813	65,25
744,246	65,59
744,68	65,4
745,113	65,26
745,546	65,73
745,979	65,74
746,412	64,87
746,845	65,84
747,278	65,02
747,711	64,99
748,143	65,47
748,576	65,43
749,008	65,59
749,441	65,75
749,873	64,98
750,305	65,61
750,737	64,94
751,169	65,39
751,601	64,96
752,032	64,92
752,464	65,21
752,896	65,58
753,327	65,01
753,758	64,87
754,19	65,38
754,621	65,3
755,052	66,11
755,483	64,77
755,914	64,55
756,344	65,06
756,775	64,88
757,206	65,18
757,636	65,29
758,066	64,7
758,497	64,8
758,927	64,63
759,357	64,84
759,787	64,28
760,217	64,6
760,647	64,36
761,076	65,14
761,506	64,11
761,935	65,04
762,365	64,46
762,794	64,62
763,223	64,38
763,653	64,65
764,082	64,7
764,51	64,49
764,939	64,31
765,368	63,92
765,797	64,2
766,225	64,41
766,654	64,04
767,082	63,81
767,51	63,42
767,938	64,14
768,367	64,35
768,795	64
769,222	64,06
769,65	64,23
770,078	63,61
770,505	63,88
770,933	63,72
771,36	64,32
771,788	63,74
772,215	63,67
772,642	63,23
773,069	63,5
773,496	63,53
773,923	63,8
774,349	63,72
774,776	63,53
775,203	63,05
775,629	64,05
776,055	63,5
776,482	63,14
776,908	63,89
777,334	63,63
777,76	63,32
778,186	63,7
778,611	63,29
779,037	63,8
779,463	63,63
779,888	63,07
780,314	63,64
780,739	63,86
781,164	63,36
781,589	63,31
782,014	62,85
782,439	63,32
782,864	63,05
783,289	63,55
783,713	63,12
784,138	63,09
784,562	63,18
784,987	63,11
785,411	63,15
785,835	63,1
786,259	63,15
786,683	63,01
787,107	62,77
787,531	63,7
787,954	63,3
788,378	62,82
788,802	63,18
789,225	62,93
789,648	63,25
790,071	63,06
790,495	62,83
790,918	63,09
791,34	63,13
791,763	62,44
792,186	62,45
792,609	63,56
793,031	62,69
793,454	63,41
793,876	62,83
794,298	63,23
794,721	63,04
795,143	63,34
795,565	62,56
795,986	63,07
796,408	62,77
796,83	62,79
797,252	63,15
797,673	62,6
798,094	63,42
798,516	63,06
798,937	62,68
799,358	63,27
799,779	62,77
800,2	62,79
800,621	63,39
801,042	63,31
801,462	62,9
801,883	62,75
802,303	62,49
802,724	63,14
803,144	62,9
803,564	63,02
803,984	63,42
804,404	63,32
804,824	62,24
805,244	63,43
805,664	62,9
806,084	62,62
806,503	62,84
806,923	62,89
807,342	62,68
807,761	62,84
808,18	62,1
808,599	62,99
809,018	63,33
809,437	62,66
809,856	62,99
810,275	62,5
810,693	62,79
811,112	62,69
811,53	62,34
811,949	62,78
812,367	62,26
812,785	63,06
813,203	62,73
813,621	63,21
814,039	62,54
814,457	63,29
814,874	62,51
815,292	62,59
815,709	62,92
816,127	62,85
816,544	62,5
816,961	62,31
817,378	62,88
817,795	62,32
818,212	62,43
818,629	63,03
819,046	62,86
819,462	62,47
819,879	62,69
820,295	62,2
820,712	62,93
821,128	62,51
821,544	62,95
821,96	63,15
822,376	62,58
822,792	62,51
823,208	63,36
823,624	62,39
824,039	63
824,455	62,86
824,87	62,35
825,286	62,66
825,701	62,52
826,116	62,75
826,531	62,2
826,946	63,11
827,361	63,06
827,776	62,21
828,19	62,94
828,605	62,96
829,02	62,34
829,434	62,87
829,848	62,77
830,263	63,08
830,677	62,13
831,091	62,55
831,505	62,74
831,919	63,07
832,332	62,61
832,746	62,21
833,16	63,09
833,573	62,73
833,987	62,15
834,4	62,58
834,813	62,57
835,226	62,8
835,639	62,17
836,052	63
836,465	62,72
836,878	63,21
837,29	62,65
