Data from D_1_Relative__5__00067.txt Node

Date: Tue Jan 30 09:56:19 CET 2024
User: diatiterra
Spectrometer: HDX00911
Trigger mode: 0
Integration Time (sec): 6,000000E-3
Scans to average: 2
Nonlinearity correction enabled: false
Boxcar width: 0
Storing dark spectrum: false
XAxis mode: Wavelengths
Number of Pixels in Spectrum: 2068
>>>>>Begin Spectral Data<<<<<
194,468	88,06
195,025	79,44
195,581	100
196,138	86,84
196,694	86,25
197,251	83,87
197,807	88,41
198,363	74,36
198,919	84,62
199,474	81,4
200,03	75,82
200,586	85,43
201,141	74,32
201,696	72,57
202,251	81,05
202,806	86,59
203,361	73,6
203,916	78,09
204,471	70,62
205,025	79,78
205,58	76,1
206,134	81,11
206,688	77,65
207,242	70,95
207,796	80,23
208,35	80,35
208,904	76,88
209,457	77,23
210,011	90,85
210,564	71,52
211,117	69,57
211,67	72,77
212,223	78,38
212,776	77,2
213,329	63,49
213,881	67,39
214,434	63,38
214,986	63,39
215,538	79,19
216,09	76,34
216,642	89,6
217,194	84,36
217,746	70,83
218,297	73,6
218,849	83,94
219,4	83,13
219,951	72,78
220,502	75,51
221,053	84,49
221,604	70,2
222,155	68,21
222,705	76,3
223,256	90,4
223,806	58,29
224,356	72,41
224,906	83,33
225,456	77,11
226,006	80,75
226,556	71,11
227,106	77,96
227,655	76,47
228,204	71,58
228,754	74,05
229,303	78,65
229,852	76,47
230,401	72,83
230,949	76,14
231,498	76,22
232,047	78,14
232,595	70,31
233,143	67,17
233,691	74,77
234,239	74,32
234,787	70,52
235,335	80
235,883	77,3
236,43	72,77
236,978	71,75
237,525	76,54
238,072	76,58
238,619	68,67
239,166	61,96
239,713	75,94
240,26	71,43
240,806	80,84
241,353	75,27
241,899	69,52
242,445	71,93
242,991	77,09
243,537	62,29
244,083	69,23
244,629	67,07
245,174	72,68
245,72	83,33
246,265	71,21
246,81	65,5
247,355	79,47
247,9	72,25
248,445	68,78
248,99	75,72
249,534	79,67
250,079	66,12
250,623	58,66
251,168	76,02
251,712	56,42
252,256	63,03
252,8	66,32
253,343	82,23
253,887	73,37
254,43	87,43
254,974	76,84
255,517	73,37
256,06	87,66
256,603	69,07
257,146	69
257,689	70,81
258,232	69,09
258,774	71,02
259,317	77,09
259,859	68,39
260,401	72,46
260,943	66,32
261,485	74,01
262,027	68,54
262,569	81,01
263,11	70,41
263,652	68,21
264,193	69,57
264,734	80
265,275	61,54
265,816	68,45
266,357	67,86
266,898	77,01
267,438	69,74
267,979	76,83
268,519	60,53
269,059	76,19
269,6	73,53
270,14	62,64
270,68	77,71
271,219	61,58
271,759	67,88
272,298	78,7
272,838	72,68
273,377	70,33
273,916	71,43
274,455	83,23
274,994	69,09
275,533	77,27
276,072	72,28
276,61	80,46
277,149	68,21
277,687	77,97
278,225	76,07
278,763	69,23
279,301	81,22
279,839	82,46
280,377	75,16
280,914	59,17
281,452	76,67
281,989	74,44
282,526	67,65
283,064	76,37
283,601	80,85
284,137	78,43
284,674	73,77
285,211	73,21
285,747	78,72
286,284	83,05
286,82	86,47
287,356	75,32
287,892	72,96
288,428	63,86
288,964	87,21
289,5	81,68
290,035	78,57
290,571	85,8
291,106	80,61
291,641	80,61
292,176	72,25
292,711	75,29
293,246	80,22
293,781	71,24
294,315	67,8
294,85	76,07
295,384	68,18
295,918	69,68
296,453	67,37
296,987	70,41
297,52	65,19
298,054	65,5
298,588	82,78
299,121	69,7
299,655	79,62
300,188	73,58
300,721	76,92
301,254	68,64
301,787	75,62
302,32	56,52
302,853	75,43
303,385	67,72
303,918	87,5
304,45	77,71
304,982	80,79
305,514	78,89
306,046	78,66
306,578	63,06
307,11	83,63
307,641	75,15
308,173	80,35
308,704	69,59
309,236	74,23
309,767	76,54
310,298	74,29
310,829	86,47
311,359	81,76
311,89	87,04
312,421	66,87
312,951	72,57
313,481	64,94
314,012	84,57
314,542	80,62
315,072	83,89
315,601	77,33
316,131	74,56
316,661	84,57
317,19	87,23
317,72	69,32
318,249	90,6
318,778	84,83
319,307	84,71
319,836	75,53
320,365	84,94
320,893	89,01
321,422	73,12
321,95	77,25
322,479	79,61
323,007	73,56
323,535	81,38
324,063	78,8
324,591	78,45
325,118	66,88
325,646	72,57
326,173	73,17
326,701	80,24
327,228	77,6
327,755	81,75
328,282	82,22
328,809	66,86
329,336	72,22
329,862	85,48
330,389	80,79
330,915	88,69
331,441	96,51
331,968	79,61
332,494	76,24
333,02	71,66
333,545	76,61
334,071	79,63
334,597	92,26
335,122	73,53
335,648	83,15
336,173	92,99
336,698	87,42
337,223	95,52
337,748	91,52
338,272	81,82
338,797	85,38
339,322	77,19
339,846	75,98
340,37	75,76
340,894	74,25
341,419	76,8
341,942	80,21
342,466	71,92
342,99	78,01
343,514	79,37
344,037	74,18
344,56	79,12
345,084	79,53
345,607	79,21
346,13	79,19
346,653	74,29
347,175	73,99
347,698	64,95
348,221	78,07
348,743	76,02
349,265	68,95
349,787	66,97
350,309	72,63
350,831	74,88
351,353	62,18
351,875	75,38
352,397	65,26
352,918	70
353,439	73,47
353,961	69,19
354,482	75,34
355,003	70,37
355,524	59,11
356,044	66,67
356,565	72,51
357,086	72,12
357,606	59,15
358,126	69,03
358,646	62,04
359,167	59,91
359,687	66,37
360,206	66,13
360,726	59,32
361,246	77,13
361,765	59,57
362,285	51,87
362,804	67,27
363,323	61,18
363,842	52,32
364,361	58,44
364,88	64,73
365,398	60,08
365,917	68,38
366,435	60,64
366,954	56,47
367,472	51,96
367,99	68,4
368,508	65,32
369,026	64
369,544	56,12
370,061	62,93
370,579	58,46
371,096	67,94
371,613	60,47
372,131	52,98
372,648	59,93
373,165	57,89
373,681	62,5
374,198	62,67
374,715	59,3
375,231	58,39
375,747	55,56
376,264	50,47
376,78	52,73
377,296	61,15
377,812	54,45
378,327	57,69
378,843	50,51
379,359	47,62
379,874	54,36
380,389	53,92
380,905	54,67
381,42	49,72
381,935	51,41
382,449	52,39
382,964	49,04
383,479	52,33
383,993	45,71
384,508	45,26
385,022	46,34
385,536	49,13
386,05	47,03
386,564	46,79
387,078	45,43
387,592	50,34
388,105	43,04
388,619	43,72
389,132	45,15
389,645	45,73
390,158	39,18
390,671	42,86
391,184	45,32
391,697	42,12
392,21	40,95
392,722	44,53
393,235	42,51
393,747	45,16
394,259	34,56
394,771	40,3
395,283	36,33
395,795	42,5
396,307	39,75
396,818	38,55
397,33	34,74
397,841	35,3
398,353	35,76
398,864	35,09
399,375	38,46
399,886	29,73
400,397	34,03
400,907	33,62
401,418	38,71
401,928	33,75
402,439	30,45
402,949	30,13
403,459	30,44
403,969	29,89
404,479	32,86
404,989	28,97
405,498	29,18
406,008	29,01
406,517	26,83
407,027	26,82
407,536	25,39
408,045	24,65
408,554	24,75
409,063	24,48
409,572	23
410,08	24,03
410,589	22,52
411,097	22,24
411,606	19,46
412,114	18,42
412,622	17,86
413,13	17,37
413,638	18,1
414,145	19,1
414,653	16,27
415,16	15,75
415,668	15,79
416,175	12,89
416,682	14
417,189	15,52
417,696	14,88
418,203	15,09
418,71	13,8
419,216	14,42
419,723	13,39
420,229	13,82
420,735	12,4
421,242	13,77
421,748	12,92
422,254	13,71
422,759	12,83
423,265	12,31
423,771	11,92
424,276	11,96
424,781	12,62
425,287	12,36
425,792	11,93
426,297	11,78
426,802	11,79
427,306	12,3
427,811	11,27
428,316	11,73
428,82	11,87
429,324	11,41
429,829	12,23
430,333	11,6
430,837	10,98
431,34	11,33
431,844	10,86
432,348	11,26
432,851	11,28
433,355	10,2
433,858	11,81
434,361	10,97
434,864	11,24
435,367	11,03
435,87	10,82
436,373	10,77
436,876	11,45
437,378	10,37
437,88	10,74
438,383	11,1
438,885	10,3
439,387	10,9
439,889	10,2
440,391	10,32
440,892	10,14
441,394	10,72
441,896	10,62
442,397	10,65
442,898	10,4
443,399	10,3
443,9	10,25
444,401	9,86
444,902	10,05
445,403	9,66
445,903	10,45
446,404	10,91
446,904	10,73
447,405	10,19
447,905	10,65
448,405	10,37
448,905	10,13
449,404	9,7
449,904	9,68
450,404	9,83
450,903	10,31
451,403	10,71
451,902	10,53
452,401	9,84
452,9	10,13
453,399	10,62
453,898	10,26
454,396	9,99
454,895	10,66
455,393	10,89
455,892	10,52
456,39	9,96
456,888	10,7
457,386	10,29
457,884	10,14
458,382	10,13
458,879	10,27
459,377	10,33
459,874	9,61
460,372	10,34
460,869	10,01
461,366	9,89
461,863	10,38
462,36	10,32
462,857	9,84
463,353	10,21
463,85	10,23
464,346	10,09
464,843	10,87
465,339	10,46
465,835	10,23
466,331	10,26
466,827	10,51
467,323	9,55
467,818	10,24
468,314	10,07
468,809	9,85
469,305	9,48
469,8	10,17
470,295	10
470,79	9,91
471,285	9,75
471,78	9,36
472,274	10,25
472,769	10,22
473,263	9,73
473,758	10,37
474,252	9,76
474,746	9,88
475,24	10,05
475,734	10,17
476,228	9,59
476,721	10,07
477,215	10,43
477,708	9,82
478,202	9,92
478,695	9,82
479,188	10,15
479,681	9,47
480,174	9,8
480,667	9,81
481,159	9,93
481,652	9,85
482,144	10,16
482,637	9,71
483,129	9,81
483,621	10,02
484,113	9,62
484,605	10,43
485,097	10,06
485,588	10,48
486,08	9,67
486,571	10,77
487,063	9,93
487,554	10,24
488,045	10,45
488,536	9,72
489,027	9,93
489,518	10,6
490,008	9,79
490,499	10,25
490,989	9,91
491,48	10,68
491,97	10,26
492,46	10,67
492,95	10,62
493,44	10,48
493,93	10,22
494,419	10,87
494,909	10,47
495,398	10,83
495,888	10,96
496,377	10,32
496,866	10,87
497,355	10,99
497,844	10,81
498,333	11,12
498,821	11,14
499,31	11,11
499,798	11,29
500,287	11,32
500,775	11,61
501,263	11,34
501,751	11,99
502,239	11,9
502,727	12,08
503,215	12,05
503,702	11,89
504,19	12,04
504,677	12,24
505,164	13,32
505,651	13,1
506,139	13,14
506,625	13,49
507,112	13,74
507,599	13,94
508,086	14,14
508,572	14,02
509,058	14,65
509,545	14,65
510,031	15,39
510,517	15,46
511,003	15,52
511,489	16,23
511,974	16
512,46	16,69
512,946	16,72
513,431	17,14
513,916	17,69
514,401	18,12
514,887	17,99
515,371	18,86
515,856	18,93
516,341	19,12
516,826	19,92
517,31	20
517,795	20,84
518,279	21,22
518,763	21,75
519,247	21,68
519,731	22,81
520,215	22,64
520,699	23,53
521,182	23,68
521,666	24,06
522,149	24,72
522,633	24,81
523,116	24,81
523,599	25,54
524,082	26,15
524,565	26,86
525,048	26,9
525,53	28,08
526,013	28,2
526,495	28,51
526,978	29
527,46	29,62
527,942	29,83
528,424	29,87
528,906	29,75
529,388	31,11
529,87	30,58
530,351	30,7
530,833	32,03
531,314	31,21
531,795	31,95
532,277	31,84
532,758	32,57
533,238	32,7
533,719	32,79
534,2	32,14
534,681	33,77
535,161	33,86
535,642	33,08
536,122	33,73
536,602	33,13
537,082	33,97
537,562	34,02
538,042	34,63
538,522	34,11
539,001	33,85
539,481	34,75
539,96	34,98
540,44	35,15
540,919	34,56
541,398	33,96
541,877	34,4
542,356	34,45
542,835	34,78
543,313	35,29
543,792	34,98
544,27	34,8
544,749	34,87
545,227	35,82
545,705	35,39
546,183	35,15
546,661	35,83
547,139	35,33
547,616	35,67
548,094	35,67
548,571	35,47
549,049	35,89
549,526	35,36
550,003	35,45
550,48	35,22
550,957	35,73
551,434	35,83
551,911	36,73
552,387	35,91
552,864	35,55
553,34	35,82
553,817	35,46
554,293	35,46
554,769	35,67
555,245	35,76
555,721	35,44
556,197	35,46
556,672	35,88
557,148	35,61
557,623	35,25
558,099	35,78
558,574	35,01
559,049	35,4
559,524	35,05
559,999	34,97
560,474	35,11
560,948	34,57
561,423	34,32
561,897	34,59
562,372	34,6
562,846	34,15
563,32	34,14
563,794	33,78
564,268	33,82
564,742	34,17
565,216	33,42
565,69	32,81
566,163	32,75
566,636	32,95
567,11	32,66
567,583	31,88
568,056	31,91
568,529	31,75
569,002	31,19
569,475	31,57
569,947	31,35
570,42	31,25
570,892	30,68
571,365	30,52
571,837	29,96
572,309	29,41
572,781	29,68
573,253	29,45
573,725	29,13
574,197	28,78
574,668	28,54
575,14	28,48
575,611	28,05
576,082	28,05
576,554	27,91
577,025	27,59
577,496	26,89
577,967	26,9
578,437	26,79
578,908	26,33
579,379	26,34
579,849	26,33
580,319	26,22
580,79	25,68
581,26	25,55
581,73	25,06
582,2	25,15
582,669	24,62
583,139	24,7
583,609	24,62
584,078	24,73
584,548	24,55
585,017	24,25
585,486	24,53
585,955	23,71
586,424	23,61
586,893	24,12
587,362	23,45
587,83	23,59
588,299	23,65
588,767	23,27
589,236	23,01
589,704	23,4
590,172	22,52
590,64	22,8
591,108	22,46
591,576	22,86
592,043	22,89
592,511	22,56
592,978	22,4
593,446	22,54
593,913	21,91
594,38	22,1
594,847	21,95
595,314	22,48
595,781	21,87
596,248	21,7
596,715	22,35
597,181	21,72
597,647	22,26
598,114	22,09
598,58	21,97
599,046	21,85
599,512	21,53
599,978	21,66
600,444	21,61
600,91	21,69
601,375	21,42
601,841	21,29
602,306	21,2
602,771	21,26
603,236	21,21
603,702	20,98
604,167	21,31
604,631	20,91
605,096	21
605,561	20,42
606,025	20,63
606,49	20,73
606,954	20,4
607,418	20,14
607,882	19,81
608,347	20,32
608,81	20,04
609,274	19,38
609,738	19,8
610,202	19,15
610,665	19,31
611,128	19,21
611,592	19,09
612,055	18,79
612,518	19,03
612,981	18,9
613,444	18,38
613,907	18,62
614,369	18,5
614,832	17,93
615,294	18,07
615,757	17,75
616,219	17,81
616,681	17,98
617,143	17,68
617,605	17,4
618,067	17,2
618,529	16,99
618,99	17,42
619,452	16,87
619,913	16,75
620,375	17,09
620,836	16,69
621,297	16,55
621,758	16,56
622,219	16,72
622,68	16,27
623,14	16,41
623,601	16,45
624,061	16,34
624,522	16,17
624,982	16,22
625,442	16,02
625,902	16,25
626,362	16,3
626,822	16,14
627,282	16,29
627,742	16,01
628,201	15,93
628,661	16,24
629,12	15,77
629,579	15,9
630,038	15,78
630,497	16,14
630,956	15,8
631,415	15,86
631,874	15,93
632,332	15,54
632,791	16
633,249	15,13
633,708	15,85
634,166	15,45
634,624	15,59
635,082	15,59
635,54	15,36
635,998	15,2
636,455	15,38
636,913	15,35
637,37	14,92
637,828	14,95
638,285	14,83
638,742	14,71
639,199	14,65
639,656	14,45
640,113	14,13
640,57	13,82
641,027	13,59
641,483	13,71
641,94	13,61
642,396	13,48
642,852	13,46
643,309	13,35
643,765	13,14
644,221	12,93
644,676	12,76
645,132	12,83
645,588	12,49
646,043	12,22
646,499	12,2
646,954	12,03
647,409	11,9
647,864	11,59
648,319	11,78
648,774	11,43
649,229	11,51
649,684	11,55
650,139	11,2
650,593	11,19
651,047	11,3
651,502	11,02
651,956	10,96
652,41	10,85
652,864	10,88
653,318	10,99
653,772	10,76
654,225	10,63
654,679	10,69
655,133	10,57
655,586	10,62
656,039	10,48
656,492	10,46
656,946	10,57
657,399	10,37
657,851	10,19
658,304	10,08
658,757	10,11
659,209	9,79
659,662	9,75
660,114	9,67
660,567	9,77
661,019	9,68
661,471	9,48
661,923	9,35
662,375	9,54
662,826	9,5
663,278	9,33
663,73	9,34
664,181	9,43
664,632	9,21
665,084	9,12
665,535	9,14
665,986	9,23
666,437	9,05
666,888	9,07
667,338	9,25
667,789	8,93
668,24	8,99
668,69	9,07
669,14	9,31
669,591	9,23
670,041	9,12
670,491	9,22
670,941	9,18
671,391	9,4
671,84	9,04
672,29	9,25
672,74	9,4
673,189	9,51
673,638	9,56
674,088	9,8
674,537	9,88
674,986	9,83
675,435	9,87
675,883	10,13
676,332	10,04
676,781	10,11
677,229	10,25
677,678	10,55
678,126	10,55
678,574	10,58
679,022	10,81
679,47	10,95
679,918	11,13
680,366	11,16
680,814	11,38
681,261	11,41
681,709	11,6
682,156	11,41
682,604	11,82
683,051	11,98
683,498	12,1
683,945	12,12
684,392	12,39
684,839	12,36
685,286	12,53
685,732	12,76
686,179	12,91
686,625	13,01
687,071	13,18
687,518	13,11
687,964	13,44
688,41	13,81
688,856	14,14
689,301	14,67
689,747	14,6
690,193	15,23
690,638	15,26
691,084	15,92
691,529	16,36
691,974	16,96
692,419	17,62
692,864	18,37
693,309	18,59
693,754	19,44
694,199	20,13
694,643	20,97
695,088	21,5
695,532	22,42
695,977	23,29
696,421	23,87
696,865	25,02
697,309	25,91
697,753	26,25
698,197	27,4
698,64	27,97
699,084	28,84
699,527	29,76
699,971	30,93
700,414	31,51
700,857	32,32
701,3	33,31
701,743	34,06
702,186	34,68
702,629	35,8
703,072	36,29
703,515	37,28
703,957	38,23
704,399	38,61
704,842	39,72
705,284	40,86
705,726	40,9
706,168	41,65
706,61	42,54
707,052	43,15
707,494	44,26
707,935	44,79
708,377	44,88
708,818	46,01
709,26	46,63
709,701	47,35
710,142	47,95
710,583	48,58
711,024	49,54
711,465	49,54
711,905	50,67
712,346	50,77
712,787	51,47
713,227	52,25
713,667	52,86
714,108	53,68
714,548	53,76
714,988	55,05
715,428	55,09
715,868	55,68
716,307	56,79
716,747	56,72
717,186	57,28
717,626	58,04
718,065	58,51
718,504	59,11
718,944	59,37
719,383	60,26
719,822	60,59
720,261	60,75
720,699	61,45
721,138	61,42
721,576	61,85
722,015	63,26
722,453	63,06
722,892	63,48
723,33	63,75
723,768	63,77
724,206	64,34
724,644	64,58
725,081	65,34
725,519	65,49
725,957	65,81
726,394	66,25
726,832	66,34
727,269	67,08
727,706	66,87
728,143	67,22
728,58	67,61
729,017	67,69
729,454	67,5
729,89	68,64
730,327	68,89
730,764	68,49
731,2	69,43
731,636	68,51
732,072	69,52
732,509	70,11
732,945	69,16
733,38	70,22
733,816	70,42
734,252	70,42
734,688	70,72
735,123	70,8
735,559	70,66
735,994	70,94
736,429	71,15
736,864	70,86
737,299	70,6
737,734	70,78
738,169	71,38
738,604	71,3
739,038	71,36
739,473	72,18
739,907	71,95
740,342	72,07
740,776	71,39
741,21	71,7
741,644	71,75
742,078	72,24
742,512	71,66
742,946	72,64
743,379	72,15
743,813	71,7
744,246	72,47
744,68	71,89
745,113	72,45
745,546	72,79
745,979	72,13
746,412	71,89
746,845	72,56
747,278	72
747,711	71,57
748,143	71,89
748,576	72,05
749,008	72,36
749,441	72,78
749,873	71,87
750,305	72
750,737	71,92
751,169	71,72
751,601	71,82
752,032	71,69
752,464	71,91
752,896	72,44
753,327	71,29
753,758	71,69
754,19	71,95
754,621	71,64
755,052	72,09
755,483	72
755,914	71,52
756,344	71,87
756,775	71,52
757,206	71,57
757,636	71,51
758,066	71,72
758,497	71,4
758,927	70,64
759,357	71,76
759,787	71,13
760,217	71,42
760,647	70,82
761,076	72,1
761,506	70,64
761,935	71,9
762,365	71,23
762,794	71,05
763,223	71,05
763,653	70,95
764,082	71,02
764,51	71,19
764,939	70,55
765,368	70,61
765,797	71,59
766,225	70,83
766,654	70,89
767,082	70,4
767,51	70,26
767,938	70,63
768,367	71,15
768,795	70,73
769,222	70,83
769,65	70,37
770,078	70,68
770,505	70,44
770,933	69,93
771,36	70,4
771,788	69,98
772,215	69,96
772,642	69,38
773,069	69,9
773,496	70,88
773,923	70,15
774,349	70,22
774,776	70,16
775,203	69,56
775,629	69,8
776,055	69,81
776,482	69,79
776,908	70,55
777,334	70,13
777,76	69,89
778,186	69,97
778,611	69,3
779,037	70,4
779,463	69,58
779,888	69,66
780,314	70,06
780,739	69,94
781,164	69,5
781,589	70,17
782,014	69,56
782,439	69,54
782,864	69,9
783,289	69,56
783,713	69,88
784,138	69
784,562	69,53
784,987	69,86
785,411	69,3
785,835	69,31
786,259	69,27
786,683	69,56
787,107	69,59
787,531	69,84
787,954	69,71
788,378	69,45
788,802	69,13
789,225	68,93
789,648	69,45
790,071	69,54
790,495	69,27
790,918	69,68
791,34	68,87
791,763	68,47
792,186	68,96
792,609	69,43
793,031	68,66
793,454	69,08
793,876	69,44
794,298	69,4
794,721	69,97
795,143	69,38
795,565	69,21
795,986	69,24
796,408	69,1
796,83	68,61
797,252	69,31
797,673	68,87
798,094	69,2
798,516	69,29
798,937	68,36
799,358	69,41
799,779	68,69
800,2	68,5
800,621	68,85
801,042	69,13
801,462	68,87
801,883	69,35
802,303	68,78
802,724	69,23
803,144	68,95
803,564	68,64
803,984	68,87
804,404	68,97
804,824	69,32
805,244	68,73
805,664	68,74
806,084	68,81
806,503	68,74
806,923	69,09
807,342	68,73
807,761	69,06
808,18	68,5
808,599	68,85
809,018	69,24
809,437	68,9
809,856	69
810,275	68,34
810,693	68,61
811,112	68,72
811,53	68,26
811,949	69,02
812,367	68,43
812,785	68,68
813,203	68,95
813,621	68,9
814,039	68,83
814,457	68,6
814,874	69,07
815,292	68,84
815,709	68,8
816,127	69,11
816,544	68,78
816,961	68,49
817,378	69,35
817,795	68,65
818,212	68,88
818,629	68,75
819,046	68,57
819,462	68,81
819,879	68,06
820,295	68,17
820,712	68,35
821,128	68,87
821,544	69,03
821,96	68,63
822,376	68,35
822,792	68,66
823,208	68,57
823,624	68,53
824,039	69,15
824,455	68,92
824,87	68,63
825,286	68,68
825,701	68,62
826,116	69,03
826,531	68,53
826,946	68,75
827,361	68,96
827,776	68,68
828,19	68,76
828,605	68,6
829,02	68,3
829,434	68,21
829,848	69,26
830,263	68,37
830,677	68,27
831,091	68,68
831,505	68,27
831,919	69,13
832,332	68,58
832,746	68,46
833,16	68,52
833,573	68,79
833,987	69,25
834,4	68,99
834,813	68,7
835,226	68,31
835,639	68,41
836,052	68,8
836,465	68,71
