Data from D_1_Relative__4__00066.txt Node

Date: Tue Jan 30 09:56:16 CET 2024
User: diatiterra
Spectrometer: HDX00911
Trigger mode: 0
Integration Time (sec): 6,000000E-3
Scans to average: 2
Nonlinearity correction enabled: false
Boxcar width: 0
Storing dark spectrum: false
XAxis mode: Wavelengths
Number of Pixels in Spectrum: 2068
>>>>>Begin Spectral Data<<<<<
194,468	85,82
195,025	76,64
195,581	82,8
196,138	78,95
196,694	81,25
197,251	76,13
197,807	82,32
198,363	65,64
198,919	82,42
199,474	77,91
200,03	69,78
200,586	84,77
201,141	73,77
201,696	75,43
202,251	87,58
202,806	71,95
203,361	68,53
203,916	73,03
204,471	68,75
205,025	75,28
205,58	67,3
206,134	78,33
206,688	78,24
207,242	56,19
207,796	77,33
208,35	86,13
208,904	71,51
209,457	70,3
210,011	83,66
210,564	69,09
211,117	72,46
211,67	75,92
212,223	70,81
212,776	74,61
213,329	69,31
213,881	72,83
214,434	58,69
214,986	71,58
215,538	76,65
216,09	81,72
216,642	79,19
217,194	74,86
217,746	62,5
218,297	80,34
218,849	69,95
219,4	76,51
219,951	79,44
220,502	72,45
221,053	79,68
221,604	71,21
222,155	82,08
222,705	64,74
223,256	77,78
223,806	66,83
224,356	67,24
224,906	76,11
225,456	71,69
226,006	80,12
226,556	65
227,106	75,81
227,655	70,59
228,204	72,63
228,754	65,41
229,303	67,98
229,852	75,4
230,401	79,77
230,949	80,71
231,498	75
232,047	83,61
232,595	65,62
233,143	71,72
233,691	68,47
234,239	84,7
234,787	80,35
235,335	73,94
235,883	81,08
236,43	71,2
236,978	78,53
237,525	80,45
238,072	68,99
238,619	71,33
239,166	72,28
239,713	71,12
240,26	70,9
240,806	82,04
241,353	71,43
241,899	77,01
242,445	75,44
242,991	85,47
243,537	75,43
244,083	82,69
244,629	65,27
245,174	75,26
245,72	82,76
246,265	70,2
246,81	75
247,355	79,47
247,9	79,06
248,445	74,6
248,99	69,94
249,534	75,82
250,079	80,33
250,623	70,95
251,168	83,16
251,712	70,39
252,256	76,97
252,8	73,16
253,343	83,25
253,887	70,85
254,43	85,25
254,974	83,62
255,517	75,15
256,06	84,42
256,603	70,1
257,146	71,5
257,689	81,08
258,232	77,58
258,774	71,02
259,317	77,09
259,859	68,97
260,401	81,44
260,943	64,74
261,485	75,71
262,027	73,6
262,569	75,32
263,11	82,84
263,652	76,3
264,193	72,05
264,734	84,85
265,275	72,82
265,816	74,4
266,357	62,24
266,898	78,16
267,438	71,79
267,979	85,37
268,519	64,74
269,059	76,19
269,6	65,88
270,14	73,56
270,68	78,92
271,219	81,92
271,759	65,45
272,298	82,84
272,838	78,69
273,377	79,12
273,916	82,42
274,455	91,62
274,994	70,3
275,533	81,82
276,072	75
276,61	72,41
277,149	74,57
277,687	90,4
278,225	71,17
278,763	85,16
279,301	76,24
279,839	88,89
280,377	78,26
280,914	69,23
281,452	77,22
281,989	83,33
282,526	64,71
283,064	77,47
283,601	73,94
284,137	79,08
284,674	67,76
285,211	74,4
285,747	73,94
286,284	84,75
286,82	88,82
287,356	65,82
287,892	85,53
288,428	69,28
288,964	86,63
289,5	94,66
290,035	80,36
290,571	90,53
291,106	70,91
291,641	71,52
292,176	83,24
292,711	79,41
293,246	75,82
293,781	86,27
294,315	74,01
294,85	76,69
295,384	73,38
295,918	77,66
296,453	77,89
296,987	70,41
297,52	68,99
298,054	71,35
298,588	86,75
299,121	72,73
299,655	70,06
300,188	90,57
300,721	77,51
301,254	68,05
301,787	87,5
302,32	61,41
302,853	82,86
303,385	79,89
303,918	69,08
304,45	68,79
304,982	80,23
305,514	70,56
306,046	71,95
306,578	86,62
307,11	90,06
307,641	69,82
308,173	72,25
308,704	81,44
309,236	72,39
309,767	75,93
310,298	82,86
310,829	80
311,359	80,59
311,89	75,93
312,421	73,62
312,951	80,57
313,481	79,22
314,012	81,14
314,542	92,5
315,072	83,89
315,601	78,49
316,131	76,33
316,661	81,71
317,19	78,01
317,72	68,75
318,249	73,83
318,778	83,71
319,307	87,65
319,836	76,6
320,365	86,14
320,893	86,26
321,422	79,38
321,95	82,63
322,479	96,05
323,007	71,84
323,535	87,77
324,063	80,43
324,591	75,69
325,118	74,38
325,646	73,14
326,173	81,71
326,701	79,64
327,228	80,87
327,755	79,56
328,282	76,11
328,809	82,56
329,336	72,22
329,862	85,48
330,389	99,34
330,915	86,31
331,441	91,86
331,968	82,24
332,494	70,72
333,02	78,61
333,545	80,7
334,071	88,89
334,597	80,65
335,122	84,71
335,648	87,64
336,173	84,71
336,698	93,38
337,223	97,76
337,748	100,61
338,272	70,91
338,797	84,21
339,322	74,85
339,846	79,33
340,37	84,85
340,894	85,03
341,419	75,69
341,942	68,45
342,466	63,7
342,99	73,3
343,514	76,19
344,037	69,23
344,56	73,63
345,084	81,29
345,607	83,15
346,13	76,88
346,653	80
347,175	77,46
347,698	66,36
348,221	79,68
348,743	87,76
349,265	77,37
349,787	67,87
350,309	77,89
350,831	72,95
351,353	63,21
351,875	79,4
352,397	69,01
352,918	70,48
353,439	60,71
353,961	66,16
354,482	69,06
355,003	72,69
355,524	62,22
356,044	69,57
356,565	69,67
357,086	62,5
357,606	61,97
358,126	62,39
358,646	59,72
359,167	59,03
359,687	66,37
360,206	65,32
360,726	65,25
361,246	69,96
361,765	60,43
362,285	65,89
362,804	61,82
363,323	66,67
363,842	60,34
364,361	60,91
364,88	64,73
365,398	60,47
365,917	67,09
366,435	64,66
366,954	61,18
367,472	55,16
367,99	63,6
368,508	60,08
369,026	59,64
369,544	57,55
370,061	66,8
370,579	60,66
371,096	64,5
371,613	60,87
372,131	61,75
372,648	61,67
373,165	61,51
373,681	63,67
374,198	56,67
374,715	57,19
375,231	60,74
375,747	52,94
376,264	54,83
376,78	58,84
377,296	51,35
377,812	56,94
378,327	58,97
378,843	53,54
379,359	52,08
379,874	56,1
380,389	56,43
380,905	53,57
381,42	50
381,935	51,41
382,449	52,9
382,964	54,82
383,479	51,51
383,993	52,78
384,508	48,51
385,022	53,17
385,536	49,38
386,05	48,58
386,564	45,41
387,078	48,04
387,592	56,46
388,105	46,96
388,619	45,45
389,132	45,59
389,645	47,92
390,158	43,47
390,671	48,76
391,184	42,41
391,697	45,77
392,21	46,86
392,722	49,02
393,235	39,7
393,747	47,78
394,259	39,96
394,771	41,6
395,283	39,51
395,795	41,43
396,307	42,29
396,818	41,27
397,33	38,45
397,841	37,91
398,353	39,15
398,864	35,78
399,375	40,68
399,886	35,45
400,397	35,99
400,907	35,32
401,418	38,42
401,928	35,43
402,439	36,97
402,949	34
403,459	34,18
403,969	31,64
404,479	33,12
404,989	33,04
405,498	30,77
406,008	32,7
406,517	27,85
407,027	30,75
407,536	28,23
408,045	26,47
408,554	25,34
409,063	24,58
409,572	25,76
410,08	24,39
410,589	23,06
411,097	22,66
411,606	19,86
412,114	19,92
412,622	20,31
413,13	19,05
413,638	19,78
414,145	20,35
414,653	17,28
415,16	17,95
415,668	18
416,175	15,74
416,682	17,01
417,189	15,47
417,696	16,35
418,203	16,04
418,71	14,95
419,216	16,02
419,723	14,17
420,229	15,1
420,735	13,44
421,242	14,4
421,748	14,09
422,254	14,44
422,759	12,55
423,265	13,24
423,771	12,78
424,276	13,52
424,781	13,77
425,287	12,74
425,792	13,77
426,297	13,28
426,802	13,49
427,306	12,95
427,811	12,57
428,316	13,72
428,82	12,77
429,324	11,67
429,829	13,22
430,333	12,49
430,837	12,41
431,34	11,74
431,844	12,69
432,348	12,66
432,851	13,04
433,355	11,18
433,858	11,71
434,361	12,21
434,864	12,08
435,367	12,83
435,87	11,93
436,373	11,85
436,876	12,02
437,378	11,3
437,88	11,21
438,383	12,4
438,885	11,87
439,387	11,05
439,889	11,39
440,391	11,27
440,892	11,4
441,394	11,62
441,896	11,16
442,397	10,88
442,898	11,03
443,399	11,68
443,9	11,07
444,401	10,73
444,902	11,52
445,403	11,51
445,903	11,98
446,404	12,34
446,904	11,31
447,405	11,06
447,905	11,2
448,405	11,65
448,905	11,37
449,404	11,57
449,904	11,52
450,404	11,47
450,903	11,41
451,403	11,56
451,902	11,25
452,401	11,33
452,9	11,14
453,399	11,76
453,898	10,98
454,396	10,75
454,895	11,44
455,393	11,99
455,892	11,29
456,39	10,81
456,888	11,78
457,386	11,9
457,884	11,76
458,382	11,29
458,879	11,4
459,377	11,37
459,874	10,69
460,372	12,22
460,869	11,4
461,366	10,82
461,863	11,58
462,36	11,54
462,857	11,28
463,353	11,16
463,85	11,25
464,346	11,49
464,843	11,76
465,339	11,78
465,835	11,13
466,331	11,16
466,827	11,82
467,323	11,07
467,818	10,94
468,314	12,09
468,809	11,72
469,305	10,74
469,8	11,56
470,295	10,87
470,79	11,56
471,285	11,62
471,78	10,88
472,274	11,34
472,769	11,19
473,263	11,41
473,758	11,87
474,252	10,95
474,746	11,59
475,24	11,03
475,734	12,04
476,228	11,26
476,721	10,98
477,215	11,14
477,708	11,74
478,202	11,99
478,695	11,6
479,188	11,59
479,681	11,17
480,174	11,24
480,667	11,91
481,159	11,4
481,652	11,51
482,144	11,71
482,637	11,29
483,129	11,26
483,621	11,53
484,113	11,28
484,605	12,03
485,097	11,48
485,588	11,37
486,08	11,37
486,571	11,68
487,063	12,02
487,554	11,25
488,045	11,2
488,536	11,5
489,027	11,87
489,518	12,29
490,008	11,81
490,499	11,84
490,989	11,87
491,48	12,07
491,97	12,09
492,46	11,43
492,95	11,48
493,44	11,75
493,93	11,84
494,419	12,52
494,909	12
495,398	12,42
495,888	12,61
496,377	12,24
496,866	12,58
497,355	12,86
497,844	12,87
498,333	12,74
498,821	12,97
499,31	12,88
499,798	13,57
500,287	13,15
500,775	12,63
501,263	13,69
501,751	13,87
502,239	13,56
502,727	13,75
503,215	14,01
503,702	13,83
504,19	14,42
504,677	14,57
505,164	14,43
505,651	14,97
506,139	15,52
506,625	15
507,112	15,46
507,599	16,48
508,086	15,83
508,572	16,61
509,058	16,25
509,545	16,58
510,031	16,91
510,517	17,26
511,003	17,56
511,489	18,15
511,974	18,42
512,46	18,37
512,946	18,83
513,431	19,36
513,916	20,54
514,401	19,76
514,887	20,41
515,371	21,01
515,856	21,12
516,341	21,15
516,826	22,26
517,31	22,49
517,795	23,25
518,279	23,33
518,763	24,2
519,247	24,03
519,731	24,67
520,215	24,87
520,699	25,22
521,182	25,56
521,666	26,48
522,149	26,47
522,633	27,05
523,116	27,49
523,599	28,2
524,082	28,77
524,565	29,88
525,048	29,16
525,53	30,74
526,013	30,32
526,495	31,48
526,978	31,29
527,46	31,61
527,942	31,59
528,424	32,64
528,906	32,32
529,388	32,84
529,87	34,2
530,351	32,81
530,833	34,96
531,314	33,72
531,795	34,79
532,277	34,3
532,758	35,36
533,238	35,12
533,719	35,15
534,2	35
534,681	36,17
535,161	35,52
535,642	36,36
536,122	35,78
536,602	36,74
537,082	36,14
537,562	36,09
538,042	36,14
538,522	37,09
539,001	36,62
539,481	36,86
539,96	37,21
540,44	37,25
540,919	36,8
541,398	36,44
541,877	36,42
542,356	36,87
542,835	37,55
543,313	37,02
543,792	37,07
544,27	37,03
544,749	37,44
545,227	37,93
545,705	37,36
546,183	38,06
546,661	37,79
547,139	37,52
547,616	38,04
548,094	37,85
548,571	38,04
549,049	38,08
549,526	38,32
550,003	37,6
550,48	38,13
550,957	38,14
551,434	38,32
551,911	38,51
552,387	38,03
552,864	38,81
553,34	38,68
553,817	38,19
554,293	38,25
554,769	38,14
555,245	37,54
555,721	38,64
556,197	38,01
556,672	38,22
557,148	37,65
557,623	38,5
558,099	37,75
558,574	37,81
559,049	38,17
559,524	38,11
559,999	37,03
560,474	36,53
560,948	37,29
561,423	37,05
561,897	37,47
562,372	36,98
562,846	37,28
563,32	36,9
563,794	36,52
564,268	36,31
564,742	36,91
565,216	35,82
565,69	35,24
566,163	35,88
566,636	35,78
567,11	34,7
567,583	35,03
568,056	35,1
568,529	34,84
569,002	34,06
569,475	34,13
569,947	33,89
570,42	34
570,892	33,59
571,365	32,76
571,837	32,77
572,309	31,98
572,781	32,35
573,253	32,07
573,725	31,9
574,197	31,95
574,668	31,07
575,14	30,37
575,611	30,67
576,082	30,58
576,554	29,9
577,025	29,95
577,496	29,72
577,967	29,3
578,437	28,88
578,908	28,72
579,379	29,15
579,849	29,17
580,319	28,91
580,79	28,68
581,26	27,98
581,73	27,92
582,2	28,03
582,669	27,48
583,139	26,93
583,609	27,13
584,078	27,23
584,548	27,17
585,017	26,63
585,486	26,64
585,955	26,33
586,424	26,69
586,893	26,53
587,362	26,21
587,83	26,42
588,299	26,56
588,767	26,12
589,236	25,85
589,704	25,69
590,172	25,43
590,64	25,96
591,108	25,19
591,576	25,11
592,043	25,53
592,511	25,08
592,978	24,99
593,446	25,04
593,913	24,53
594,38	24,45
594,847	25,05
595,314	24,3
595,781	24,77
596,248	24,53
596,715	24,97
597,181	23,93
597,647	24,72
598,114	24,58
598,58	23,52
599,046	24,21
599,512	23,86
599,978	24,11
600,444	24,23
600,91	24,36
601,375	23,93
601,841	24,22
602,306	23,94
602,771	23,79
603,236	23,48
603,702	23,79
604,167	23,27
604,631	22,81
605,096	23,53
605,561	22,91
606,025	23,37
606,49	22,72
606,954	22,61
607,418	22,54
607,882	22,91
608,347	22,76
608,81	22,65
609,274	22,2
609,738	22,31
610,202	21,87
610,665	21,71
611,128	21,57
611,592	21,36
612,055	21,1
612,518	21,16
612,981	21,26
613,444	21
613,907	20,56
614,369	20,54
614,832	20,57
615,294	20,19
615,757	20,18
616,219	20,27
616,681	20,29
617,143	19,83
617,605	20,01
618,067	19,34
618,529	19,36
618,99	19,1
619,452	19,8
619,913	19,28
620,375	18,92
620,836	18,98
621,297	18,99
621,758	18,64
622,219	18,68
622,68	18,61
623,14	18,87
623,601	18,92
624,061	18,45
624,522	18,59
624,982	18,5
625,442	18,33
625,902	18,48
626,362	18,2
626,822	18,36
627,282	18,43
627,742	18,79
628,201	18,23
628,661	18,05
629,12	18,37
629,579	18,01
630,038	17,91
630,497	18,19
630,956	17,83
631,415	18,14
631,874	17,94
632,332	17,96
632,791	17,91
633,249	17,8
633,708	17,89
634,166	17,43
634,624	17,44
635,082	17,75
635,54	17,6
635,998	17,35
636,455	16,98
636,913	17,21
637,37	17,16
637,828	16,8
638,285	16,47
638,742	16,72
639,199	16,44
639,656	16,33
640,113	16,04
640,57	15,81
641,027	15,84
641,483	15,7
641,94	15,7
642,396	15,26
642,852	15,52
643,309	15,15
643,765	14,71
644,221	14,77
644,676	14,58
645,132	14,51
645,588	14,5
646,043	14,22
646,499	14,17
646,954	13,65
647,409	13,69
647,864	13,6
648,319	13,55
648,774	13,48
649,229	13,37
649,684	13,39
650,139	13,06
650,593	13,15
651,047	13,15
651,502	13,07
651,956	12,85
652,41	12,54
652,864	12,8
653,318	12,44
653,772	12,62
654,225	12,3
654,679	12,48
655,133	12,45
655,586	12,37
656,039	12,04
656,492	12,21
656,946	12,41
657,399	11,94
657,851	11,79
658,304	11,91
658,757	11,68
659,209	11,59
659,662	11,36
660,114	11,44
660,567	11,21
661,019	11,34
661,471	11,29
661,923	11,26
662,375	11,1
662,826	11,08
663,278	11,24
663,73	10,97
664,181	10,79
664,632	10,97
665,084	10,95
665,535	10,78
665,986	10,87
666,437	10,58
666,888	10,68
667,338	10,74
667,789	10,62
668,24	10,79
668,69	10,97
669,14	10,83
669,591	10,81
670,041	10,69
670,491	10,69
670,941	11,17
671,391	11,15
671,84	11,09
672,29	11,13
672,74	11,25
673,189	11,12
673,638	11,36
674,088	11,69
674,537	11,5
674,986	11,76
675,435	11,88
675,883	11,9
676,332	11,95
676,781	11,88
677,229	12,05
677,678	12,54
678,126	12,3
678,574	12,35
679,022	12,77
679,47	12,93
679,918	12,85
680,366	12,89
680,814	13,36
681,261	13,4
681,709	13,6
682,156	13,68
682,604	13,75
683,051	13,99
683,498	14,35
683,945	14,5
684,392	14,52
684,839	14,71
685,286	14,6
685,732	14,84
686,179	15,16
686,625	15,38
687,071	15,39
687,518	15,58
687,964	15,76
688,41	15,86
688,856	16,58
689,301	16,77
689,747	17,19
690,193	17,22
690,638	17,88
691,084	18,2
691,529	18,57
691,974	19,48
692,419	19,89
692,864	20,46
693,309	21,27
693,754	21,81
694,199	22,56
694,643	23,64
695,088	23,8
695,532	24,93
695,977	25,42
696,421	26,54
696,865	27,08
697,309	28,05
697,753	28,69
698,197	29,43
698,64	30,51
699,084	31,37
699,527	32,47
699,971	32,73
700,414	33,79
700,857	34,17
701,3	35,32
701,743	36,26
702,186	36,63
702,629	37,68
703,072	38,16
703,515	39,11
703,957	39,97
704,399	40,79
704,842	41,57
705,284	42,42
705,726	42,72
706,168	43,06
706,61	44
707,052	44,95
707,494	45,79
707,935	45,79
708,377	46,57
708,818	47,63
709,26	48,09
709,701	48,59
710,142	48,79
710,583	49,58
711,024	50,25
711,465	50,7
711,905	51,4
712,346	52,03
712,787	52,56
713,227	52,58
713,667	53,47
714,108	53,99
714,548	54,68
714,988	54,93
715,428	55,07
715,868	56,32
716,307	56,53
716,747	56,93
717,186	57,44
717,626	58,14
718,065	58,36
718,504	59,11
718,944	58,7
719,383	59,73
719,822	60,36
720,261	60,47
720,699	61,11
721,138	60,96
721,576	61,44
722,015	62,22
722,453	62,39
722,892	62,74
723,33	62,95
723,768	62,6
724,206	63,6
724,644	63,91
725,081	64,41
725,519	64,76
725,957	64,83
726,394	65,35
726,832	65,15
727,269	65,94
727,706	65,45
728,143	65,81
728,58	66,39
729,017	66,96
729,454	66,08
729,89	67,01
730,327	67,49
730,764	67,15
731,2	67,47
731,636	67,22
732,072	67,35
732,509	67,85
732,945	67,48
733,38	67,86
733,816	68,4
734,252	68,76
734,688	68,81
735,123	68,53
735,559	69,15
735,994	68,28
736,429	68,95
736,864	68,66
737,299	69,14
737,734	69,02
738,169	69,22
738,604	69,3
739,038	68,52
739,473	69,91
739,907	70,32
740,342	69,71
740,776	69,49
741,21	69,37
741,644	69,83
742,078	69,76
742,512	69,01
742,946	69,96
743,379	69,56
743,813	69,52
744,246	69,51
744,68	69,63
745,113	69,4
745,546	70,17
745,979	70,08
746,412	69,31
746,845	69,85
747,278	69,1
747,711	69,19
748,143	68,95
748,576	69,23
749,008	69,73
749,441	69,65
749,873	69,11
750,305	69,21
750,737	69,15
751,169	69,03
751,601	69,06
752,032	68,53
752,464	69,46
752,896	69,23
753,327	69,19
753,758	69,54
754,19	68,74
754,621	68,54
755,052	69,65
755,483	69,03
755,914	68,52
756,344	68,94
756,775	68,24
757,206	69,1
757,636	68,35
758,066	68,76
758,497	68,22
758,927	68,41
759,357	68,42
759,787	68,02
760,217	68,24
760,647	68,29
761,076	68,37
761,506	67,93
761,935	68,77
762,365	68,33
762,794	68
763,223	67,9
763,653	68,41
764,082	68,28
764,51	67,85
764,939	67,47
765,368	67,71
765,797	67,63
766,225	68,01
766,654	67,4
767,082	67,35
767,51	67,12
767,938	67,8
768,367	67,77
768,795	67,31
769,222	67,86
769,65	66,75
770,078	67,14
770,505	66,96
770,933	66,95
771,36	67,61
771,788	66,91
772,215	66,69
772,642	66,78
773,069	66,97
773,496	66,8
773,923	66,76
774,349	66,8
774,776	66,97
775,203	66,46
775,629	67,14
776,055	66,26
776,482	66,26
776,908	66,73
777,334	66,89
777,76	66,57
778,186	66,39
778,611	66,3
779,037	66,58
779,463	66,51
779,888	66,27
780,314	66,93
780,739	67,19
781,164	66,37
781,589	66,23
782,014	66,16
782,439	65,79
782,864	66,54
783,289	66,76
783,713	66,29
784,138	66,27
784,562	66,43
784,987	65,88
785,411	66,38
785,835	66,19
786,259	65,63
786,683	65,99
787,107	65,82
787,531	66,54
787,954	66,15
788,378	65,89
788,802	66,07
789,225	65,66
789,648	66,12
790,071	65,85
790,495	65,58
790,918	65,58
791,34	65,79
791,763	65,16
792,186	65,77
792,609	66,21
793,031	66,09
793,454	66,21
793,876	65,71
794,298	66,27
794,721	66,01
795,143	66,61
795,565	66,02
795,986	65,36
796,408	65,48
796,83	65,84
797,252	65,76
797,673	65,52
798,094	66,21
798,516	65,98
798,937	66,02
799,358	65,42
799,779	65,2
800,2	65,56
800,621	65,67
801,042	65,46
801,462	65,47
801,883	65,7
802,303	65,04
802,724	65,6
803,144	65,71
803,564	65,6
803,984	65,47
804,404	65,82
804,824	65,43
805,244	65,75
805,664	65,93
806,084	65,98
806,503	65,5
806,923	66,26
807,342	65,25
807,761	65,1
808,18	65,12
808,599	65,48
809,018	66,07
809,437	65,22
809,856	65,51
810,275	64,72
810,693	64,95
811,112	65,37
811,53	65,26
811,949	65,22
812,367	64,79
812,785	65,63
813,203	65,72
813,621	65,47
814,039	65,02
814,457	65,72
814,874	65,4
815,292	64,57
815,709	65,77
816,127	65,74
816,544	65,22
816,961	65,26
817,378	65,17
817,795	65,7
818,212	65,7
818,629	65,75
819,046	65,54
819,462	65,34
819,879	65,48
820,295	65,44
820,712	65,55
821,128	65,31
821,544	65,57
821,96	65,27
822,376	65,16
822,792	65,27
823,208	65,37
823,624	65,4
824,039	65,49
824,455	64,86
824,87	64,82
825,286	65,1
825,701	65,42
826,116	65,01
826,531	64,71
826,946	65,33
827,361	65,73
827,776	64,59
828,19	65,55
828,605	65,64
829,02	64,16
829,434	64,35
829,848	65,15
830,263	65,02
830,677	65,15
831,091	65,14
831,505	64,86
831,919	65,61
832,332	65,72
832,746	64,91
833,16	65
833,573	65,12
833,987	65,62
