Data from D_3_Relative__5__00075.txt Node

Date: Tue Jan 30 10:01:48 CET 2024
User: diatiterra
Spectrometer: HDX00911
Trigger mode: 0
Integration Time (sec): 6,000000E-3
Scans to average: 2
Nonlinearity correction enabled: false
Boxcar width: 0
Storing dark spectrum: false
XAxis mode: Wavelengths
Number of Pixels in Spectrum: 2068
>>>>>Begin Spectral Data<<<<<
194,468	86,19
195,025	74,19
195,581	76,52
196,138	75,8
196,694	71,14
197,251	75,33
197,807	68,33
198,363	59,84
198,919	65,11
199,474	67,37
200,03	65,75
200,586	70,48
201,141	65,97
201,696	61,76
202,251	64,68
202,806	60,85
203,361	66,26
203,916	68,05
204,471	68,32
205,025	63,18
205,58	63,59
206,134	62,55
206,688	65,24
207,242	69,37
207,796	66,1
208,35	74,89
208,904	60,48
209,457	60,08
210,011	67,25
210,564	61,26
211,117	72,77
211,67	68,83
212,223	59,76
212,776	69,07
213,329	70,04
213,881	67,97
214,434	58,61
214,986	70,09
215,538	64,57
216,09	65,46
216,642	67,36
217,194	71,77
217,746	66,93
218,297	68,07
218,849	62,36
219,4	61,47
219,951	67,7
220,502	66,54
221,053	74,15
221,604	65,35
222,155	66,95
222,705	60,43
223,256	63,67
223,806	67,08
224,356	73,53
224,906	75,33
225,456	63,87
226,006	63,39
226,556	71,68
227,106	65,98
227,655	66,98
228,204	70,14
228,754	70,89
229,303	71,17
229,852	63,32
230,401	66,37
230,949	62,06
231,498	63,84
232,047	66,39
232,595	63,86
233,143	75
233,691	66,78
234,239	63,74
234,787	67,26
235,335	69,26
235,883	64,41
236,43	69,07
236,978	65,65
237,525	65,96
238,072	60,35
238,619	55,61
239,166	65,52
239,713	62,03
240,26	59,27
240,806	67,67
241,353	69,66
241,899	63,37
242,445	62,76
242,991	66,8
243,537	60,17
244,083	71,49
244,629	57,27
245,174	64,26
245,72	54,83
246,265	71,04
246,81	70,67
247,355	60,58
247,9	67,08
248,445	60,32
248,99	60,43
249,534	60
250,079	74,07
250,623	62,39
251,168	65,31
251,712	54,59
252,256	53,72
252,8	64,6
253,343	62,35
253,887	67,1
254,43	66,67
254,974	66
255,517	67,31
256,06	59,07
256,603	68,31
257,146	56,92
257,689	59,75
258,232	63,8
258,774	58,59
259,317	70,26
259,859	63,33
260,401	62,15
260,943	65,15
261,485	57,73
262,027	61,28
262,569	72,69
263,11	63,72
263,652	52,21
264,193	69,77
264,734	70,83
265,275	65,67
265,816	59,4
266,357	58,92
266,898	69,66
267,438	65,53
267,979	63,79
268,519	65,38
269,059	53,75
269,6	65,04
270,14	62,07
270,68	61,48
271,219	67,39
271,759	63,32
272,298	63,6
272,838	59,76
273,377	72,52
273,916	61,87
274,455	58,85
274,994	64,52
275,533	61,98
276,072	69,36
276,61	72,37
277,149	68,75
277,687	70,76
278,225	64,61
278,763	58,4
279,301	64,08
279,839	63,52
280,377	62,04
280,914	58,8
281,452	64,63
281,989	71,49
282,526	61,25
283,064	59,39
283,601	69,17
284,137	59,56
284,674	54,39
285,211	62,88
285,747	61,42
286,284	69,4
286,82	60,08
287,356	54,22
287,892	55,14
288,428	66,95
288,964	57,68
289,5	57,21
290,035	59,34
290,571	53,7
291,106	65,61
291,641	64,63
292,176	52,4
292,711	49,57
293,246	57,85
293,781	60
294,315	60,93
294,85	61,75
295,384	61,32
295,918	62
296,453	63,56
296,987	64,41
297,52	62,44
298,054	58,37
298,588	62,8
299,121	59,01
299,655	62,74
300,188	58,05
300,721	55,8
301,254	55,16
301,787	62,28
302,32	61,54
302,853	70,21
303,385	61,96
303,918	62,22
304,45	62,01
304,982	63,6
305,514	59,35
306,046	55,31
306,578	53,11
307,11	60,61
307,641	63,03
308,173	61,3
308,704	59,35
309,236	66,09
309,767	60,83
310,298	56
310,829	58,91
311,359	73,45
311,89	62,69
312,421	51,43
312,951	60,67
313,481	68,25
314,012	60,08
314,542	61,71
315,072	56,65
315,601	64,52
316,131	57,51
316,661	59,07
317,19	52,65
317,72	58,47
318,249	64,68
318,778	65,43
319,307	61,29
319,836	66,4
320,365	60,43
320,893	68,9
321,422	64,13
321,95	60
322,479	65,46
323,007	52,19
323,535	64,53
324,063	56,03
324,591	62,07
325,118	53,68
325,646	62,5
326,173	56,25
326,701	52,19
327,228	60
327,755	53,33
328,282	59,09
328,809	55,26
329,336	66,81
329,862	60,22
330,389	59,03
330,915	54,26
331,441	68,78
331,968	49,4
332,494	65,78
333,02	57,74
333,545	54,66
334,071	55,04
334,597	57,85
335,122	62,16
335,648	58,8
336,173	61,02
336,698	58,8
337,223	54,93
337,748	60,39
338,272	61,8
338,797	62,95
339,322	61,54
339,846	55,42
340,37	58,52
340,894	59,49
341,419	56,05
341,942	57,75
342,466	54,87
342,99	55,13
343,514	65,18
344,037	51,88
344,56	57,77
345,084	57,2
345,607	54,72
346,13	56,85
346,653	49,45
347,175	56,36
347,698	59,71
348,221	63,16
348,743	63,77
349,265	52,65
349,787	57,84
350,309	56,2
350,831	48,59
351,353	50,61
351,875	60,07
352,397	46,44
352,918	56,97
353,439	52,99
353,961	53,15
354,482	51,68
355,003	52,37
355,524	49,66
356,044	56
356,565	57,99
357,086	52,92
357,606	45,67
358,126	50,17
358,646	40,34
359,167	51,83
359,687	51,82
360,206	56,87
360,726	47
361,246	54,49
361,765	49,84
362,285	50,34
362,804	46,95
363,323	47,45
363,842	50,5
364,361	52,01
364,88	54,65
365,398	48,04
365,917	50,3
366,435	46,01
366,954	48,94
367,472	49,55
367,99	43,63
368,508	54,85
369,026	50,99
369,544	53,04
370,061	43,43
370,579	46,69
371,096	46,07
371,613	43,7
372,131	48,56
372,648	48,48
373,165	49,87
373,681	43,72
374,198	47,34
374,715	44,59
375,231	42,96
375,747	45,93
376,264	40,78
376,78	44,08
377,296	36,43
377,812	39,4
378,327	48,12
378,843	44,6
379,359	40,09
379,874	41,37
380,389	39,04
380,905	44,59
381,42	38,16
381,935	45,26
382,449	42,77
382,964	38,19
383,479	40,92
383,993	41,6
384,508	37,12
385,022	39,55
385,536	39,03
386,05	36,73
386,564	37,54
387,078	41,88
387,592	36,39
388,105	38,74
388,619	37,16
389,132	36,61
389,645	33,03
390,158	34,17
390,671	33,48
391,184	35,66
391,697	33
392,21	33,42
392,722	31,28
393,235	33,93
393,747	35,25
394,259	31,41
394,771	33,67
395,283	29,24
395,795	30,13
396,307	29,4
396,818	30,64
397,33	32,34
397,841	29,24
398,353	30,19
398,864	27,55
399,375	26,4
399,886	24,7
400,397	28,48
400,907	27,91
401,418	27,82
401,928	26,1
402,439	25,05
402,949	23,48
403,459	24,32
403,969	23,26
404,479	24,55
404,989	23,8
405,498	21,72
406,008	22,97
406,517	21,1
407,027	20,06
407,536	20,1
408,045	18,38
408,554	16,43
409,063	18,37
409,572	17,34
410,08	15,37
410,589	14,87
411,097	15,12
411,606	14,49
412,114	12,44
412,622	13,66
413,13	14
413,638	13,41
414,145	13,4
414,653	12,14
415,16	11,68
415,668	12,09
416,175	12,23
416,682	10,67
417,189	10,49
417,696	10,74
418,203	10,95
418,71	10,07
419,216	10,32
419,723	10,43
420,229	10,67
420,735	9,88
421,242	9,7
421,748	9,99
422,254	10,6
422,759	9,01
423,265	8,58
423,771	8,26
424,276	9,33
424,781	8,9
425,287	8,16
425,792	8,21
426,297	8,37
426,802	8,27
427,306	8,7
427,811	8,24
428,316	9,25
428,82	8,28
429,324	8,33
429,829	8,63
430,333	8,37
430,837	8,06
431,34	7,64
431,844	8,33
432,348	8,56
432,851	8,25
433,355	7,69
433,858	8,19
434,361	8,23
434,864	7,53
435,367	8,49
435,87	7,08
436,373	8,19
436,876	8,45
437,378	7,67
437,88	7,08
438,383	8,16
438,885	7,41
439,387	7,32
439,889	7,39
440,391	7,35
440,892	7,7
441,394	7,32
441,896	7,15
442,397	7,8
442,898	7,62
443,399	7,37
443,9	7,18
444,401	7,65
444,902	7,98
445,403	7,44
445,903	7,71
446,404	7,79
446,904	7,18
447,405	7,42
447,905	7,79
448,405	7,37
448,905	7,28
449,404	6,93
449,904	7,11
450,404	7,84
450,903	7,94
451,403	7,15
451,902	7,74
452,401	7,48
452,9	7,59
453,399	7,68
453,898	7,65
454,396	8,11
454,895	7,88
455,393	7,99
455,892	7,96
456,39	7,66
456,888	8,17
457,386	7,37
457,884	7,92
458,382	8,01
458,879	8,02
459,377	7,89
459,874	7,58
460,372	8,01
460,869	7,5
461,366	7,85
461,863	7,89
462,36	7,55
462,857	7,6
463,353	7,84
463,85	7,64
464,346	7,99
464,843	7,66
465,339	7,96
465,835	7,8
466,331	7,53
466,827	7,63
467,323	7,77
467,818	7,17
468,314	7,63
468,809	7,5
469,305	7,59
469,8	7,76
470,295	7,85
470,79	7,69
471,285	7,86
471,78	7,64
472,274	7,95
472,769	7,96
473,263	7,73
473,758	7,9
474,252	7,68
474,746	7,4
475,24	7,58
475,734	7,8
476,228	7,33
476,721	7,46
477,215	7,31
477,708	7,57
478,202	7,45
478,695	7,5
479,188	7,81
479,681	7,86
480,174	7,4
480,667	7,61
481,159	7,33
481,652	7,73
482,144	7,5
482,637	7,56
483,129	7,4
483,621	8,02
484,113	7,65
484,605	7,78
485,097	7,91
485,588	8,08
486,08	8,03
486,571	7,67
487,063	8,24
487,554	7,91
488,045	7,84
488,536	7,59
489,027	8,12
489,518	7,71
490,008	7,96
490,499	8,1
490,989	8,07
491,48	8,18
491,97	8,21
492,46	7,87
492,95	8,45
493,44	8,61
493,93	8,29
494,419	8,61
494,909	8,36
495,398	8,69
495,888	8,58
496,377	8,65
496,866	8,77
497,355	8,94
497,844	8,73
498,333	9,31
498,821	9,15
499,31	9,08
499,798	9,5
500,287	9,49
500,775	9,46
501,263	9,92
501,751	9,74
502,239	10,17
502,727	10,04
503,215	10,06
503,702	10,34
504,19	10,7
504,677	10,75
505,164	11,19
505,651	11,1
506,139	11,23
506,625	11,36
507,112	11,85
507,599	11,67
508,086	12,47
508,572	12,35
509,058	12,61
509,545	12,95
510,031	12,83
510,517	13,28
511,003	13,43
511,489	14,05
511,974	14,16
512,46	14,65
512,946	14,95
513,431	14,63
513,916	15,17
514,401	15,22
514,887	15,59
515,371	16,22
515,856	16,62
516,341	17,05
516,826	16,98
517,31	17,59
517,795	18,04
518,279	17,92
518,763	18,21
519,247	18,98
519,731	19,45
520,215	19,51
520,699	20,13
521,182	20,22
521,666	20,64
522,149	20,34
522,633	20,79
523,116	21,24
523,599	22,15
524,082	22,11
524,565	22,39
525,048	22,35
525,53	22,58
526,013	23,37
526,495	23,57
526,978	23,62
527,46	24,28
527,942	24,5
528,424	24,41
528,906	25,02
529,388	24,89
529,87	25,39
530,351	25,64
530,833	25,68
531,314	26,17
531,795	26,49
532,277	26,01
532,758	26,27
533,238	27,08
533,719	26,48
534,2	26,47
534,681	26,88
535,161	27,17
535,642	27,04
536,122	27,26
536,602	27,5
537,082	27,23
537,562	27,59
538,042	27,82
538,522	27,57
539,001	27,38
539,481	28,14
539,96	27,6
540,44	28,01
540,919	28,42
541,398	27,61
541,877	27,74
542,356	28,43
542,835	28,43
543,313	28,31
543,792	28,05
544,27	28,47
544,749	28,24
545,227	28,42
545,705	27,84
546,183	28,16
546,661	29,08
547,139	28,64
547,616	28,8
548,094	28,89
548,571	28,7
549,049	28,46
549,526	28,52
550,003	28,65
550,48	29,2
550,957	28,93
551,434	29,1
551,911	28,9
552,387	29,37
552,864	28,66
553,34	28,86
553,817	28,74
554,293	29,03
554,769	28,71
555,245	29,13
555,721	28,77
556,197	28,94
556,672	28,82
557,148	28,87
557,623	29,11
558,099	28,89
558,574	28,27
559,049	28,46
559,524	28,34
559,999	28,55
560,474	28,63
560,948	28,31
561,423	27,85
561,897	27,96
562,372	28,32
562,846	28,17
563,32	27,84
563,794	27,33
564,268	27,66
564,742	27,67
565,216	27,43
565,69	27,02
566,163	27,38
566,636	27,15
567,11	26,93
567,583	26,98
568,056	26,25
568,529	25,92
569,002	26,28
569,475	25,83
569,947	25,74
570,42	25,68
570,892	25,33
571,365	25
571,837	25,11
572,309	24,75
572,781	24,27
573,253	24,51
573,725	24,13
574,197	23,85
574,668	23,98
575,14	23,79
575,611	23,69
576,082	23,39
576,554	23,48
577,025	23,13
577,496	22,95
577,967	22,44
578,437	22,52
578,908	22,69
579,379	22,06
579,849	22,11
580,319	22,22
580,79	22,29
581,26	21,66
581,73	21,65
582,2	21,74
582,669	21,45
583,139	21,02
583,609	21,06
584,078	21,28
584,548	20,9
585,017	21,11
585,486	20,46
585,955	20,52
586,424	20,23
586,893	20,12
587,362	20,41
587,83	20,14
588,299	20,21
588,767	20,19
589,236	19,81
589,704	19,97
590,172	19,96
590,64	19,67
591,108	19,62
591,576	19,63
592,043	19,39
592,511	19,2
592,978	19,12
593,446	19,11
593,913	19,25
594,38	19,39
594,847	19,48
595,314	19,23
595,781	19,47
596,248	19,14
596,715	18,92
597,181	19,22
597,647	19
598,114	19,08
598,58	18,93
599,046	19,1
599,512	18,55
599,978	18,74
600,444	18,58
600,91	18,7
601,375	18,75
601,841	18,49
602,306	18,63
602,771	18,51
603,236	18,2
603,702	18,17
604,167	18,01
604,631	18,29
605,096	17,89
605,561	18,05
606,025	18,06
606,49	17,8
606,954	17,99
607,418	17,86
607,882	17,39
608,347	17,73
608,81	17,62
609,274	17,08
609,738	17,33
610,202	17,29
610,665	16,86
611,128	16,96
611,592	16,91
612,055	16,83
612,518	16,68
612,981	16,83
613,444	16,57
613,907	16,31
614,369	16,1
614,832	16,37
615,294	16,01
615,757	16,03
616,219	15,73
616,681	15,76
617,143	15,65
617,605	15,41
618,067	15,32
618,529	15,51
618,99	15,49
619,452	15,31
619,913	15,13
620,375	15,16
620,836	15,26
621,297	14,98
621,758	14,81
622,219	14,66
622,68	14,86
623,14	14,61
623,601	14,89
624,061	14,64
624,522	14,84
624,982	14,59
625,442	14,66
625,902	14,48
626,362	14,46
626,822	14,73
627,282	14,73
627,742	14,2
628,201	14,2
628,661	14,66
629,12	14,39
629,579	14,25
630,038	14,68
630,497	14,24
630,956	14,23
631,415	14,23
631,874	14,09
632,332	14,21
632,791	14,27
633,249	14,14
633,708	14,14
634,166	13,95
634,624	14,06
635,082	13,93
635,54	13,87
635,998	13,66
636,455	13,53
636,913	13,51
637,37	13,35
637,828	13,37
638,285	13,11
638,742	13,23
639,199	12,89
639,656	12,82
640,113	12,64
640,57	12,68
641,027	12,42
641,483	12,21
641,94	12,25
642,396	12,01
642,852	11,94
643,309	11,45
643,765	11,74
644,221	11,33
644,676	11,2
645,132	11,13
645,588	10,96
646,043	10,84
646,499	10,85
646,954	10,88
647,409	10,62
647,864	10,4
648,319	10,46
648,774	10,09
649,229	10,14
649,684	10,12
650,139	9,98
650,593	9,86
651,047	9,65
651,502	9,79
651,956	9,64
652,41	9,51
652,864	9,44
653,318	9,48
653,772	9,51
654,225	9,46
654,679	9,49
655,133	9,14
655,586	9,22
656,039	9,12
656,492	9,13
656,946	9,22
657,399	8,85
657,851	8,9
658,304	9,05
658,757	8,74
659,209	8,69
659,662	8,64
660,114	8,35
660,567	8,27
661,019	8,28
661,471	8,31
661,923	8,18
662,375	7,86
662,826	7,94
663,278	7,82
663,73	7,84
664,181	7,85
664,632	7,82
665,084	7,45
665,535	7,6
665,986	7,48
666,437	7,35
666,888	7,45
667,338	7,5
667,789	7,33
668,24	7,36
668,69	7,3
669,14	7,28
669,591	7,28
670,041	7,5
670,491	7,34
670,941	7,53
671,391	7,38
671,84	7,49
672,29	7,55
672,74	7,53
673,189	7,57
673,638	7,6
674,088	7,83
674,537	7,92
674,986	7,81
675,435	7,77
675,883	8,13
676,332	8,05
676,781	8,15
677,229	8,28
677,678	8,29
678,126	8,32
678,574	8,62
679,022	8,68
679,47	8,71
679,918	8,91
680,366	9,07
680,814	9,2
681,261	9,26
681,709	9,36
682,156	9,47
682,604	9,45
683,051	9,71
683,498	9,97
683,945	9,98
684,392	10,2
684,839	10,39
685,286	10,53
685,732	10,68
686,179	10,63
686,625	11,2
687,071	11,3
687,518	11,51
687,964	11,6
688,41	12,06
688,856	12,1
689,301	12,56
689,747	12,97
690,193	13,4
690,638	13,8
691,084	14,13
691,529	14,57
691,974	14,97
692,419	15,32
692,864	16,29
693,309	16,82
693,754	17,28
694,199	17,67
694,643	18,21
695,088	18,58
695,532	19,37
695,977	20,07
696,421	20,75
696,865	20,94
697,309	21,94
697,753	22,45
698,197	23,28
698,64	23,79
699,084	24,19
699,527	24,98
699,971	25,57
700,414	26,21
700,857	26,26
701,3	27,05
701,743	27,54
702,186	28,05
702,629	28,23
703,072	29,2
703,515	29,31
703,957	29,84
704,399	30,3
704,842	31,06
705,284	31,44
705,726	31,74
706,168	32,34
706,61	32,78
707,052	33,15
707,494	33,4
707,935	34,31
708,377	34,3
708,818	34,65
709,26	35,32
709,701	35,44
710,142	35,77
710,583	36,32
711,024	36,62
711,465	37,14
711,905	37,05
712,346	37,48
712,787	37,82
713,227	38,67
713,667	38,42
714,108	39,1
714,548	39,25
714,988	39,68
715,428	39,83
715,868	40,23
716,307	40,48
716,747	40,82
717,186	41,06
717,626	41,42
718,065	41,5
718,504	41,88
718,944	41,83
719,383	41,97
719,822	42,3
720,261	42,48
720,699	42,85
721,138	43,26
721,576	43,23
722,015	43,26
722,453	43,93
722,892	44,13
723,33	44,34
723,768	44,61
724,206	44,5
724,644	44,5
725,081	44,61
725,519	44,67
725,957	44,65
726,394	45,47
726,832	45,35
727,269	45,39
727,706	45,61
728,143	45,74
728,58	46,38
729,017	45,9
729,454	45,89
729,89	46,19
730,327	46,81
730,764	46,23
731,2	46,99
731,636	46,8
732,072	46,71
732,509	46,68
732,945	46,94
733,38	47
733,816	47,35
734,252	47,31
734,688	46,97
735,123	47,35
735,559	47,39
735,994	47,44
736,429	46,91
736,864	47,73
737,299	47,42
737,734	47,05
738,169	47,87
738,604	47,46
739,038	47,92
739,473	47,72
739,907	47,86
740,342	48
740,776	47,72
741,21	47,48
741,644	47,74
742,078	47,7
742,512	47,96
742,946	47,53
743,379	47,76
743,813	48,08
744,246	47,98
744,68	47,94
745,113	47,95
745,546	47,81
745,979	47,53
746,412	47,44
746,845	47,64
747,278	47,45
747,711	47,62
748,143	47,64
748,576	47,61
749,008	47,39
749,441	47,47
749,873	47,3
750,305	47,44
750,737	47,53
751,169	47,46
751,601	47,35
752,032	47,07
752,464	47,22
752,896	47,24
753,327	47,49
753,758	47,51
754,19	47,29
754,621	47,33
755,052	46,77
755,483	47,06
755,914	46,83
756,344	46,93
756,775	46,94
757,206	46,88
757,636	46,9
758,066	46,94
758,497	46,89
758,927	46,55
759,357	46,91
759,787	46,78
760,217	46,87
760,647	46,31
761,076	46,39
761,506	46,39
761,935	46,83
762,365	46,5
762,794	46,64
763,223	45,76
763,653	46,41
764,082	46,28
764,51	46,53
764,939	46,45
765,368	46,62
765,797	46,59
766,225	45,97
766,654	46,14
767,082	46,06
767,51	46,36
767,938	45,82
768,367	46,13
768,795	46,03
769,222	46,04
769,65	46,01
770,078	46,11
770,505	45,85
770,933	45,58
771,36	45,46
771,788	45,48
772,215	46,12
772,642	45,5
773,069	45,62
773,496	45,87
773,923	45,81
774,349	45,67
774,776	45,79
775,203	45,78
775,629	45,5
776,055	45,65
776,482	45,57
776,908	45,69
777,334	45,58
777,76	45,27
778,186	45,28
778,611	45,68
779,037	45,55
779,463	45,59
779,888	45,32
780,314	45,38
780,739	45,4
781,164	45,12
781,589	45,22
782,014	44,97
782,439	45,35
782,864	45,37
783,289	45,31
783,713	45,17
784,138	45,46
784,562	45,25
784,987	45,21
785,411	44,91
785,835	45,63
786,259	45,32
786,683	45,32
787,107	45,32
787,531	45,24
787,954	45,1
788,378	45,5
788,802	45,23
789,225	44,94
789,648	45,16
790,071	44,79
790,495	45,29
790,918	45,36
791,34	45,11
791,763	44,29
792,186	45
792,609	45,13
793,031	44,68
793,454	44,87
793,876	44,94
794,298	45,45
794,721	45,13
795,143	44,46
795,565	45,07
795,986	44,91
796,408	44,99
796,83	45,07
797,252	45,03
797,673	44,53
798,094	45,14
798,516	44,69
798,937	45,07
799,358	45,13
799,779	45,19
800,2	44,95
800,621	44,44
801,042	45,13
801,462	44,87
801,883	44,38
802,303	44,76
802,724	44,98
803,144	44,64
803,564	44,88
803,984	44,56
804,404	44,48
804,824	44,96
805,244	44,75
805,664	45,09
806,084	44,68
806,503	44,64
806,923	44,21
807,342	44,9
807,761	44,34
808,18	44,96
808,599	45,01
809,018	44,68
809,437	44,93
809,856	44,92
810,275	44,84
810,693	44,83
811,112	44,65
811,53	45,14
811,949	45,07
812,367	44,87
812,785	43,97
813,203	44,44
813,621	44,48
814,039	44,47
814,457	44,81
814,874	44,47
815,292	44,69
815,709	44,11
816,127	44,75
816,544	44,38
816,961	44,34
817,378	44,34
817,795	44,19
818,212	44,47
818,629	44,76
819,046	44,73
819,462	44,67
819,879	44,89
820,295	44,77
820,712	44,5
821,128	44,64
821,544	44,5
821,96	44,64
822,376	44,89
822,792	44,44
823,208	44,79
823,624	44,81
824,039	44,21
824,455	44,5
824,87	44,23
825,286	44,57
825,701	43,9
826,116	44,51
826,531	44,69
826,946	44,55
827,361	44,44
827,776	44,67
828,19	44,53
828,605	44,16
829,02	44,45
829,434	44,37
829,848	44,58
830,263	44,51
830,677	44,25
831,091	44,28
831,505	44,28
831,919	44,34
832,332	44,24
832,746	44,52
833,16	44,22
833,573	43,93
833,987	44,23
834,4	43,88
834,813	44,03
835,226	44,08
835,639	44,25
836,052	44,67
836,465	44,43
836,878	44,33
837,29	44,26
837,703	44,43
838,116	44,58
838,528	44,52
838,94	44,2
839,352	44,01
839,765	44,17
840,177	44,09
840,589	43,94
841	44,36
