Data from D_3_Relative__9__00079.txt Node

Date: Tue Jan 30 10:02:05 CET 2024
User: diatiterra
Spectrometer: HDX00911
Trigger mode: 0
Integration Time (sec): 6,000000E-3
Scans to average: 2
Nonlinearity correction enabled: false
Boxcar width: 0
Storing dark spectrum: false
XAxis mode: Wavelengths
Number of Pixels in Spectrum: 2068
>>>>>Begin Spectral Data<<<<<
194,468	86,19
195,025	87,9
195,581	81,06
196,138	84,08
196,694	81,09
197,251	67,4
197,807	70,83
198,363	66,8
198,919	68,51
199,474	70,34
200,03	61,42
200,586	64,32
201,141	72,27
201,696	66,81
202,251	72,64
202,806	75,32
203,361	74,8
203,916	74,27
204,471	75,74
205,025	64,85
205,58	65,9
206,134	65,74
206,688	75,97
207,242	77,03
207,796	71,61
208,35	78,54
208,904	75
209,457	72,87
210,011	69
210,564	73,87
211,117	79,15
211,67	67,61
212,223	68,53
212,776	76,27
213,329	66,67
213,881	74,46
214,434	66,39
214,986	71,88
215,538	68,5
216,09	69,88
216,642	71,49
217,194	81,82
217,746	69,72
218,297	71,01
218,849	68,44
219,4	76,19
219,951	74,78
220,502	67,7
221,053	75,42
221,604	74,8
222,155	75
222,705	71,49
223,256	69,29
223,806	69,58
224,356	64,71
224,906	80,62
225,456	72,69
226,006	65,62
226,556	69,91
227,106	69,29
227,655	71,63
228,204	76,02
228,754	68,35
229,303	77,93
229,852	76,42
230,401	72,2
230,949	59,57
231,498	70,09
232,047	71,72
232,595	68,67
233,143	78,95
233,691	69,61
234,239	71,37
234,787	69,06
235,335	71
235,883	77,03
236,43	68,22
236,978	72,61
237,525	71,91
238,072	71,81
238,619	55,61
239,166	68,1
239,713	70,89
240,26	79,03
240,806	75,43
241,353	78,63
241,899	76,95
242,445	67,78
242,991	74,18
243,537	67,1
244,083	76,02
244,629	66,52
245,174	77,87
245,72	71,81
246,265	80,09
246,81	79,11
247,355	73,72
247,9	79,17
248,445	69,44
248,99	65,96
249,534	67,55
250,079	85,65
250,623	74,78
251,168	77,96
251,712	62,45
252,256	66,94
252,8	84,07
253,343	73,28
253,887	75,32
254,43	64,44
254,974	71,6
255,517	76,92
256,06	65,82
256,603	78,6
257,146	70,38
257,689	70,76
258,232	73,76
258,774	66,52
259,317	76,72
259,859	74,29
260,401	68,69
260,943	73,86
261,485	78,18
262,027	65,11
262,569	70,37
263,11	73,01
263,652	70,8
264,193	75,81
264,734	78,7
265,275	69,53
265,816	67,09
266,357	72,61
266,898	71,79
267,438	71,06
267,979	65,09
268,519	72,12
269,059	64,82
269,6	68,14
270,14	68,97
270,68	68,44
271,219	75,65
271,759	65,94
272,298	65,6
272,838	68,13
273,377	76,58
273,916	66,93
274,455	63,46
274,994	76,5
275,533	69,2
276,072	65,96
276,61	74,12
277,149	61,25
277,687	78,39
278,225	64,61
278,763	62,98
279,301	69,39
279,839	72,54
280,377	64,08
280,914	65,74
281,452	69,51
281,989	69,42
282,526	65
283,064	63,98
283,601	70,83
284,137	63,11
284,674	67,78
285,211	69,87
285,747	69,29
286,284	72,84
286,82	66,94
287,356	60,89
287,892	61,73
288,428	60,09
288,964	68,88
289,5	78,14
290,035	66,39
290,571	63,81
291,106	63,35
291,641	72,49
292,176	68
292,711	68,1
293,246	67,43
293,781	63,48
294,315	65,12
294,85	61,75
295,384	65,57
295,918	60,4
296,453	71,26
296,987	73,73
297,52	61,99
298,054	71,95
298,588	71,2
299,121	62,61
299,655	71,7
300,188	69,92
300,721	67,41
301,254	57,4
301,787	64,47
302,32	64,96
302,853	77,87
303,385	65,1
303,918	66,22
304,45	72,49
304,982	69,2
305,514	57,72
306,046	71,24
306,578	69,29
307,11	65,53
307,641	65,55
308,173	65,65
308,704	69,92
309,236	66,52
309,767	70,42
310,298	60
310,829	62,79
311,359	74,34
311,89	67,31
312,421	63,67
312,951	64,02
313,481	66,35
314,012	65,12
314,542	62,16
315,072	62,23
315,601	71,77
316,131	66,95
316,661	59,85
317,19	55,92
317,72	62,71
318,249	66,06
318,778	68,31
319,307	65,73
319,836	69,6
320,365	74,47
320,893	72,83
321,422	59,19
321,95	69,57
322,479	69,48
323,007	65,34
323,535	64,53
324,063	66,15
324,591	69,73
325,118	60,17
325,646	67,24
326,173	73,21
326,701	65,34
327,228	72,65
327,755	57,14
328,282	76,36
328,809	59,65
329,336	66,81
329,862	65,69
330,389	72,25
330,915	61,24
331,441	70,46
331,968	54,18
332,494	68,89
333,02	64,44
333,545	61,54
334,071	64,71
334,597	68,6
335,122	63,96
335,648	66
336,173	69,49
336,698	63,09
337,223	64,79
337,748	65,88
338,272	63,09
338,797	63,75
339,322	64,1
339,846	61,04
340,37	69
340,894	64,14
341,419	60,48
341,942	67,05
342,466	59,29
342,99	60,46
343,514	61,54
344,037	64,66
344,56	65,34
345,084	64,41
345,607	60,75
346,13	64,11
346,653	52,77
347,175	61,86
347,698	62,27
348,221	71,66
348,743	64,15
349,265	60
349,787	60,63
350,309	52,92
350,831	55,99
351,353	54,69
351,875	63
352,397	62,03
352,918	67,33
353,439	63,35
353,961	65,03
354,482	56,38
355,003	58,68
355,524	61,82
356,044	61,82
356,565	57,64
357,086	58,44
357,606	55,33
358,126	63,88
358,646	49,31
359,167	65,12
359,687	54,13
360,206	60,06
360,726	58,68
361,246	63,78
361,765	56,96
362,285	57,72
362,804	49,39
363,323	55,56
363,842	60,73
364,361	57,28
364,88	61,86
365,398	54,98
365,917	56,21
366,435	53,44
366,954	56,84
367,472	58,56
367,99	54,67
368,508	58,48
369,026	52,97
369,544	59,13
370,061	52,55
370,579	53,04
371,096	50
371,613	51,21
372,131	56,14
372,648	54,31
373,165	58,58
373,681	49,21
374,198	56,2
374,715	56,19
375,231	48,89
375,747	52,84
376,264	53,64
376,78	51,9
377,296	54,76
377,812	50,62
378,327	56,1
378,843	52,52
379,359	48,46
379,874	48,86
380,389	45,21
380,905	52,02
381,42	45,51
381,935	50,86
382,449	49,41
382,964	50,66
383,479	50,94
383,993	53,6
384,508	46,92
385,022	51,79
385,536	47,58
386,05	47,5
386,564	44,21
387,078	50,26
387,592	44,26
388,105	48,34
388,619	40,39
389,132	46,42
389,645	43,47
390,158	44,88
390,671	42,73
391,184	47,04
391,697	41,25
392,21	38,16
392,722	40,95
393,235	41,48
393,747	40,59
394,259	41,63
394,771	42,94
395,283	36,18
395,795	40
396,307	39,47
396,818	36,77
397,33	38,05
397,841	34,73
398,353	37,03
398,864	34,32
399,375	36,86
399,886	35,16
400,397	35,81
400,907	33,68
401,418	32,47
401,928	32,89
402,439	31,7
402,949	28,94
403,459	30,98
403,969	27,51
404,479	31,18
404,989	30,65
405,498	27,88
406,008	29,45
406,517	26,19
407,027	24,34
407,536	26,15
408,045	24,73
408,554	24,36
409,063	22,19
409,572	22,05
410,08	20,96
410,589	21,65
411,097	20,08
411,606	20,49
412,114	18,6
412,622	18,44
413,13	18,4
413,638	17,9
414,145	18,52
414,653	17,09
415,16	17,47
415,668	16,55
416,175	16,71
416,682	15,3
417,189	14,68
417,696	15,89
418,203	15,99
418,71	13,29
419,216	14,09
419,723	14,31
420,229	13,54
420,735	13,53
421,242	13,41
421,748	14,01
422,254	13,69
422,759	12,99
423,265	12,11
423,771	12,65
424,276	11,46
424,781	12,91
425,287	11,85
425,792	11,98
426,297	12,53
426,802	11,92
427,306	11,72
427,811	11,57
428,316	12,8
428,82	11,71
429,324	11,44
429,829	11,62
430,333	11,51
430,837	11,7
431,34	11,35
431,844	11,28
432,348	11,97
432,851	11,72
433,355	11,03
433,858	11,58
434,361	10,68
434,864	11,2
435,367	11,59
435,87	10,46
436,373	10,6
436,876	11,26
437,378	10,52
437,88	10,71
438,383	10,95
438,885	10,95
439,387	10,3
439,889	9,69
440,391	10,91
440,892	10,51
441,394	10,95
441,896	10,19
442,397	10,78
442,898	10,45
443,399	10,38
443,9	10,54
444,401	10,42
444,902	10,17
445,403	10,43
445,903	10,27
446,404	11,66
446,904	10,93
447,405	11,06
447,905	10,22
448,405	10,57
448,905	10,73
449,404	10,5
449,904	10,86
450,404	10,58
450,903	10,94
451,403	10,32
451,902	10,68
452,401	10,85
452,9	11,1
453,399	11,23
453,898	10,93
454,396	11,26
454,895	11,45
455,393	11,75
455,892	11,47
456,39	11,22
456,888	11,44
457,386	11,14
457,884	11,33
458,382	11,48
458,879	11,9
459,377	11,31
459,874	11,42
460,372	11,32
460,869	11,33
461,366	11,06
461,863	11,28
462,36	11,55
462,857	10,94
463,353	11,25
463,85	11,37
464,346	10,91
464,843	11,2
465,339	11,18
465,835	11,68
466,331	11,18
466,827	11,36
467,323	11,03
467,818	11,25
468,314	11,16
468,809	11,18
469,305	11,25
469,8	11,62
470,295	11,42
470,79	11,45
471,285	11,36
471,78	10,55
472,274	11,17
472,769	11,11
473,263	11,12
473,758	11,01
474,252	11,35
474,746	11,24
475,24	11,07
475,734	11,24
476,228	10,85
476,721	11,45
477,215	10,96
477,708	11,19
478,202	11,49
478,695	11,39
479,188	11,32
479,681	11,73
480,174	10,85
480,667	11,39
481,159	11,17
481,652	10,98
482,144	11,41
482,637	11,05
483,129	10,96
483,621	11,72
484,113	11,46
484,605	11,28
485,097	11,31
485,588	11,62
486,08	12,21
486,571	11,67
487,063	11,76
487,554	11,26
488,045	11,66
488,536	11,74
489,027	12,34
489,518	11,33
490,008	11,77
490,499	12,23
490,989	12,11
491,48	11,87
491,97	11,89
492,46	12,03
492,95	11,81
493,44	11,97
493,93	12,13
494,419	12,28
494,909	12,15
495,398	12,06
495,888	12,45
496,377	12,59
496,866	12,85
497,355	12,79
497,844	13,06
498,333	13,34
498,821	13,22
499,31	13,03
499,798	13,36
500,287	13,24
500,775	13,45
501,263	13,6
501,751	13,93
502,239	14,12
502,727	14,51
503,215	15,01
503,702	14,65
504,19	14,69
504,677	15,08
505,164	15,48
505,651	15,46
506,139	16,18
506,625	15,72
507,112	16,48
507,599	16,26
508,086	16,81
508,572	17,24
509,058	17,3
509,545	17,69
510,031	17,39
510,517	18,1
511,003	17,84
511,489	18,93
511,974	18,9
512,46	19,4
512,946	19,95
513,431	19,66
513,916	20,58
514,401	20,87
514,887	20,87
515,371	21,21
515,856	21,73
516,341	22,34
516,826	22,71
517,31	22,37
517,795	23,56
518,279	23,05
518,763	24,01
519,247	24,06
519,731	24,86
520,215	24,99
520,699	25,25
521,182	26,46
521,666	26,35
522,149	27,02
522,633	27,16
523,116	27,64
523,599	27,94
524,082	27,81
524,565	28,9
525,048	29,06
525,53	29,42
526,013	29,77
526,495	30,18
526,978	30,09
527,46	30,84
527,942	31,22
528,424	31,4
528,906	31,87
529,388	31,72
529,87	31,75
530,351	31,99
530,833	32,73
531,314	32,6
531,795	33,18
532,277	32,8
532,758	32,94
533,238	33,53
533,719	33,14
534,2	33,23
534,681	33,33
535,161	34,23
535,642	34,21
536,122	34,75
536,602	34,66
537,082	34,33
537,562	35,01
538,042	34,53
538,522	34,48
539,001	34,8
539,481	34,93
539,96	34,76
540,44	34,27
540,919	34,85
541,398	34,95
541,877	35,23
542,356	35,03
542,835	34,91
543,313	34,81
543,792	35,01
544,27	35,71
544,749	35,75
545,227	35,12
545,705	35,56
546,183	35,38
546,661	36,13
547,139	35,29
547,616	35,79
548,094	35,64
548,571	35,15
549,049	36
549,526	36,23
550,003	35,89
550,48	36,23
550,957	36,6
551,434	36,35
551,911	36,19
552,387	36,4
552,864	35,93
553,34	35,91
553,817	36,07
554,293	36,3
554,769	35,98
555,245	36,44
555,721	36,3
556,197	35,96
556,672	35,82
557,148	36,02
557,623	35,95
558,099	35,92
558,574	35,66
559,049	36,09
559,524	35,78
559,999	34,94
560,474	35,4
560,948	35,43
561,423	34,69
561,897	35,27
562,372	34,81
562,846	34,9
563,32	34,96
563,794	34,39
564,268	34,61
564,742	34,8
565,216	34,22
565,69	34,09
566,163	34,23
566,636	33,9
567,11	34,17
567,583	33,97
568,056	33,01
568,529	32,87
569,002	33,51
569,475	32,87
569,947	32,32
570,42	32,01
570,892	32,08
571,365	31,79
571,837	31,66
572,309	31,58
572,781	31,27
573,253	30,99
573,725	30,82
574,197	30,5
574,668	30,33
575,14	30,55
575,611	29,93
576,082	29,63
576,554	29,44
577,025	29,35
577,496	29,34
577,967	29,3
578,437	28,62
578,908	29,2
579,379	28,63
579,849	27,68
580,319	28,6
580,79	28,08
581,26	28,12
581,73	27,7
582,2	27,74
582,669	27,79
583,139	27,51
583,609	27,29
584,078	27,38
584,548	27,23
585,017	27,1
585,486	26,44
585,955	26,5
586,424	26,4
586,893	26,29
587,362	26,59
587,83	26,1
588,299	26,3
588,767	26,14
589,236	26,2
589,704	25,72
590,172	25,58
590,64	25,42
591,108	25,48
591,576	25,23
592,043	25,19
592,511	25,25
592,978	25,46
593,446	25
593,913	25,16
594,38	25,29
594,847	25,29
595,314	24,64
595,781	25,2
596,248	24,9
596,715	24,97
597,181	24,64
597,647	24,77
598,114	24,61
598,58	24,64
599,046	24,86
599,512	24,4
599,978	24,25
600,444	24,72
600,91	24,31
601,375	24,22
601,841	24,09
602,306	24,31
602,771	24,12
603,236	23,92
603,702	23,98
604,167	23,81
604,631	24,02
605,096	23,24
605,561	23,67
606,025	23,17
606,49	23,18
606,954	23,47
607,418	23,18
607,882	23,23
608,347	23,06
608,81	23,2
609,274	22,87
609,738	22,59
610,202	22,71
610,665	22,17
611,128	22,19
611,592	21,93
612,055	21,98
612,518	22,18
612,981	21,8
613,444	21,97
613,907	21,63
614,369	21,41
614,832	21,19
615,294	21,07
615,757	21,01
616,219	21,34
616,681	20,92
617,143	21
617,605	20,81
618,067	20,38
618,529	20,56
618,99	20,48
619,452	20,31
619,913	20,61
620,375	20,22
620,836	20,12
621,297	20,2
621,758	20,25
622,219	19,95
622,68	19,71
623,14	19,88
623,601	19,87
624,061	19,88
624,522	19,61
624,982	19,71
625,442	19,66
625,902	19,55
626,362	19,71
626,822	19,56
627,282	19,69
627,742	19,48
628,201	19,47
628,661	19,48
629,12	19,26
629,579	19,26
630,038	19,23
630,497	19,13
630,956	19,3
631,415	19,42
631,874	19,22
632,332	19,44
632,791	18,83
633,249	18,88
633,708	18,88
634,166	18,55
634,624	18,9
635,082	18,57
635,54	18,61
635,998	18,57
636,455	18,44
636,913	18,27
637,37	17,98
637,828	18,34
638,285	17,92
638,742	17,93
639,199	17,38
639,656	17,48
640,113	17,53
640,57	17,19
641,027	17,15
641,483	17,01
641,94	16,77
642,396	16,6
642,852	16,53
643,309	16,24
643,765	16,29
644,221	16,16
644,676	16,08
645,132	15,8
645,588	15,44
646,043	15,61
646,499	15,11
646,954	15,16
647,409	15,11
647,864	14,86
648,319	14,89
648,774	14,5
649,229	14,38
649,684	14,68
650,139	14,14
650,593	14,11
651,047	14,07
651,502	14,22
651,956	13,85
652,41	13,79
652,864	13,65
653,318	13,53
653,772	13,75
654,225	13,85
654,679	13,48
655,133	13,34
655,586	13,19
656,039	13,27
656,492	13,31
656,946	13,25
657,399	12,95
657,851	13,03
658,304	12,96
658,757	12,76
659,209	12,58
659,662	12,43
660,114	12,46
660,567	12,3
661,019	12,04
661,471	11,94
661,923	11,88
662,375	11,66
662,826	11,62
663,278	11,68
663,73	11,55
664,181	11,45
664,632	11,29
665,084	11,15
665,535	11,03
665,986	11,15
666,437	10,79
666,888	10,96
667,338	11,02
667,789	10,87
668,24	10,64
668,69	10,84
669,14	10,63
669,591	10,65
670,041	10,64
670,491	10,54
670,941	10,7
671,391	10,63
671,84	10,71
672,29	10,71
672,74	10,67
673,189	10,79
673,638	10,88
674,088	10,93
674,537	10,83
674,986	11,16
675,435	11,12
675,883	11,35
676,332	11,35
676,781	11,33
677,229	11,51
677,678	11,6
678,126	11,36
678,574	11,84
679,022	11,87
679,47	12,13
679,918	12,16
680,366	12,25
680,814	12,37
681,261	12,52
681,709	12,56
682,156	12,99
682,604	13,03
683,051	12,99
683,498	13,35
683,945	13,4
684,392	13,68
684,839	13,81
685,286	13,83
685,732	14,39
686,179	14,38
686,625	14,76
687,071	15,07
687,518	15,19
687,964	15,65
688,41	15,83
688,856	16,27
689,301	16,77
689,747	17,16
690,193	17,58
690,638	18,19
691,084	18,23
691,529	18,97
691,974	19,5
692,419	20,09
692,864	20,83
693,309	21,31
693,754	22,06
694,199	22,42
694,643	23,37
695,088	23,81
695,532	24,64
695,977	25,12
696,421	25,93
696,865	26,47
697,309	27,34
697,753	28,34
698,197	29,13
698,64	29,51
699,084	30,34
699,527	31,23
699,971	31,59
700,414	32,44
700,857	32,77
701,3	33,39
701,743	33,95
702,186	34,72
702,629	35,58
703,072	36,06
703,515	37,05
703,957	37,24
704,399	37,59
704,842	38,55
705,284	38,91
705,726	39,62
706,168	40,41
706,61	40,65
707,052	41,17
707,494	41,64
707,935	42,4
708,377	43,01
708,818	43,41
709,26	43,95
709,701	44,51
710,142	45,03
710,583	45,54
711,024	45,79
711,465	46,31
711,905	46,86
712,346	47,11
712,787	47,23
713,227	48,29
713,667	48,51
714,108	48,83
714,548	49,77
714,988	49,57
715,428	50,11
715,868	50,32
716,307	50,61
716,747	51,24
717,186	51,88
717,626	52,31
718,065	52,37
718,504	52,52
718,944	52,83
719,383	53,25
719,822	53,46
720,261	53,97
720,699	54,22
721,138	54,6
721,576	54,71
722,015	55
722,453	55,49
722,892	56,43
723,33	56,33
723,768	56,36
724,206	56,66
724,644	56,71
725,081	56,97
725,519	57,05
725,957	57,28
726,394	57,67
726,832	57,86
727,269	57,79
727,706	58,26
728,143	58,6
728,58	58,8
729,017	59,16
729,454	59,11
729,89	58,82
730,327	59,45
730,764	59,27
731,2	59,7
731,636	59,64
732,072	59,45
732,509	59,8
732,945	60,31
733,38	60,21
733,816	60,35
734,252	60,6
734,688	60,6
735,123	60,73
735,559	60,77
735,994	60,59
736,429	60,66
736,864	61,23
737,299	61,27
737,734	61,19
738,169	61,52
738,604	61,07
739,038	61,05
739,473	61,3
739,907	61,85
740,342	61,83
740,776	61,42
741,21	61,22
741,644	61,71
742,078	61,54
742,512	61,58
742,946	61,73
743,379	62,06
743,813	62,17
744,246	61,77
744,68	61,74
745,113	62,12
745,546	61,31
745,979	61,28
746,412	61,75
746,845	61,27
747,278	61,31
747,711	61,5
748,143	61,89
748,576	61,57
749,008	61,35
749,441	61,31
749,873	61,58
750,305	61,48
750,737	61,64
751,169	61,66
751,601	61,32
752,032	61,24
752,464	61,52
752,896	61,04
753,327	61,52
753,758	61,5
754,19	61,62
754,621	61,46
755,052	61,2
755,483	61,33
755,914	60,93
756,344	61,1
756,775	61,14
757,206	60,84
757,636	60,56
758,066	60,68
758,497	61,08
758,927	60,98
759,357	60,77
759,787	60,9
760,217	60,99
760,647	60,26
761,076	60,65
761,506	60,81
761,935	60,87
762,365	60,45
762,794	60,73
763,223	60,26
763,653	60,53
764,082	60,5
764,51	60,54
764,939	60,8
765,368	60,49
765,797	60,79
766,225	60,31
766,654	60,61
767,082	60,03
767,51	60,17
767,938	60,2
768,367	60,3
768,795	60,13
769,222	59,83
769,65	60,59
770,078	60,5
770,505	60,04
770,933	59,73
771,36	60
771,788	60,1
772,215	60,39
772,642	59,72
773,069	59,55
773,496	60,22
773,923	59,86
774,349	60
774,776	60,53
775,203	60,23
775,629	59,87
776,055	59,95
776,482	59,94
776,908	59,87
777,334	59,56
777,76	59,59
778,186	59,49
778,611	59,97
779,037	60,17
779,463	60,07
779,888	59,49
780,314	59,19
780,739	59,36
781,164	59,38
781,589	60,03
782,014	59,15
782,439	58,99
782,864	59,31
783,289	59,49
783,713	59,27
784,138	59,6
784,562	59,77
784,987	59,03
785,411	59,07
785,835	59,69
786,259	59,82
786,683	59,58
787,107	59,58
787,531	59,22
787,954	59,26
788,378	59,32
788,802	59,66
789,225	59,46
789,648	59,14
790,071	59,45
790,495	59,23
790,918	59,67
791,34	59,05
791,763	58,95
792,186	58,97
792,609	59,57
793,031	59,31
793,454	59,52
793,876	59,42
794,298	59,45
794,721	59,63
795,143	59,24
795,565	59,38
795,986	58,66
796,408	58,8
796,83	59,12
797,252	58,97
797,673	58,82
798,094	59,25
798,516	58,78
798,937	59,24
799,358	59,52
799,779	59,23
800,2	58,86
800,621	58,93
801,042	58,96
801,462	59,35
801,883	58,76
802,303	58,91
802,724	59,32
803,144	59,44
803,564	59
803,984	59,4
804,404	58,96
804,824	59,49
805,244	59,61
805,664	59,33
806,084	58,69
806,503	58,94
806,923	58,77
807,342	59,25
807,761	58,68
808,18	59,2
808,599	58,84
809,018	58,63
809,437	59,23
809,856	58,53
810,275	59,29
810,693	58,66
811,112	59,19
811,53	58,63
811,949	58,81
812,367	58,97
812,785	58,54
813,203	58,7
813,621	58,32
814,039	59,42
814,457	59,04
814,874	58,44
815,292	59,04
815,709	58,5
816,127	59,15
816,544	58,61
816,961	58,71
817,378	58,78
817,795	58,7
818,212	58,7
818,629	58,75
819,046	58,69
819,462	59,01
819,879	58,95
820,295	58,52
820,712	58,59
821,128	58,76
821,544	58,64
821,96	58,74
822,376	59,08
822,792	58,42
823,208	59,08
823,624	58,95
824,039	58,72
824,455	58,83
824,87	58,41
825,286	58,68
825,701	58,56
826,116	59,08
826,531	58,76
826,946	58,58
827,361	58,91
827,776	58,7
828,19	58,69
828,605	58,07
829,02	58,11
829,434	58,14
829,848	59,21
830,263	58,86
830,677	58,52
831,091	58,3
831,505	58,45
831,919	59,06
832,332	58,45
832,746	58,38
833,16	58,36
833,573	58,85
833,987	58,01
834,4	58,23
