Data from D_3_Relative__0__00070.txt Node

Date: Tue Jan 30 09:58:38 CET 2024
User: diatiterra
Spectrometer: HDX00911
Trigger mode: 0
Integration Time (sec): 6,000000E-3
Scans to average: 2
Nonlinearity correction enabled: false
Boxcar width: 0
Storing dark spectrum: false
XAxis mode: Wavelengths
Number of Pixels in Spectrum: 2068
>>>>>Begin Spectral Data<<<<<
194,468	84,4
195,025	82,08
195,581	79,17
196,138	80,33
196,694	81,16
197,251	89,04
197,807	81,46
198,363	73,75
198,919	76,82
199,474	80
200,03	72,47
200,586	83,1
201,141	78,88
201,696	84,29
202,251	72,79
202,806	80,92
203,361	82,28
203,916	76,25
204,471	77,52
205,025	74,84
205,58	81,21
206,134	92,59
206,688	81,94
207,242	81,76
207,796	75
208,35	81,29
208,904	80,54
209,457	88,48
210,011	75,66
210,564	83,45
211,117	91,45
211,67	81,13
212,223	94,24
212,776	78,4
213,329	87,14
213,881	91,55
214,434	73,62
214,986	83,69
215,538	81,25
216,09	74,03
216,642	73,05
217,194	80,92
217,746	75,45
218,297	84,52
218,849	76,44
219,4	73,83
219,951	81,94
220,502	74,14
221,053	81,48
221,604	75,76
222,155	85,9
222,705	80,56
223,256	86,75
223,806	86,27
224,356	70,63
224,906	77,51
225,456	78,17
226,006	92,14
226,556	70,06
227,106	83,33
227,655	75
228,204	78,34
228,754	80,13
229,303	80,39
229,852	77,19
230,401	79,45
230,949	83,04
231,498	81,82
232,047	79,49
232,595	79,41
233,143	88,96
233,691	75,26
234,239	92,68
234,787	68,86
235,335	71,17
235,883	75,16
236,43	87,07
236,978	73,55
237,525	72,96
238,072	82,14
238,619	81,4
239,166	78,57
239,713	73,03
240,26	83,01
240,806	90,65
241,353	84,62
241,899	78,26
242,445	94,33
242,991	78,71
243,537	79,29
244,083	82,96
244,629	84,38
245,174	80,75
245,72	81,33
246,265	80,77
246,81	70,22
247,355	82,68
247,9	92,31
248,445	90,26
248,99	72,3
249,534	87,34
250,079	84
250,623	80,5
251,168	93,53
251,712	69,4
252,256	90,44
252,8	82,5
253,343	69,27
253,887	90,96
254,43	83,33
254,974	85,98
255,517	77,21
256,06	84,51
256,603	82,72
257,146	89,03
257,689	87,59
258,232	74,83
258,774	73,91
259,317	98,65
259,859	106,67
260,401	90,77
260,943	86,18
261,485	88,74
262,027	88,11
262,569	67,11
263,11	80,38
263,652	59,64
264,193	92,37
264,734	81,29
265,275	79,75
265,816	77,03
266,357	87,34
266,898	84,46
267,438	74,72
267,979	71,79
268,519	80,8
269,059	88,89
269,6	68,92
270,14	76,47
270,68	78,06
271,219	75,47
271,759	82,73
272,298	80,39
272,838	76,19
273,377	84,38
273,916	76,88
274,455	89,63
274,994	92,09
275,533	70,91
276,072	77,07
276,61	77,56
277,149	82,98
277,687	93,71
278,225	88,41
278,763	74,36
279,301	85,71
279,839	80,36
280,377	75,69
280,914	70,5
281,452	76,51
281,989	82,35
282,526	81,02
283,064	84,31
283,601	83,77
284,137	66,67
284,674	82,8
285,211	86,39
285,747	75,14
286,284	69,01
286,82	85,9
287,356	62,24
287,892	81,12
288,428	87,14
288,964	93,53
289,5	97,48
290,035	93,92
290,571	85,26
291,106	91,34
291,641	88,03
292,176	87,58
292,711	78,17
293,246	79,31
293,781	95,35
294,315	73,29
294,85	90,41
295,384	84,56
295,918	80,86
296,453	93,71
296,987	86,21
297,52	82,96
298,054	88,24
298,588	69,44
299,121	87,02
299,655	65,94
300,188	66,88
300,721	65,99
301,254	80,41
301,787	80,13
302,32	85,93
302,853	86,79
303,385	83,78
303,918	72,66
304,45	89,55
304,982	88,54
305,514	74,23
306,046	76,51
306,578	83,02
307,11	85,53
307,641	76,82
308,173	90,48
308,704	84,52
309,236	74,23
309,767	81,88
310,298	81,13
310,829	85,45
311,359	91,03
311,89	92,16
312,421	74,82
312,951	73,2
313,481	75,94
314,012	73,49
314,542	73,78
315,072	89,93
315,601	75,74
316,131	100,74
316,661	80,98
317,19	69,48
317,72	83,7
318,249	103,91
318,778	86,08
319,307	95,3
319,836	78,62
320,365	85,37
320,893	94,19
321,422	76,81
321,95	84,46
322,479	88,24
323,007	83,56
323,535	93,14
324,063	82,93
324,591	81,62
325,118	73,55
325,646	75
326,173	83,54
326,701	87,5
327,228	86,5
327,755	65,41
328,282	82,69
328,809	96,15
329,336	91,84
329,862	82,61
330,389	77,08
330,915	84,83
331,441	72,04
331,968	74,38
332,494	85,11
333,02	80,27
333,545	72,08
334,071	85,53
334,597	83,12
335,122	77,7
335,648	77,53
336,173	76,61
336,698	71,14
337,223	76,81
337,748	73,84
338,272	71,79
338,797	72,84
339,322	73,84
339,846	73,51
340,37	68,42
340,894	64,2
341,419	68,75
341,942	78,53
342,466	67,35
342,99	79,52
343,514	76,44
344,037	70
344,56	75,16
345,084	65,09
345,607	66,67
346,13	74,68
346,653	67,57
347,175	70,2
347,698	71,98
348,221	80
348,743	74,62
349,265	63,95
349,787	81,87
350,309	84,31
350,831	67,07
351,353	67,72
351,875	80,59
352,397	62,98
352,918	68,29
353,439	80,39
353,961	71,43
354,482	61,95
355,003	74,33
355,524	82,49
356,044	65,38
356,565	69,19
357,086	80,81
357,606	63,35
358,126	72,47
358,646	62,05
359,167	57,22
359,687	75,95
360,206	67,48
360,726	60,39
361,246	80,98
361,765	68,33
362,285	67,44
362,804	65,34
363,323	68,84
363,842	69,23
364,361	61,98
364,88	71,5
365,398	62,3
365,917	66,85
366,435	61,97
366,954	62,5
367,472	60,8
367,99	56
368,508	59,42
369,026	53,64
369,544	63,77
370,061	60,1
370,579	65,74
371,096	64,22
371,613	57,64
372,131	62,33
372,648	67,62
373,165	63,91
373,681	53,64
374,198	61,7
374,715	57,48
375,231	55,38
375,747	55,51
376,264	55,56
376,78	52,63
377,296	61,64
377,812	54,02
378,327	60,62
378,843	59,59
379,359	63,05
379,874	51,08
380,389	52,38
380,905	58,61
381,42	52,83
381,935	53,5
382,449	59,93
382,964	52,9
383,479	49,66
383,993	55,34
384,508	47,89
385,022	55,33
385,536	47,42
386,05	45,37
386,564	48,44
387,078	50,75
387,592	52,27
388,105	44,87
388,619	46,75
389,132	48,5
389,645	47,49
390,158	44,63
390,671	48,96
391,184	40,7
391,697	46,61
392,21	49,25
392,722	45,13
393,235	44,33
393,747	43,28
394,259	43,27
394,771	45
395,283	41,83
395,795	44,77
396,307	44,42
396,818	41,83
397,33	37,83
397,841	35,51
398,353	38,48
398,864	37,64
399,375	39,29
399,886	32,29
400,397	36,12
400,907	36,75
401,418	36,29
401,928	36,59
402,439	35,5
402,949	36,86
403,459	34,23
403,969	30,3
404,479	36,33
404,989	28,6
405,498	32,93
406,008	31,37
406,517	28,26
407,027	29,38
407,536	26,61
408,045	24,93
408,554	24,9
409,063	26,45
409,572	23,37
410,08	22,58
410,589	21,29
411,097	22,31
411,606	20,23
412,114	17,36
412,622	18,92
413,13	21,1
413,638	16,37
414,145	17,56
414,653	16,16
415,16	18,02
415,668	16,91
416,175	14,07
416,682	14,17
417,189	15,22
417,696	14,01
418,203	15,83
418,71	14,77
419,216	13,88
419,723	12,95
420,229	13,51
420,735	13,27
421,242	13,79
421,748	13,09
422,254	15,37
422,759	12,51
423,265	11,11
423,771	12,56
424,276	12,47
424,781	11,98
425,287	12
425,792	11,65
426,297	12,14
426,802	11,56
427,306	10,61
427,811	11,96
428,316	12,2
428,82	10,62
429,324	11,18
429,829	12,93
430,333	11,56
430,837	11,67
431,34	10,67
431,844	10,38
432,348	11,85
432,851	11,65
433,355	10,34
433,858	11,3
434,361	11,93
434,864	10,06
435,367	11,27
435,87	9,7
436,373	10,43
436,876	10,84
437,378	9,91
437,88	9,74
438,383	10,32
438,885	9,59
439,387	9,61
439,889	9,06
440,391	9,69
440,892	10,6
441,394	10,54
441,896	10,71
442,397	11,12
442,898	10,18
443,399	10,07
443,9	10,12
444,401	10,21
444,902	9,26
445,403	9,93
445,903	10,86
446,404	10,65
446,904	10,78
447,405	10,15
447,905	9,53
448,405	9,23
448,905	10,7
449,404	9,08
449,904	10,56
450,404	10,92
450,903	11,22
451,403	9,32
451,902	10,28
452,401	9,77
452,9	9,3
453,399	9,99
453,898	9,74
454,396	10,78
454,895	10,43
455,393	9,78
455,892	10,44
456,39	9,58
456,888	10,82
457,386	10,3
457,884	10,34
458,382	9,83
458,879	9,6
459,377	10,42
459,874	10,09
460,372	9,75
460,869	10,74
461,366	9,22
461,863	9,35
462,36	9,44
462,857	10,21
463,353	10,76
463,85	10,13
464,346	9,37
464,843	9,82
465,339	9,57
465,835	9,09
466,331	8,59
466,827	10,13
467,323	9,75
467,818	9,32
468,314	9,53
468,809	9,75
469,305	9,86
469,8	10,27
470,295	9,58
470,79	9,22
471,285	9,25
471,78	9,42
472,274	9,88
472,769	8,94
473,263	9,15
473,758	9,92
474,252	9,49
474,746	9,17
475,24	9,3
475,734	9,32
476,228	10,23
476,721	9,43
477,215	9,45
477,708	9,67
478,202	9,6
478,695	9,17
479,188	9,87
479,681	9,53
480,174	9,01
480,667	9,52
481,159	10,14
481,652	9,55
482,144	9,63
482,637	9,38
483,129	9,17
483,621	9,92
484,113	9,47
484,605	8,41
485,097	8,95
485,588	9,2
486,08	9,92
486,571	9,27
487,063	9,95
487,554	9,24
488,045	9,18
488,536	9,72
489,027	9,4
489,518	9,13
490,008	9,71
490,499	9,98
490,989	10,12
491,48	9,7
491,97	9,54
492,46	9,18
492,95	9,39
493,44	9,62
493,93	9,7
494,419	10,13
494,909	9,33
495,398	10,54
495,888	10,22
496,377	9,86
496,866	10,05
497,355	10,05
497,844	10,46
498,333	10,81
498,821	9,65
499,31	10,4
499,798	10,51
500,287	10,4
500,775	10,62
501,263	11,45
501,751	10,76
502,239	11,83
502,727	11,16
503,215	11,32
503,702	11,72
504,19	11,43
504,677	11,72
505,164	12,22
505,651	11,87
506,139	12,94
506,625	11,46
507,112	12,67
507,599	13,58
508,086	12,97
508,572	13,28
509,058	13,22
509,545	13,63
510,031	14,03
510,517	14,3
511,003	14,45
511,489	14,97
511,974	15,11
512,46	15,13
512,946	15,3
513,431	16
513,916	16,04
514,401	16,59
514,887	16,83
515,371	17,69
515,856	17,78
516,341	18,4
516,826	17,59
517,31	18,52
517,795	19,05
518,279	19,33
518,763	19,98
519,247	20,24
519,731	20,35
520,215	21,05
520,699	20,71
521,182	22,24
521,666	22,1
522,149	22,6
522,633	22,91
523,116	23,76
523,599	23,47
524,082	24,12
524,565	23,77
525,048	24,5
525,53	25,53
526,013	25,79
526,495	25,83
526,978	26,23
527,46	26,17
527,942	26,28
528,424	27,48
528,906	27,94
529,388	28,15
529,87	28,27
530,351	27,49
530,833	28,2
531,314	28,73
531,795	28,97
532,277	29,36
532,758	29,47
533,238	29,24
533,719	30,31
534,2	29,81
534,681	30,58
535,161	30,39
535,642	30,1
536,122	30,63
536,602	30,9
537,082	31,09
537,562	31,33
538,042	32,16
538,522	31,65
539,001	30,89
539,481	31,31
539,96	32,25
540,44	32,45
540,919	32,03
541,398	32,65
541,877	32,82
542,356	31,5
542,835	32,49
543,313	32,67
543,792	31,69
544,27	31,71
544,749	32,24
545,227	32,19
545,705	32,71
546,183	32,51
546,661	32,42
547,139	32,45
547,616	32,39
548,094	33,13
548,571	32,56
549,049	31,89
549,526	32,86
550,003	32,45
550,48	33,17
550,957	32,69
551,434	32,39
551,911	32,52
552,387	33,06
552,864	33,34
553,34	32,69
553,817	32,5
554,293	33,07
554,769	32,95
555,245	33,09
555,721	32,46
556,197	32,16
556,672	32,9
557,148	32,96
557,623	32,34
558,099	33,42
558,574	32,47
559,049	32,28
559,524	32,57
559,999	32,22
560,474	32,09
560,948	32,06
561,423	32,15
561,897	32,46
562,372	31,82
562,846	32,14
563,32	31,25
563,794	31,65
564,268	31
564,742	30,83
565,216	31,04
565,69	30,34
566,163	29,55
566,636	29,92
567,11	29,25
567,583	29,45
568,056	28,81
568,529	29,87
569,002	28,88
569,475	29,13
569,947	28,66
570,42	28,3
570,892	27,25
571,365	27,46
571,837	27,91
572,309	27,13
572,781	27,01
573,253	26,26
573,725	26,12
574,197	26,73
574,668	26,68
575,14	25,85
575,611	25,34
576,082	25,65
576,554	25,29
577,025	24,65
577,496	24,27
577,967	24,28
578,437	23,79
578,908	24,01
579,379	23,92
579,849	24,4
580,319	23,73
580,79	22,89
581,26	23,29
581,73	23,32
582,2	22,64
582,669	22,97
583,139	22,97
583,609	22,89
584,078	22,31
584,548	22,82
585,017	22,48
585,486	22,22
585,955	22,06
586,424	22,1
586,893	21,61
587,362	21,55
587,83	21,78
588,299	21,22
588,767	21,1
589,236	20,59
589,704	21,41
590,172	21,36
590,64	21,1
591,108	20,64
591,576	20,94
592,043	20,61
592,511	20,92
592,978	20,51
593,446	20,76
593,913	20,06
594,38	20,2
594,847	20,51
595,314	20,52
595,781	20,21
596,248	20,02
596,715	20,03
597,181	19,93
597,647	19,95
598,114	19,83
598,58	19,74
599,046	19,78
599,512	19,94
599,978	19,44
600,444	19,45
600,91	19,94
601,375	19,73
601,841	20
602,306	19,7
602,771	19,24
603,236	19,6
603,702	19,22
604,167	19,61
604,631	19,21
605,096	19,01
605,561	18,92
606,025	19
606,49	19,18
606,954	18,67
607,418	18,77
607,882	18,53
608,347	18,53
608,81	18,2
609,274	18,03
609,738	17,99
610,202	17,49
610,665	17,58
611,128	17,99
611,592	17,73
612,055	17,52
612,518	17,32
612,981	17,17
613,444	17,55
613,907	16,57
614,369	17,01
614,832	16,87
615,294	16,97
615,757	16,35
616,219	16,24
616,681	16,25
617,143	16,37
617,605	15,86
618,067	16,14
618,529	15,55
618,99	16,16
619,452	15,88
619,913	15,56
620,375	15,9
620,836	15,84
621,297	15,29
621,758	15,19
622,219	15,31
622,68	15,25
623,14	15,86
623,601	15,3
624,061	15,28
624,522	14,92
624,982	15,06
625,442	14,8
625,902	14,74
626,362	14,94
626,822	15,08
627,282	14,45
627,742	14,47
628,201	14,84
628,661	14,68
629,12	14,73
629,579	14,65
630,038	14,71
630,497	14,75
630,956	14,32
631,415	14,56
631,874	14,57
632,332	14,51
632,791	14,57
633,249	14,63
633,708	14,32
634,166	14,59
634,624	14,31
635,082	14,32
635,54	14,13
635,998	13,91
636,455	13,68
636,913	13,84
637,37	13,68
637,828	13,95
638,285	13,65
638,742	13,18
639,199	13,44
639,656	13,56
640,113	13,09
640,57	12,56
641,027	12,41
641,483	12,66
641,94	12,49
642,396	12,17
642,852	12,28
643,309	12,18
643,765	11,68
644,221	12,08
644,676	11,85
645,132	11,5
645,588	11,45
646,043	11,18
646,499	11,18
646,954	11,14
647,409	10,94
647,864	10,7
648,319	10,66
648,774	10,74
649,229	10,44
649,684	10,48
650,139	10,47
650,593	10,42
651,047	10,29
651,502	9,93
651,956	9,81
652,41	10,2
652,864	10,11
653,318	9,86
653,772	9,78
654,225	9,82
654,679	10,16
655,133	10,12
655,586	9,71
656,039	9,87
656,492	9,61
656,946	9,52
657,399	9,38
657,851	9,55
658,304	9,15
658,757	9,3
659,209	9,16
659,662	9,04
660,114	8,94
660,567	8,74
661,019	8,76
661,471	8,71
661,923	8,96
662,375	8,56
662,826	8,33
663,278	8,7
663,73	8,86
664,181	8,56
664,632	8,58
665,084	8,26
665,535	8,27
665,986	8,34
666,437	8,29
666,888	8,25
667,338	8,54
667,789	8,3
668,24	8,3
668,69	8,4
669,14	8,47
669,591	8,65
670,041	8,17
670,491	8,37
670,941	8,64
671,391	8,56
671,84	8,69
672,29	8,54
672,74	8,8
673,189	8,78
673,638	8,89
674,088	9,04
674,537	9,05
674,986	8,88
675,435	9,25
675,883	9,28
676,332	9,45
676,781	9,35
677,229	9,57
677,678	9,69
678,126	9,83
678,574	9,96
679,022	10,15
679,47	10,23
679,918	10,32
680,366	10,2
680,814	10,61
681,261	10,56
681,709	10,85
682,156	10,96
682,604	10,87
683,051	11,22
683,498	11,25
683,945	11,49
684,392	11,8
684,839	11,53
685,286	11,8
685,732	11,74
686,179	12,14
686,625	12,23
687,071	12,55
687,518	12,64
687,964	12,68
688,41	12,93
688,856	12,92
689,301	13,54
689,747	13,58
690,193	14,48
690,638	14,25
691,084	15,1
691,529	15,75
691,974	15,98
692,419	16,46
692,864	17,02
693,309	17,58
693,754	18,17
694,199	18,59
694,643	19,69
695,088	20,3
695,532	20,47
695,977	21,68
696,421	22,4
696,865	22,98
697,309	24,01
697,753	24,56
698,197	25,82
698,64	26,36
699,084	26,99
699,527	27,78
699,971	28,61
700,414	29,37
700,857	29,73
701,3	30,51
701,743	31,27
702,186	31,77
702,629	33,08
703,072	33,82
703,515	34,07
703,957	34,94
704,399	36,09
704,842	37,07
705,284	37,54
705,726	38,63
706,168	38,76
706,61	39,45
707,052	40,16
707,494	41,04
707,935	41,34
708,377	41,85
708,818	43,28
709,26	43,92
709,701	44,27
710,142	44,71
710,583	45,48
711,024	45,88
711,465	46,6
711,905	47,72
712,346	48,11
712,787	49,12
713,227	49,13
713,667	49,9
714,108	50,54
714,548	50,61
714,988	51,32
715,428	52,21
715,868	52,87
716,307	53,17
716,747	53,59
717,186	54,09
717,626	54,94
718,065	54,99
718,504	55,55
718,944	57,02
719,383	56,86
719,822	57,21
720,261	57,8
720,699	57,78
721,138	58,94
721,576	59,39
722,015	60,25
722,453	59,07
722,892	60,97
723,33	60,81
723,768	60,7
724,206	61,43
724,644	61,21
725,081	62,2
725,519	62,02
725,957	62,74
726,394	63,47
726,832	63,5
727,269	64,43
727,706	63,97
728,143	64,43
728,58	65,53
729,017	65,13
729,454	65,47
729,89	66,35
730,327	65,76
730,764	65,61
731,2	66,07
731,636	66,29
732,072	66,91
732,509	66,36
732,945	67,31
733,38	68,15
733,816	67,24
734,252	67,87
734,688	67,76
735,123	67,97
735,559	67,69
735,994	68,63
736,429	68,83
736,864	67,97
737,299	68,42
737,734	68,5
738,169	68,06
738,604	69,65
739,038	69,51
739,473	69,87
739,907	68,62
740,342	70,09
740,776	69,39
741,21	69,19
741,644	68,97
742,078	69,92
742,512	69,64
742,946	70,22
743,379	68,89
743,813	69,98
744,246	69,29
744,68	69,22
745,113	69,66
745,546	69,66
745,979	70,2
746,412	69,58
746,845	69,94
747,278	69,72
747,711	69,33
748,143	69,37
748,576	70,68
749,008	69,94
749,441	69,81
749,873	69,15
750,305	69,88
750,737	69,61
751,169	70,2
751,601	69,44
752,032	69,89
752,464	69,88
752,896	69,52
753,327	69,36
753,758	69,58
754,19	69,37
754,621	70,24
755,052	69,2
755,483	69,9
755,914	69,24
756,344	70,12
756,775	68,93
757,206	69,23
757,636	68,91
758,066	69,59
758,497	69,77
758,927	69,36
759,357	69,07
759,787	68,77
760,217	69,46
760,647	70,08
761,076	68,94
761,506	69,82
761,935	69,71
762,365	69,67
762,794	69,47
763,223	69,23
763,653	68,8
764,082	69,04
764,51	68,84
764,939	69,39
765,368	69,47
765,797	68,4
766,225	68,91
766,654	68,45
767,082	69,14
767,51	68,77
767,938	68,13
768,367	68,6
768,795	68,93
769,222	68,5
769,65	68,58
770,078	68,18
770,505	69,02
770,933	68,31
771,36	68,19
771,788	68,9
772,215	68,41
772,642	68,47
773,069	67,88
773,496	68,39
773,923	69,27
774,349	68,27
774,776	68,74
775,203	67,91
775,629	68,85
776,055	68,23
776,482	68,71
776,908	68,71
777,334	68,28
777,76	67,44
778,186	68,35
778,611	68,36
779,037	67,6
779,463	68,35
779,888	67,88
780,314	67,97
780,739	67,85
781,164	68,02
781,589	68,56
782,014	67,86
782,439	68,61
782,864	67,2
783,289	68,56
783,713	68,13
784,138	68,43
784,562	67,68
784,987	68,06
785,411	68,27
785,835	68,26
786,259	67,4
786,683	67,56
787,107	67,66
787,531	68,29
787,954	68,18
788,378	67,25
788,802	67,77
789,225	68,27
789,648	67,5
790,071	67,78
790,495	67,75
790,918	68,44
791,34	67,83
791,763	67,97
792,186	68,42
792,609	67,55
793,031	67,8
793,454	67,6
793,876	67,83
794,298	67,44
794,721	67,47
795,143	67,55
795,565	67,86
795,986	67,83
796,408	67,91
796,83	67,72
797,252	67,66
797,673	67,8
798,094	66,67
798,516	67,94
798,937	67,75
799,358	68,19
799,779	67,63
800,2	67,92
800,621	67,52
801,042	67,99
801,462	68,2
801,883	68,04
802,303	67,49
802,724	67,98
803,144	67,45
803,564	68,36
803,984	67,25
804,404	67,86
804,824	67,67
805,244	67,47
805,664	66,95
806,084	67,51
806,503	67,55
806,923	67,62
807,342	67,68
807,761	67,33
808,18	68,33
808,599	67,68
809,018	67,34
809,437	67,47
809,856	67,39
810,275	66,83
810,693	67,48
811,112	67,53
811,53	67,61
811,949	67,56
812,367	67,47
812,785	67,55
813,203	67,53
813,621	67,02
814,039	67,71
814,457	67,54
814,874	67,36
815,292	68,53
815,709	68,15
816,127	67,5
816,544	67,48
816,961	67,84
817,378	67,61
817,795	67,3
818,212	67,21
818,629	67,01
819,046	67,33
819,462	67,36
819,879	67,03
820,295	67,58
820,712	67,45
821,128	67,02
821,544	67
821,96	67,48
822,376	67,05
822,792	67,29
823,208	67,48
823,624	67,76
824,039	67,96
824,455	68,38
824,87	67,02
825,286	67,47
825,701	67,25
826,116	67,61
826,531	67,97
826,946	66,81
827,361	68,42
827,776	66,8
828,19	68,04
828,605	67,44
829,02	67,62
829,434	66,73
829,848	67,61
830,263	67,45
830,677	67,71
831,091	67,36
831,505	67,75
831,919	67,49
832,332	67,33
832,746	67,53
833,16	68,03
833,573	66,89
833,987	66,77
834,4	67,45
834,813	67,46
835,226	67,63
835,639	66,64
836,052	67,05
836,465	67,44
836,878	67,5
837,29	67,22
837,703	67,17
