Data from D_5_Relative__8__00088.txt Node

Date: Tue Jan 30 10:03:07 CET 2024
User: diatiterra
Spectrometer: HDX00911
Trigger mode: 0
Integration Time (sec): 6,000000E-3
Scans to average: 2
Nonlinearity correction enabled: false
Boxcar width: 0
Storing dark spectrum: false
XAxis mode: Wavelengths
Number of Pixels in Spectrum: 2068
>>>>>Begin Spectral Data<<<<<
194,468	86,19
195,025	90,32
195,581	80,3
196,138	78,34
196,694	84,58
197,251	69,6
197,807	66,25
198,363	70,49
198,919	77,02
199,474	67,8
200,03	68,11
200,586	71,37
201,141	72,69
201,696	76,05
202,251	68,16
202,806	74,04
203,361	67,48
203,916	71,78
204,471	72,77
205,025	69,04
205,58	78,34
206,134	67,33
206,688	63,95
207,242	79,73
207,796	78,81
208,35	77,63
208,904	70,97
209,457	79,84
210,011	75,11
210,564	74,77
211,117	85,53
211,67	76,11
212,223	69,72
212,776	74,58
213,329	70,89
213,881	74,89
214,434	73,36
214,986	81,7
215,538	79,53
216,09	70,68
216,642	71,07
217,194	83,25
217,746	72,11
218,297	73,11
218,849	70,72
219,4	68,83
219,951	80,97
220,502	78,21
221,053	80,51
221,604	70,47
222,155	69,49
222,705	80,43
223,256	65,92
223,806	74,17
224,356	75
224,906	81,5
225,456	70,59
226,006	75
226,556	74,34
227,106	70,95
227,655	71,63
228,204	79,19
228,754	74,26
229,303	74,77
229,852	77,73
230,401	78,92
230,949	70,21
231,498	63,84
232,047	73,36
232,595	73,49
233,143	78,95
233,691	69,96
234,239	66,03
234,787	73,99
235,335	67,1
235,883	77,48
236,43	70,34
236,978	75,65
237,525	71,49
238,072	74,01
238,619	61,88
239,166	70,69
239,713	74,26
240,26	70,56
240,806	75
241,353	76,07
241,899	79,01
242,445	74,9
242,991	67,21
243,537	75,32
244,083	74,21
244,629	66,52
245,174	69,36
245,72	65,64
246,265	76,92
246,81	72,44
247,355	67,15
247,9	73,33
248,445	68,65
248,99	68,09
249,534	66,04
250,079	80,56
250,623	74,34
251,168	73,47
251,712	58,52
252,256	71,07
252,8	70,35
253,343	66,8
253,887	71
254,43	70
254,974	69,2
255,517	72,12
256,06	62,03
256,603	78,6
257,146	61,92
257,689	71,61
258,232	72,85
258,774	61,23
259,317	69,4
259,859	72,86
260,401	73,83
260,943	71,37
261,485	70,45
262,027	64,68
262,569	68,98
263,11	69,91
263,652	68,14
264,193	73,49
264,734	85,65
265,275	72,1
265,816	67,95
266,357	67,22
266,898	72,65
267,438	71,49
267,979	79,31
268,519	66,35
269,059	61,66
269,6	75,22
270,14	70,69
270,68	68,85
271,219	78,7
271,759	67,25
272,298	76,4
272,838	67,33
273,377	73,42
273,916	70,82
274,455	59,23
274,994	72,35
275,533	69,2
276,072	68,09
276,61	75,44
277,149	80
277,687	80,93
278,225	67,49
278,763	66,41
279,301	78,37
279,839	75,82
280,377	71,84
280,914	67,59
281,452	69,11
281,989	78,1
282,526	64,58
283,064	69,73
283,601	70,42
284,137	72,44
284,674	70,71
285,211	66,81
285,747	71,26
286,284	74,57
286,82	69,76
287,356	63,11
287,892	64,61
288,428	68,67
288,964	82,99
289,5	66,51
290,035	80,91
290,571	73,93
291,106	67,87
291,641	66,81
292,176	70,8
292,711	67,67
293,246	68,58
293,781	70,43
294,315	72,09
294,85	69,72
295,384	75,47
295,918	66,4
296,453	71,66
296,987	67,37
297,52	76,02
298,054	72,4
298,588	70
299,121	69,82
299,655	67,92
300,188	69,49
300,721	70,98
301,254	66,82
301,787	73,68
302,32	76,07
302,853	78,72
303,385	70,98
303,918	74,22
304,45	76,86
304,982	70
305,514	69,11
306,046	69,03
306,578	63,07
307,11	70,83
307,641	71,01
308,173	76,52
308,704	74,8
309,236	75,65
309,767	62,92
310,298	74
310,829	63,95
311,359	74,34
311,89	69,23
312,421	63,67
312,951	71,55
313,481	74,41
314,012	69,77
314,542	68,47
315,072	72,96
315,601	70,97
316,131	70,82
316,661	64,86
317,19	53,47
317,72	61,86
318,249	78,44
318,778	77,37
319,307	72,98
319,836	68,4
320,365	74,04
320,893	73,23
321,422	72,2
321,95	73,48
322,479	71,49
323,007	68,92
323,535	70,94
324,063	65,76
324,591	72,03
325,118	64,5
325,646	72,84
326,173	64,29
326,701	69,32
327,228	71,43
327,755	68,1
328,282	81,82
328,809	84,21
329,336	68,09
329,862	71,53
330,389	80,18
330,915	67,83
331,441	86,08
331,968	58,96
332,494	72,89
333,02	70,71
333,545	74,9
334,071	66,39
334,597	69,83
335,122	76,13
335,648	72,4
336,173	69,49
336,698	67,81
337,223	74,18
337,748	60,39
338,272	67,38
338,797	64,94
339,322	75,21
339,846	71,08
340,37	70,31
340,894	72,57
341,419	62,9
341,942	66,28
342,466	70,35
342,99	58,17
343,514	74,09
344,037	59,02
344,56	68,13
345,084	75
345,607	69,43
346,13	70,97
346,653	57,93
347,175	64,83
347,698	67,4
348,221	66,4
348,743	73,96
349,265	73,06
349,787	63,76
350,309	62,41
350,831	58,8
351,353	66,94
351,875	71,06
352,397	57,97
352,918	71,71
353,439	68,13
353,961	66,43
354,482	69,8
355,003	62,46
355,524	60,81
356,044	65,09
356,565	60,07
357,086	64,29
357,606	59
358,126	69,57
358,646	57,24
359,167	63,46
359,687	63,7
360,206	63,9
360,726	62,15
361,246	66,25
361,765	62,14
362,285	59,06
362,804	52,74
363,323	60,36
363,842	60,73
364,361	58,82
364,88	59,76
365,398	56,19
365,917	54,44
366,435	61,16
366,954	60,79
367,472	61,26
367,99	60,34
368,508	66,97
369,026	67,99
369,544	58,84
370,061	59,79
370,579	62,15
371,096	56,28
371,613	54,42
372,131	61,1
372,648	58,38
373,165	56,46
373,681	51,83
374,198	53,92
374,715	52,06
375,231	57,28
375,747	52,84
376,264	53,4
376,78	58,77
377,296	48,57
377,812	55,36
378,327	54,46
378,843	52,52
379,359	50,22
379,874	54,26
380,389	52,74
380,905	52,23
381,42	49,18
381,935	53,02
382,449	54,69
382,964	44,05
383,479	51,36
383,993	52,6
384,508	48,27
385,022	51,04
385,536	49,63
386,05	46,57
386,564	46,84
387,078	51,83
387,592	43,11
388,105	45,86
388,619	44,43
389,132	46,42
389,645	41,01
390,158	44,41
390,671	42,44
391,184	43,25
391,697	43,95
392,21	43,57
392,722	41,65
393,235	41,76
393,747	44,1
394,259	38,52
394,771	43,51
395,283	38,05
395,795	38,67
396,307	40,66
396,818	37,16
397,33	40,26
397,841	36,42
398,353	35,74
398,864	38,01
399,375	36,36
399,886	35,89
400,397	38,08
400,907	35,89
401,418	32,68
401,928	35,15
402,439	32,95
402,949	34,09
403,459	33,4
403,969	33,11
404,479	31,85
404,989	30,46
405,498	29,38
406,008	29,53
406,517	28,14
407,027	25,71
407,536	26,07
408,045	24,81
408,554	24,87
409,063	23,04
409,572	24,23
410,08	22,44
410,589	20,57
411,097	20,08
411,606	20,44
412,114	18,82
412,622	17,99
413,13	19,96
413,638	17,69
414,145	19,43
414,653	17,04
415,16	17,56
415,668	17,38
416,175	16,07
416,682	15,61
417,189	15,34
417,696	15,84
418,203	14,41
418,71	13,96
419,216	14,75
419,723	14,7
420,229	14,37
420,735	14,51
421,242	13,77
421,748	14,08
422,254	14,97
422,759	12,72
423,265	12,74
423,771	13,15
424,276	12,76
424,781	11,8
425,287	12,32
425,792	11,83
426,297	12,9
426,802	12,52
427,306	12,71
427,811	11,37
428,316	12,28
428,82	12,05
429,324	12,14
429,829	12,56
430,333	11,87
430,837	11,91
431,34	11,83
431,844	11,83
432,348	12,12
432,851	11,72
433,355	11,23
433,858	12,45
434,361	11,81
434,864	11,82
435,367	11,63
435,87	11,4
436,373	10,98
436,876	11,9
437,378	11,19
437,88	11,52
438,383	11,45
438,885	10,63
439,387	11,02
439,889	10,88
440,391	10,77
440,892	11,12
441,394	10,52
441,896	10,78
442,397	11,19
442,898	10,97
443,399	11,39
443,9	10,58
444,401	10,69
444,902	10,55
445,403	11,08
445,903	11,31
446,404	11,05
446,904	10,97
447,405	10,15
447,905	10,43
448,405	11,29
448,905	10,93
449,404	10,89
449,904	10,92
450,404	10,42
450,903	11,23
451,403	10,48
451,902	10,93
452,401	10,65
452,9	10,13
453,399	10,98
453,898	11,22
454,396	11,46
454,895	11,08
455,393	11,95
455,892	11,23
456,39	11,29
456,888	11,76
457,386	10,45
457,884	11,19
458,382	10,59
458,879	11,06
459,377	10,92
459,874	11,22
460,372	10,74
460,869	11,03
461,366	11,04
461,863	11,14
462,36	10,62
462,857	10,85
463,353	10,96
463,85	10,89
464,346	11,47
464,843	11,35
465,339	10,89
465,835	10,93
466,331	10,1
466,827	11,01
467,323	10,59
467,818	10,59
468,314	11
468,809	10,58
469,305	10,92
469,8	10,8
470,295	10,81
470,79	10,91
471,285	10,97
471,78	10,46
472,274	10,6
472,769	10,71
473,263	10,47
473,758	10,7
474,252	10,83
474,746	10,44
475,24	10,57
475,734	10,81
476,228	10,37
476,721	11,37
477,215	11,23
477,708	10,5
478,202	10,74
478,695	10,9
479,188	10,75
479,681	11,05
480,174	10,88
480,667	10,7
481,159	11,12
481,652	11,16
482,144	11,19
482,637	10,76
483,129	10,82
483,621	10,96
484,113	10,42
484,605	11,22
485,097	11,06
485,588	11,34
486,08	11,29
486,571	11,19
487,063	10,89
487,554	11,01
488,045	11,2
488,536	11,44
489,027	11,4
489,518	11,06
490,008	10,97
490,499	11,35
490,989	10,93
491,48	11,74
491,97	11,06
492,46	11,29
492,95	11,18
493,44	11,3
493,93	11,62
494,419	11,43
494,909	11,13
495,398	11,34
495,888	11,57
496,377	11,46
496,866	11,76
497,355	11,83
497,844	11,39
498,333	11,79
498,821	11,42
499,31	11,68
499,798	11,83
500,287	12,33
500,775	12,12
501,263	12,05
501,751	11,75
502,239	12,68
502,727	12,91
503,215	12,66
503,702	12,81
504,19	12,86
504,677	13,31
505,164	12,86
505,651	13,13
506,139	13,61
506,625	13,62
507,112	13,95
507,599	13,65
508,086	14,71
508,572	14,15
509,058	13,91
509,545	14,4
510,031	14,35
510,517	15,08
511,003	15,17
511,489	15,4
511,974	15,25
512,46	15,95
512,946	15,95
513,431	15,94
513,916	16,63
514,401	16,6
514,887	17,24
515,371	17,26
515,856	17,89
516,341	18,42
516,826	18,42
517,31	18,43
517,795	19,29
518,279	19,28
518,763	18,93
519,247	19,96
519,731	20,3
520,215	20,34
520,699	21,14
521,182	21,35
521,666	21,72
522,149	22,38
522,633	22,54
523,116	22,63
523,599	22,81
524,082	23,38
524,565	23,84
525,048	24,07
525,53	23,99
526,013	25,1
526,495	24,94
526,978	25,33
527,46	25,42
527,942	26,33
528,424	26,01
528,906	26,72
529,388	26,58
529,87	26,75
530,351	27,6
530,833	27,28
531,314	27,88
531,795	28,51
532,277	28,36
532,758	28,03
533,238	28,42
533,719	28,33
534,2	28,65
534,681	28,8
535,161	28,71
535,642	29,05
536,122	29,94
536,602	29,36
537,082	29,46
537,562	29,21
538,042	29,74
538,522	29,79
539,001	29,23
539,481	29,55
539,96	30,09
540,44	29,61
540,919	29,93
541,398	29,98
541,877	30,21
542,356	30,24
542,835	30,02
543,313	30,3
543,792	29,93
544,27	30,66
544,749	30,77
545,227	30,54
545,705	30,25
546,183	30,36
546,661	30,79
547,139	30,37
547,616	30,1
548,094	31,71
548,571	30,81
549,049	30,99
549,526	31,42
550,003	30,57
550,48	31,44
550,957	30,89
551,434	31,06
551,911	31,35
552,387	30,88
552,864	30,96
553,34	31,33
553,817	30,98
554,293	31,17
554,769	30,74
555,245	31,24
555,721	31,51
556,197	31
556,672	30,79
557,148	30,57
557,623	30,89
558,099	30,88
558,574	31,06
559,049	31,15
559,524	30,78
559,999	30,49
560,474	30,34
560,948	30
561,423	30,35
561,897	30,52
562,372	30,34
562,846	29,82
563,32	30,14
563,794	29,6
564,268	29,7
564,742	29,62
565,216	29,49
565,69	28,98
566,163	29
566,636	28,56
567,11	28,6
567,583	28,36
568,056	27,63
568,529	27,99
569,002	27,72
569,475	27,49
569,947	27,17
570,42	27
570,892	27,05
571,365	26,85
571,837	26,63
572,309	26,7
572,781	26,24
573,253	25,69
573,725	25,5
574,197	25,39
574,668	25,3
575,14	25,22
575,611	25,05
576,082	24,5
576,554	24,6
577,025	24,44
577,496	24,42
577,967	23,72
578,437	24,09
578,908	23,78
579,379	23,68
579,849	23,38
580,319	23,3
580,79	22,85
581,26	22,97
581,73	23,07
582,2	22,96
582,669	22,88
583,139	22,56
583,609	22,29
584,078	22,57
584,548	22,23
585,017	22,52
585,486	21,79
585,955	21,8
586,424	21,72
586,893	21,72
587,362	21,46
587,83	21,38
588,299	21,31
588,767	21,38
589,236	21,11
589,704	21,17
590,172	20,92
590,64	20,73
591,108	20,77
591,576	20,79
592,043	20,41
592,511	20,82
592,978	20,94
593,446	20,63
593,913	20,59
594,38	20,45
594,847	20,49
595,314	20,31
595,781	20,25
596,248	20,24
596,715	20,15
597,181	20,08
597,647	20,21
598,114	20,07
598,58	19,97
599,046	20,3
599,512	19,72
599,978	19,99
600,444	20,12
600,91	19,99
601,375	19,66
601,841	19,63
602,306	19,53
602,771	19,35
603,236	19,46
603,702	19,33
604,167	19,56
604,631	19,71
605,096	19,23
605,561	19,14
606,025	19,18
606,49	19,01
606,954	18,89
607,418	18,76
607,882	18,77
608,347	18,94
608,81	18,94
609,274	18,27
609,738	18,74
610,202	18,32
610,665	18,26
611,128	18,01
611,592	17,96
612,055	17,88
612,518	17,79
612,981	17,99
613,444	17,49
613,907	17,68
614,369	17,61
614,832	17,45
615,294	17,34
615,757	17,28
616,219	16,98
616,681	17,01
617,143	16,78
617,605	16,75
618,067	16,8
618,529	16,67
618,99	16,53
619,452	16,26
619,913	16,43
620,375	16,36
620,836	16,27
621,297	16,41
621,758	16,26
622,219	15,78
622,68	15,88
623,14	16,08
623,601	15,98
624,061	15,99
624,522	16,09
624,982	15,84
625,442	15,51
625,902	15,9
626,362	15,8
626,822	15,69
627,282	15,88
627,742	15,66
628,201	15,54
628,661	15,77
629,12	15,49
629,579	15,49
630,038	15,75
630,497	15,45
630,956	15,36
631,415	15,43
631,874	15,45
632,332	15,28
632,791	15,22
633,249	15,21
633,708	15,18
634,166	15,09
634,624	15,21
635,082	15,17
635,54	14,89
635,998	15,05
636,455	14,83
636,913	14,67
637,37	14,83
637,828	14,59
638,285	14,43
638,742	14,66
639,199	14,28
639,656	14,14
640,113	14,01
640,57	14,04
641,027	14,02
641,483	13,81
641,94	13,51
642,396	13,71
642,852	13,43
643,309	13,32
643,765	13,61
644,221	13,1
644,676	13,22
645,132	12,99
645,588	12,62
646,043	12,66
646,499	12,43
646,954	12,54
647,409	12,61
647,864	12,28
648,319	12,29
648,774	12,04
649,229	12,1
649,684	11,93
650,139	11,94
650,593	11,88
651,047	11,56
651,502	11,59
651,956	11,69
652,41	11,8
652,864	11,57
653,318	11,63
653,772	11,41
654,225	11,6
654,679	11,58
655,133	11,39
655,586	11,35
656,039	11,17
656,492	11,33
656,946	11,39
657,399	10,91
657,851	10,87
658,304	10,97
658,757	11,15
659,209	10,71
659,662	10,94
660,114	10,69
660,567	10,76
661,019	10,5
661,471	10,44
661,923	10,55
662,375	10,43
662,826	10,43
663,278	10,42
663,73	10,2
664,181	10,26
664,632	10,16
665,084	10,37
665,535	10,21
665,986	10,29
666,437	10,25
666,888	10,22
667,338	10,12
667,789	10,29
668,24	10,31
668,69	10,19
669,14	10,03
669,591	10,26
670,041	10,26
670,491	10,36
670,941	10,32
671,391	10,33
671,84	10,39
672,29	10,46
672,74	10,42
673,189	10,48
673,638	10,51
674,088	10,66
674,537	10,77
674,986	10,84
675,435	10,88
675,883	10,97
676,332	11,04
676,781	11,17
677,229	11,16
677,678	11,27
678,126	11,22
678,574	11,65
679,022	11,44
679,47	11,82
679,918	11,99
680,366	11,74
680,814	11,96
681,261	12,13
681,709	12,11
682,156	12,29
682,604	12,4
683,051	12,67
683,498	12,62
683,945	12,75
684,392	12,72
684,839	13,04
685,286	12,95
685,732	12,93
686,179	13,31
686,625	13,4
687,071	13,44
687,518	13,73
687,964	13,63
688,41	13,79
688,856	14,01
689,301	14,4
689,747	14,69
690,193	14,66
690,638	15,11
691,084	15,29
691,529	15,99
691,974	16,02
692,419	16,64
692,864	16,92
693,309	17,51
693,754	17,91
694,199	18,28
694,643	19,13
695,088	19,26
695,532	20,14
695,977	20,39
696,421	21,58
696,865	21,91
697,309	22,39
697,753	23,08
698,197	23,9
698,64	24,4
699,084	25,34
699,527	25,97
699,971	26,29
700,414	27,29
700,857	27,14
701,3	28,43
701,743	28,93
702,186	29,73
702,629	30,63
703,072	31,12
703,515	31,3
703,957	32,08
704,399	33,03
704,842	33,56
705,284	34,21
705,726	34,89
706,168	35,55
706,61	36,22
707,052	36,42
707,494	37,15
707,935	37,58
708,377	38,37
708,818	38,7
709,26	39,77
709,701	40,04
710,142	40,75
710,583	41,2
711,024	41,84
711,465	42,52
711,905	43,03
712,346	43,44
712,787	43,53
713,227	44,71
713,667	44,66
714,108	45,48
714,548	45,94
714,988	46,91
715,428	46,68
715,868	47,3
716,307	47,87
716,747	48,96
717,186	49,01
717,626	49,15
718,065	49,98
718,504	50,1
718,944	50,48
719,383	50,42
719,822	51,52
720,261	51,69
720,699	52,29
721,138	52,42
721,576	53,07
722,015	53,6
722,453	53,86
722,892	54,46
723,33	54,5
723,768	54,94
724,206	55,4
724,644	55,55
725,081	55,44
725,519	55,76
725,957	56,11
726,394	56,19
726,832	56,58
727,269	57,61
727,706	57,52
728,143	57,72
728,58	58,14
729,017	58,32
729,454	58,34
729,89	58,79
730,327	59,11
730,764	58,96
731,2	59,6
731,636	59,03
732,072	59,41
732,509	59,76
732,945	60,41
733,38	60,18
733,816	60,14
734,252	60,76
734,688	60,51
735,123	60,8
735,559	60,42
735,994	60,88
736,429	60,86
736,864	61,14
737,299	61,3
737,734	61,28
738,169	61,53
738,604	61,08
739,038	61,54
739,473	61,93
739,907	61,57
740,342	61,89
740,776	61,84
741,21	61,74
741,644	62,33
742,078	62,29
742,512	61,85
742,946	61,97
743,379	62,1
743,813	62,58
744,246	62,27
744,68	62,41
745,113	62,62
745,546	61,84
745,979	61,96
746,412	62,32
746,845	62,1
747,278	62,13
747,711	62,59
748,143	62,88
748,576	62,26
749,008	61,92
749,441	62,05
749,873	61,72
750,305	61,98
750,737	61,95
751,169	62,14
751,601	61,98
752,032	61,85
752,464	61,74
752,896	62,16
753,327	62,3
753,758	62,28
754,19	62,23
754,621	62,04
755,052	61,81
755,483	61,35
755,914	61,72
756,344	62,17
756,775	61,6
757,206	61,78
757,636	61,69
758,066	61,16
758,497	61,41
758,927	61,87
759,357	62,1
759,787	61,64
760,217	61,54
760,647	61,36
761,076	61,23
761,506	60,77
761,935	61,49
762,365	61,3
762,794	61,32
763,223	61,04
763,653	61,37
764,082	61,45
764,51	61,24
764,939	61,6
765,368	61,04
765,797	61,38
766,225	60,87
766,654	60,66
767,082	60,92
767,51	61,16
767,938	60,33
768,367	60,84
768,795	61,04
769,222	60,98
769,65	60,73
770,078	61,32
770,505	60,63
770,933	60,76
771,36	60,57
771,788	60,73
772,215	60,76
772,642	60,35
773,069	60,13
773,496	60,64
773,923	60,68
774,349	60,63
774,776	60,45
775,203	60,74
775,629	60,3
776,055	60,13
776,482	60,25
776,908	60,39
777,334	60,39
777,76	60,49
778,186	60,22
778,611	60,36
779,037	59,89
779,463	60,58
779,888	60,18
780,314	60,1
780,739	60,12
781,164	59,87
781,589	60,27
782,014	59,95
782,439	59,87
782,864	59,97
783,289	60,3
783,713	59,97
784,138	60,21
784,562	60,47
784,987	60,07
785,411	59,61
785,835	59,89
786,259	60,15
786,683	60,16
787,107	60,21
787,531	60,29
787,954	60,35
788,378	60,19
788,802	60,15
789,225	60,07
789,648	59,63
790,071	59,9
790,495	60,16
790,918	60,01
791,34	59,77
791,763	59,81
792,186	59,53
792,609	59,59
793,031	60,19
793,454	59,82
793,876	59,54
794,298	60,12
794,721	59,96
795,143	59,86
795,565	59,86
795,986	59,3
796,408	59,68
796,83	60,05
797,252	59,82
797,673	59,23
798,094	59,98
798,516	59,37
798,937	60,13
799,358	59,69
799,779	59,98
800,2	59,76
800,621	59,75
801,042	59,57
801,462	59,01
801,883	59,54
802,303	59,31
802,724	59,87
803,144	59,83
803,564	59,53
803,984	59,57
804,404	59,48
804,824	59,71
805,244	59,69
805,664	59,82
806,084	59,22
806,503	59,36
806,923	59,38
807,342	59,9
807,761	59,38
808,18	59,87
808,599	59,98
809,018	59,63
809,437	59,11
809,856	59,86
810,275	59,26
810,693	59,24
811,112	59,68
811,53	59,69
811,949	59,77
812,367	59,34
812,785	59,6
813,203	59,51
813,621	59,31
814,039	59,34
814,457	59,42
814,874	59,14
815,292	59,17
815,709	59,7
816,127	59,46
816,544	59,33
816,961	59,48
817,378	59,43
817,795	58,74
818,212	59,84
818,629	59,01
819,046	59,31
819,462	59,36
819,879	59,35
820,295	59,41
820,712	59,83
821,128	59,98
821,544	58,98
821,96	59,13
822,376	59,51
822,792	59,88
823,208	59,22
823,624	59,51
824,039	59,45
824,455	59,29
824,87	59,58
825,286	59,14
825,701	58,97
826,116	59,42
826,531	59,37
826,946	59,46
827,361	59,56
827,776	58,92
828,19	59,73
828,605	58,99
829,02	59,05
829,434	59,27
829,848	59,36
830,263	59,5
830,677	59,19
831,091	58,62
831,505	59,48
831,919	59,82
832,332	59,15
832,746	59,56
833,16	59,13
833,573	59,43
833,987	58,99
