Data from G_4_Relative__1__00147.txt Node

Date: Tue Jan 30 10:10:34 CET 2024
User: diatiterra
Spectrometer: HDX00911
Trigger mode: 0
Integration Time (sec): 6,000000E-3
Scans to average: 2
Nonlinearity correction enabled: false
Boxcar width: 0
Storing dark spectrum: false
XAxis mode: Wavelengths
Number of Pixels in Spectrum: 2068
>>>>>Begin Spectral Data<<<<<
194,468	77,9
195,025	74,19
195,581	71,21
196,138	78,98
196,694	69,65
197,251	51,54
197,807	57,08
198,363	51,23
198,919	56,6
199,474	60,59
200,03	56,69
200,586	49,34
201,141	56,72
201,696	55,46
202,251	55,22
202,806	56,6
203,361	57,72
203,916	55,19
204,471	56,93
205,025	67,78
205,58	60,83
206,134	59,36
206,688	55,79
207,242	60,36
207,796	60,59
208,35	67,58
208,904	59,68
209,457	60,47
210,011	69,87
210,564	59,01
211,117	67,23
211,67	62,75
212,223	57,37
212,776	70,34
213,329	61,18
213,881	62,34
214,434	65,16
214,986	64,29
215,538	66,54
216,09	64,26
216,642	64,88
217,194	67,46
217,746	59,76
218,297	68,49
218,849	59,7
219,4	57,14
219,951	66,81
220,502	64,59
221,053	60,59
221,604	66,14
222,155	61,44
222,705	65,53
223,256	56,93
223,806	64,58
224,356	58,82
224,906	56,83
225,456	48,32
226,006	60,27
226,556	58,41
227,106	60,58
227,655	60,47
228,204	64,25
228,754	51,9
229,303	73,42
229,852	64,63
230,401	66,37
230,949	56,74
231,498	57,59
232,047	60,25
232,595	56,63
233,143	67,54
233,691	60,78
234,239	55,34
234,787	62,33
235,335	63,2
235,883	68,47
236,43	69,07
236,978	60,43
237,525	68,51
238,072	55,07
238,619	48,43
239,166	59,48
239,713	56,54
240,26	60,89
240,806	65,09
241,353	56,41
241,899	67,08
242,445	58,58
242,991	60,25
243,537	61,47
244,083	65,16
244,629	59,03
245,174	65,53
245,72	66,8
246,265	65,16
246,81	70,22
247,355	61,68
247,9	63,75
248,445	56,35
248,99	57,87
249,534	59,25
250,079	64,35
250,623	69,03
251,168	70,61
251,712	44,1
252,256	59,5
252,8	62,39
253,343	63,97
253,887	73,16
254,43	64,44
254,974	57,6
255,517	65,87
256,06	56,96
256,603	66,26
257,146	56,92
257,689	58,9
258,232	60,18
258,774	63,44
259,317	70,69
259,859	60
260,401	66,82
260,943	61
261,485	57,73
262,027	48,94
262,569	62,04
263,11	57,52
263,652	58,85
264,193	66,51
264,734	64,35
265,275	59,23
265,816	53,85
266,357	53,94
266,898	54,27
267,438	62,55
267,979	59,05
268,519	67,79
269,059	56,13
269,6	57,96
270,14	61,21
270,68	68,85
271,219	57,39
271,759	52,84
272,298	56
272,838	59,76
273,377	69,82
273,916	59,92
274,455	56,54
274,994	57,14
275,533	53,99
276,072	61,7
276,61	60,09
277,149	50
277,687	71,61
278,225	54,73
278,763	57,25
279,301	61,22
279,839	64,75
280,377	56,73
280,914	60,19
281,452	67,89
281,989	63,22
282,526	56,25
283,064	56,32
283,601	63,75
284,137	57,78
284,674	64,85
285,211	60,7
285,747	59,84
286,284	69,4
286,82	57,26
287,356	53,33
287,892	55,56
288,428	54,94
288,964	63,9
289,5	60
290,035	55,19
290,571	56,81
291,106	63,35
291,641	62,45
292,176	60,8
292,711	54,31
293,246	52,87
293,781	58,26
294,315	56,74
294,85	60,56
295,384	64,62
295,918	62,4
296,453	61,94
296,987	49,58
297,52	55,2
298,054	54,75
298,588	57,6
299,121	59,46
299,655	55,66
300,188	52,97
300,721	72,32
301,254	60,09
301,787	64,04
302,32	55,98
302,853	65,11
303,385	58,04
303,918	50,67
304,45	63,76
304,982	56,8
305,514	59,35
306,046	57,96
306,578	53,94
307,11	50,76
307,641	69,33
308,173	58,7
308,704	70,73
309,236	58,26
309,767	57,08
310,298	57,2
310,829	56,98
311,359	63,72
311,89	54,23
312,421	51,02
312,951	59,41
313,481	65,88
314,012	55,04
314,542	59,01
315,072	57,51
315,601	61,69
316,131	63,52
316,661	60,23
317,19	48,16
317,72	58,05
318,249	60,55
318,778	66,67
319,307	58,87
319,836	57,2
320,365	68,51
320,893	64,17
321,422	60,09
321,95	65,65
322,479	57,03
323,007	54,18
323,535	64,53
324,063	62,26
324,591	68,58
325,118	52,38
325,646	63,36
326,173	71,43
326,701	55,38
327,228	64,08
327,755	64,76
328,282	68,18
328,809	63,6
329,336	67,66
329,862	66,42
330,389	62,56
330,915	61,24
331,441	63,71
331,968	60,56
332,494	63,56
333,02	60,25
333,545	57,89
334,071	59,66
334,597	64,46
335,122	66,67
335,648	60,8
336,173	67,37
336,698	57,51
337,223	62,91
337,748	61,57
338,272	61,37
338,797	64,54
339,322	64,1
339,846	58,63
340,37	66,81
340,894	57,38
341,419	56,05
341,942	56,98
342,466	46,46
342,99	57,41
343,514	65,18
344,037	50,38
344,56	62,55
345,084	58,47
345,607	60,75
346,13	57,26
346,653	54,61
347,175	57,2
347,698	57,14
348,221	57,49
348,743	68,3
349,265	60
349,787	58,89
350,309	58,39
350,831	51,06
351,353	55,51
351,875	52,01
352,397	52,88
352,918	58,96
353,439	58,96
353,961	58,74
354,482	53,36
355,003	51,42
355,524	54,39
356,044	52
356,565	55,56
357,086	51,62
357,606	48,33
358,126	54,18
358,646	43,1
359,167	46,84
359,687	50,5
360,206	55,59
360,726	48,26
361,246	50,15
361,765	52,1
362,285	48,99
362,804	41,77
363,323	51,95
363,842	49,5
364,361	51,39
364,88	50,75
365,398	52,57
365,917	43,2
366,435	46,56
366,954	50,46
367,472	47,15
367,99	47,88
368,508	52,12
369,026	51,27
369,544	48,41
370,061	47,72
370,579	46,69
371,096	47,38
371,613	47,99
372,131	50,13
372,648	50,76
373,165	50,4
373,681	42,15
374,198	48,86
374,715	43,3
375,231	47,65
375,747	49,14
376,264	43,2
376,78	46,21
377,296	43,33
377,812	41,4
378,327	45,77
378,843	41,01
379,359	37,89
379,874	41,79
380,389	44,52
380,905	45,44
381,42	40,2
381,935	50,22
382,449	41,41
382,964	40,83
383,479	40,29
383,993	42,2
384,508	38,85
385,022	37,85
385,536	37,55
386,05	40,07
386,564	36,14
387,078	39,09
387,592	37,05
388,105	40,23
388,619	35,86
389,132	38,6
389,645	33,79
390,158	35,28
390,671	34,36
391,184	36,72
391,697	35,7
392,21	35,45
392,722	32,26
393,235	34,34
393,747	34,69
394,259	35,11
394,771	32,67
395,283	31,64
395,795	31,2
396,307	32,05
396,818	31,68
397,33	30,91
397,841	27,68
398,353	29,94
398,864	30,75
399,375	30,51
399,886	31,14
400,397	28,91
400,907	27,6
401,418	27,61
401,928	26,82
402,439	24,32
402,949	23,79
403,459	24,82
403,969	24,61
404,479	25,02
404,989	25,83
405,498	21,99
406,008	24,96
406,517	21,61
407,027	21,43
407,536	21,47
408,045	19,6
408,554	19,37
409,063	18,73
409,572	17,34
410,08	15,88
410,589	17,28
411,097	15,24
411,606	16,73
412,114	13,12
412,622	14,95
413,13	14,91
413,638	12,64
414,145	14,66
414,653	13,04
415,16	12,81
415,668	12,97
416,175	11,91
416,682	12,05
417,189	10,74
417,696	12,25
418,203	10,75
418,71	10,15
419,216	10,04
419,723	11,44
420,229	10,04
420,735	10,55
421,242	9,87
421,748	9,92
422,254	11,54
422,759	9,56
423,265	9,69
423,771	8,86
424,276	8,88
424,781	9,4
425,287	8,63
425,792	8,69
426,297	9,33
426,802	8,62
427,306	9,06
427,811	8,5
428,316	8,73
428,82	8,6
429,324	8,25
429,829	8,52
430,333	8,18
430,837	8,49
431,34	8,23
431,844	7,77
432,348	8,69
432,851	8,1
433,355	7,92
433,858	8,21
434,361	8,21
434,864	7,65
435,367	8,41
435,87	7,58
436,373	7,53
436,876	8,06
437,378	7,65
437,88	7,57
438,383	7,85
438,885	7,66
439,387	7,12
439,889	7,21
440,391	7,48
440,892	7,87
441,394	8,24
441,896	7,55
442,397	7,95
442,898	7,35
443,399	7,61
443,9	7,62
444,401	7,65
444,902	7,4
445,403	7,36
445,903	7,47
446,404	7,75
446,904	7,7
447,405	7,68
447,905	7,69
448,405	8,19
448,905	7,95
449,404	7,32
449,904	7,94
450,404	7,58
450,903	8,14
451,403	7,8
451,902	7,97
452,401	7,82
452,9	7,89
453,399	8,25
453,898	8,09
454,396	8,34
454,895	8,15
455,393	8,43
455,892	8,06
456,39	7,95
456,888	8,36
457,386	8,36
457,884	8,46
458,382	8,37
458,879	8,34
459,377	8,8
459,874	8,55
460,372	8,39
460,869	8,19
461,366	8,59
461,863	8,56
462,36	7,94
462,857	7,74
463,353	7,88
463,85	8,12
464,346	8,49
464,843	8,6
465,339	8,45
465,835	8,43
466,331	8,1
466,827	8,31
467,323	7,94
467,818	8,31
468,314	8,29
468,809	7,68
469,305	7,88
469,8	8,56
470,295	8,4
470,79	8,35
471,285	8,24
471,78	8,04
472,274	7,75
472,769	8,16
473,263	7,94
473,758	8,61
474,252	8,25
474,746	8,17
475,24	8,15
475,734	8,24
476,228	8,05
476,721	8,41
477,215	8,31
477,708	8,19
478,202	8,28
478,695	8,02
479,188	8,14
479,681	8,56
480,174	8,36
480,667	8,03
481,159	8,51
481,652	8,41
482,144	8,37
482,637	8,02
483,129	7,85
483,621	8,66
484,113	8,18
484,605	8,55
485,097	8,22
485,588	8,56
486,08	8,67
486,571	8,37
487,063	8,4
487,554	8,32
488,045	8,59
488,536	8,12
489,027	8,67
489,518	8,25
490,008	8,42
490,499	8,94
490,989	8,82
491,48	8,82
491,97	8,92
492,46	8,6
492,95	8,96
493,44	9,13
493,93	9,01
494,419	9,44
494,909	9,4
495,398	9,06
495,888	9,3
496,377	9,52
496,866	9,48
497,355	9,66
497,844	9,73
498,333	10,2
498,821	10,19
499,31	10,13
499,798	10,21
500,287	10,55
500,775	10,48
501,263	10,15
501,751	10,58
502,239	10,94
502,727	11,19
503,215	11,58
503,702	11,17
504,19	11,6
504,677	11,74
505,164	11,6
505,651	12,09
506,139	12,49
506,625	12,53
507,112	12,46
507,599	12,82
508,086	12,87
508,572	13,22
509,058	13,19
509,545	13,6
510,031	13,2
510,517	14,28
511,003	13,72
511,489	13,99
511,974	14,15
512,46	14,92
512,946	14,84
513,431	14,74
513,916	15,23
514,401	15,52
514,887	15,25
515,371	15,72
515,856	16,32
516,341	16,39
516,826	16,77
517,31	17,14
517,795	17,29
518,279	17,07
518,763	17,64
519,247	17,52
519,731	17,97
520,215	18,11
520,699	18,34
521,182	18,85
521,666	18,73
522,149	18,89
522,633	19,66
523,116	19,07
523,599	19,58
524,082	19,76
524,565	19,89
525,048	20,26
525,53	20,34
526,013	20,23
526,495	20,56
526,978	20,87
527,46	20,51
527,942	20,82
528,424	21,21
528,906	21,23
529,388	21,77
529,87	21,02
530,351	21,84
530,833	22,13
531,314	22,52
531,795	22,39
532,277	22,49
532,758	22,26
533,238	22,79
533,719	22,63
534,2	22,73
534,681	22,22
535,161	22,64
535,642	22,3
536,122	23,32
536,602	22,87
537,082	22,91
537,562	23,03
538,042	23,05
538,522	22,53
539,001	23,11
539,481	23,01
539,96	22,93
540,44	23,1
540,919	23,16
541,398	22,81
541,877	22,7
542,356	23,39
542,835	22,48
543,313	23,02
543,792	23,19
544,27	23,51
544,749	23,1
545,227	23,12
545,705	23,32
546,183	23,14
546,661	23,79
547,139	23,21
547,616	23,34
548,094	23,42
548,571	23,78
549,049	23,7
549,526	23,64
550,003	23,45
550,48	23,78
550,957	23,23
551,434	23,4
551,911	24
552,387	23,69
552,864	23,58
553,34	23,59
553,817	23,46
554,293	23,38
554,769	23,37
555,245	24,19
555,721	23,86
556,197	23,6
556,672	23,32
557,148	23,66
557,623	23,3
558,099	23,3
558,574	23,57
559,049	23,33
559,524	23,2
559,999	23,27
560,474	23,7
560,948	23,54
561,423	23,15
561,897	22,9
562,372	23,37
562,846	22,8
563,32	23,57
563,794	23,2
564,268	23,11
564,742	23,07
565,216	23,16
565,69	22,76
566,163	22,65
566,636	22,61
567,11	23,01
567,583	22,47
568,056	22,36
568,529	22,26
569,002	22,17
569,475	22,16
569,947	22,04
570,42	22,07
570,892	22,05
571,365	21,94
571,837	21,7
572,309	21,83
572,781	21,63
573,253	21,07
573,725	21,22
574,197	21,04
574,668	20,73
575,14	20,94
575,611	20,83
576,082	20,09
576,554	20,84
577,025	20,55
577,496	20,51
577,967	20,41
578,437	20,33
578,908	20,17
579,379	19,95
579,849	20,02
580,319	20,06
580,79	19,86
581,26	19,52
581,73	19,81
582,2	19,63
582,669	19,67
583,139	19,38
583,609	19,28
584,078	18,99
584,548	19,29
585,017	19,01
585,486	18,75
585,955	19,06
586,424	18,91
586,893	18,82
587,362	18,63
587,83	18,81
588,299	18,63
588,767	18,69
589,236	18,66
589,704	18,46
590,172	18,25
590,64	18,37
591,108	18,26
591,576	18,42
592,043	18,21
592,511	18
592,978	18,31
593,446	17,86
593,913	17,91
594,38	18,27
594,847	17,88
595,314	17,96
595,781	18,15
596,248	17,88
596,715	17,73
597,181	17,84
597,647	17,7
598,114	17,6
598,58	17,97
599,046	18,01
599,512	17,73
599,978	17,84
600,444	17,79
600,91	17,7
601,375	17,66
601,841	17,63
602,306	17,44
602,771	17,59
603,236	17,21
603,702	17,48
604,167	17,36
604,631	17,35
605,096	16,98
605,561	17,32
606,025	17,23
606,49	17,13
606,954	17,04
607,418	17
607,882	16,74
608,347	16,9
608,81	16,71
609,274	16,84
609,738	16,68
610,202	16,55
610,665	16,42
611,128	16,45
611,592	16,46
612,055	16,09
612,518	16,42
612,981	16,16
613,444	16,07
613,907	15,95
614,369	16,07
614,832	15,68
615,294	15,88
615,757	15,86
616,219	15,91
616,681	15,65
617,143	15,61
617,605	15,29
618,067	15,34
618,529	15,4
618,99	15,36
619,452	15,25
619,913	15,51
620,375	15,09
620,836	15,03
621,297	15,33
621,758	15,21
622,219	15,21
622,68	14,96
623,14	14,71
623,601	14,84
624,061	14,88
624,522	14,96
624,982	14,87
625,442	14,8
625,902	14,98
626,362	14,63
626,822	14,92
627,282	14,62
627,742	14,64
628,201	14,83
628,661	14,7
629,12	14,84
629,579	14,7
630,038	14,62
630,497	14,3
630,956	14,55
631,415	14,26
631,874	14,6
632,332	14,37
632,791	14,51
633,249	14,28
633,708	14,36
634,166	14,3
634,624	14,31
635,082	14,26
635,54	14,18
635,998	14
636,455	13,74
636,913	13,76
637,37	13,81
637,828	13,75
638,285	13,68
638,742	13,67
639,199	13,65
639,656	13,3
640,113	13,52
640,57	13,22
641,027	12,93
641,483	13,23
641,94	12,75
642,396	12,76
642,852	12,7
643,309	12,36
643,765	12,39
644,221	12,11
644,676	11,96
645,132	12,01
645,588	11,94
646,043	11,79
646,499	11,63
646,954	11,51
647,409	11,72
647,864	11,44
648,319	11,28
648,774	11,18
649,229	10,97
649,684	10,98
650,139	10,79
650,593	10,75
651,047	10,9
651,502	10,62
651,956	10,57
652,41	10,63
652,864	10,65
653,318	10,44
653,772	10,54
654,225	10,4
654,679	10,42
655,133	10,43
655,586	10,22
656,039	10,38
656,492	10,23
656,946	10,33
657,399	9,91
657,851	9,95
658,304	9,9
658,757	9,78
659,209	9,82
659,662	9,7
660,114	9,52
660,567	9,36
661,019	9,33
661,471	9,34
661,923	9,17
662,375	8,98
662,826	8,89
663,278	8,9
663,73	8,74
664,181	8,49
664,632	8,74
665,084	8,45
665,535	8,39
665,986	8,31
666,437	8,23
666,888	8,05
667,338	7,9
667,789	8,01
668,24	8
668,69	8,1
669,14	7,81
669,591	7,84
670,041	7,88
670,491	7,71
670,941	7,71
671,391	7,73
671,84	7,72
672,29	7,82
672,74	7,62
673,189	7,71
673,638	7,79
674,088	7,83
674,537	7,92
674,986	7,93
675,435	8,01
675,883	7,92
676,332	7,94
676,781	8,1
677,229	8,01
677,678	8,1
678,126	7,99
678,574	8,14
679,022	8,37
679,47	8,45
679,918	8,61
680,366	8,62
680,814	8,72
681,261	8,88
681,709	8,9
682,156	9,04
682,604	9,08
683,051	9,4
683,498	9,39
683,945	9,73
684,392	9,9
684,839	9,88
685,286	10,1
685,732	10,37
686,179	10,63
686,625	10,83
687,071	11,19
687,518	11,24
687,964	11,62
688,41	11,75
688,856	12,32
689,301	12,46
689,747	12,88
690,193	13,12
690,638	13,58
691,084	13,74
691,529	14,22
691,974	14,51
692,419	15,06
692,864	15,21
693,309	15,76
693,754	16,08
694,199	16,43
694,643	16,88
695,088	17,16
695,532	17,59
695,977	17,97
696,421	18,36
696,865	18,52
697,309	19
697,753	19,37
698,197	19,78
698,64	20,12
699,084	20,43
699,527	20,87
699,971	20,87
700,414	21,42
700,857	21,34
701,3	21,92
701,743	21,84
702,186	22,26
702,629	22,68
703,072	22,92
703,515	23,2
703,957	23,33
704,399	23,54
704,842	23,59
705,284	23,97
705,726	24,2
706,168	24,4
706,61	24,56
707,052	24,88
707,494	24,84
707,935	24,74
708,377	25,51
708,818	25,33
709,26	25,42
709,701	25,67
710,142	26,1
710,583	25,98
711,024	26,42
711,465	26,33
711,905	26,49
712,346	26,69
712,787	26,64
713,227	27,05
713,667	27,09
714,108	27,03
714,548	27,44
714,988	27,52
715,428	27,58
715,868	27,46
716,307	27,42
716,747	27,76
717,186	27,9
717,626	27,94
718,065	27,96
718,504	28,51
718,944	28,39
719,383	28,29
719,822	28,56
720,261	28,38
720,699	28,8
721,138	28,78
721,576	28,96
722,015	28,64
722,453	28,88
722,892	29,14
723,33	29,09
723,768	28,97
724,206	29,13
724,644	29,13
725,081	29,1
725,519	29,33
725,957	29,29
726,394	29,44
726,832	29,59
727,269	29,53
727,706	29,63
728,143	29,69
728,58	29,81
729,017	29,67
729,454	29,66
729,89	29,37
730,327	30,11
730,764	29,79
731,2	29,8
731,636	29,94
732,072	29,89
732,509	30,01
732,945	30,11
733,38	29,84
733,816	29,83
734,252	29,92
734,688	29,96
735,123	29,83
735,559	30,07
735,994	30,02
736,429	30,21
736,864	30,1
737,299	30,09
737,734	30,14
738,169	30,13
738,604	30,21
739,038	30,3
739,473	30,21
739,907	30,34
740,342	30,3
740,776	30,09
741,21	29,87
741,644	30,01
742,078	29,88
742,512	29,88
742,946	30,01
743,379	29,95
743,813	30,11
744,246	30,13
744,68	29,72
745,113	30,1
745,546	29,77
745,979	30,01
746,412	30,03
746,845	29,51
747,278	29,76
747,711	29,85
748,143	29,98
748,576	29,52
749,008	29,55
749,441	29,49
749,873	29,74
750,305	29,54
750,737	29,41
751,169	29,89
751,601	29,57
752,032	29,7
752,464	29,41
752,896	29,54
753,327	29,44
753,758	29,45
754,19	29,36
754,621	29,77
755,052	29,37
755,483	29,57
755,914	29,3
756,344	29,59
756,775	29,26
757,206	29,32
757,636	28,93
758,066	29,03
758,497	29,41
758,927	29,09
759,357	29,15
759,787	29,14
760,217	28,98
760,647	28,98
761,076	28,9
761,506	29,05
761,935	29,06
762,365	29,07
762,794	28,95
763,223	28,78
763,653	28,84
764,082	29,07
764,51	28,87
764,939	29,06
765,368	28,98
765,797	28,9
766,225	28,66
766,654	28,89
767,082	28,86
767,51	28,65
767,938	28,61
768,367	28,89
768,795	28,62
769,222	28,55
769,65	28,79
770,078	28,52
770,505	28,77
770,933	28,72
771,36	28,62
771,788	28,65
772,215	28,95
772,642	28,31
773,069	28,34
773,496	28,3
773,923	28,59
774,349	28,7
774,776	28,52
775,203	28,52
775,629	28,28
776,055	28,24
776,482	28,61
776,908	28,4
777,334	28,44
777,76	28,31
778,186	28,36
778,611	28,46
779,037	28,36
779,463	28,54
779,888	28,4
780,314	28,34
780,739	28,17
781,164	28,39
781,589	28,34
782,014	28,21
782,439	28,25
782,864	28,43
783,289	28,01
783,713	27,83
784,138	28,27
784,562	28,6
784,987	28,19
785,411	28
785,835	28,22
786,259	28,28
786,683	28,13
787,107	28,2
787,531	28,32
787,954	28,09
788,378	28,32
788,802	28,06
789,225	28,14
789,648	28,02
790,071	28,2
790,495	28
790,918	28,17
791,34	28,21
791,763	27,94
792,186	28,17
792,609	28,06
793,031	27,78
793,454	28,14
793,876	27,99
794,298	28,04
794,721	27,8
795,143	27,8
795,565	28,29
795,986	27,82
796,408	28,19
796,83	28,01
797,252	28,11
797,673	27,84
798,094	28,28
798,516	27,99
798,937	27,89
799,358	27,92
799,779	28,2
800,2	27,87
800,621	27,7
801,042	28,05
801,462	27,84
801,883	27,52
802,303	27,83
802,724	27,78
803,144	27,99
803,564	28,01
803,984	27,73
804,404	27,62
804,824	28,02
805,244	28,09
805,664	27,79
806,084	27,77
806,503	27,89
806,923	27,61
807,342	27,89
807,761	27,65
808,18	27,88
808,599	27,89
809,018	27,84
809,437	28,02
809,856	27,96
810,275	27,89
810,693	27,95
811,112	27,87
811,53	27,67
811,949	28,04
812,367	28,16
812,785	27,79
813,203	27,67
813,621	27,93
814,039	27,85
814,457	27,56
814,874	27,68
815,292	27,82
815,709	27,8
816,127	27,83
816,544	27,67
816,961	27,75
817,378	27,68
817,795	27,5
818,212	27,89
818,629	27,7
819,046	27,85
819,462	27,94
819,879	27,76
820,295	27,62
820,712	27,99
821,128	27,64
821,544	27,54
821,96	27,7
822,376	27,92
822,792	27,56
823,208	27,6
823,624	27,88
824,039	27,84
824,455	27,86
824,87	27,85
825,286	27,58
825,701	27,57
826,116	27,63
826,531	27,72
826,946	27,61
827,361	27,7
827,776	27,68
828,19	27,83
828,605	27,58
829,02	27,72
829,434	27,35
829,848	27,58
830,263	27,88
830,677	27,59
831,091	27,6
831,505	27,65
831,919	27,72
832,332	27,58
832,746	27,6
833,16	27,57
833,573	27,65
833,987	27,36
834,4	27,54
834,813	27,5
835,226	27,67
835,639	27,45
836,052	27,65
836,465	27,5
836,878	27,73
837,29	27,45
837,703	27,57
838,116	27,9
838,528	27,4
838,94	27,31
839,352	27,53
839,765	27,48
840,177	27,6
840,589	27,6
841	27,57
