Data from G_6_Relative__5__00161.txt Node

Date: Tue Jan 30 10:11:51 CET 2024
User: diatiterra
Spectrometer: HDX00911
Trigger mode: 0
Integration Time (sec): 6,000000E-3
Scans to average: 2
Nonlinearity correction enabled: false
Boxcar width: 0
Storing dark spectrum: false
XAxis mode: Wavelengths
Number of Pixels in Spectrum: 2068
>>>>>Begin Spectral Data<<<<<
194,468	90,61
195,025	96,77
195,581	88,64
196,138	85,35
196,694	90,05
197,251	78,85
197,807	72,5
198,363	75,41
198,919	75,74
199,474	77,54
200,03	73,23
200,586	79,3
201,141	81,93
201,696	71,43
202,251	75,62
202,806	72,34
203,361	87,8
203,916	80,91
204,471	84,65
205,025	72,8
205,58	85,25
206,134	73,31
206,688	71,24
207,242	86,94
207,796	70,34
208,35	86,76
208,904	78,23
209,457	78,29
210,011	77,29
210,564	67,12
211,117	87,66
211,67	67,61
212,223	77,29
212,776	84,32
213,329	78,48
213,881	80,95
214,434	75,82
214,986	81,25
215,538	83,46
216,09	77,51
216,642	78,93
217,194	99,04
217,746	76,49
218,297	78,57
218,849	80,61
219,4	76,19
219,951	86,73
220,502	76,26
221,053	84,32
221,604	81,5
222,155	70,34
222,705	70,64
223,256	77,15
223,806	70,42
224,356	79,9
224,906	86,78
225,456	69,33
226,006	83,48
226,556	79,2
227,106	70,54
227,655	83,26
228,204	86,88
228,754	76,37
229,303	86,94
229,852	77,29
230,401	83,41
230,949	74,82
231,498	79,02
232,047	78,69
232,595	84,34
233,143	85,09
233,691	70,67
234,239	77,86
234,787	88,79
235,335	74,46
235,883	79,28
236,43	81,78
236,978	74,35
237,525	74,47
238,072	76,65
238,619	68,61
239,166	75,43
239,713	84,81
240,26	80,24
240,806	75,86
241,353	74,79
241,899	76,95
242,445	73,22
242,991	80,33
243,537	76,62
244,083	79,19
244,629	70,93
245,174	73,19
245,72	79,54
246,265	81,9
246,81	76
247,355	74,82
247,9	88,33
248,445	65,08
248,99	67,66
249,534	64,53
250,079	79,17
250,623	77,43
251,168	75,51
251,712	69,43
252,256	75,21
252,8	74,78
253,343	76,11
253,887	78,35
254,43	79,63
254,974	79,2
255,517	87,02
256,06	63,71
256,603	83,13
257,146	74,62
257,689	80,08
258,232	85,97
258,774	72,69
259,317	75,43
259,859	78,1
260,401	81,31
260,943	76,76
261,485	75,91
262,027	65,96
262,569	85,19
263,11	78,32
263,652	67,7
264,193	78,6
264,734	79,17
265,275	81,12
265,816	74,79
266,357	76,35
266,898	75,21
267,438	80,43
267,979	75,43
268,519	79,33
269,059	62,85
269,6	79,2
270,14	73,71
270,68	69,67
271,219	79,13
271,759	72,49
272,298	72,4
272,838	68,13
273,377	77,48
273,916	70,43
274,455	77,69
274,994	78,34
275,533	69,96
276,072	80,43
276,61	76,32
277,149	75
277,687	83,47
278,225	66,26
278,763	72,14
279,301	75,1
279,839	76,23
280,377	75,92
280,914	66,67
281,452	80,08
281,989	80,58
282,526	70
283,064	72,8
283,601	71,67
284,137	74,67
284,674	71,97
285,211	75,98
285,747	69,69
286,284	85,78
286,82	76,61
287,356	73,78
287,892	61,73
288,428	71,67
288,964	70,12
289,5	72,09
290,035	69,71
290,571	68,09
291,106	73,76
291,641	70,31
292,176	74,8
292,711	65,09
293,246	71,65
293,781	74,78
294,315	78,14
294,85	70,92
295,384	70,75
295,918	66
296,453	69,23
296,987	68,64
297,52	66,97
298,054	76,02
298,588	71,2
299,121	73,87
299,655	72,17
300,188	66,95
300,721	71,43
301,254	69,51
301,787	76,32
302,32	67,52
302,853	77,87
303,385	72,16
303,918	75,56
304,45	80,35
304,982	77,6
305,514	63,82
306,046	76,11
306,578	73,44
307,11	77,65
307,641	81,93
308,173	72,61
308,704	79,67
309,236	74,78
309,767	74,58
310,298	67,2
310,829	67,05
311,359	81,42
311,89	69,23
312,421	63,67
312,951	74,06
313,481	81,04
314,012	70,54
314,542	69,82
315,072	69,1
315,601	76,61
316,131	73,82
316,661	75,29
317,19	64,08
317,72	74,58
318,249	73,85
318,778	86,01
319,307	67,34
319,836	74,8
320,365	75,32
320,893	79,13
321,422	73,99
321,95	77,83
322,479	73,09
323,007	68,53
323,535	77,36
324,063	71,6
324,591	79,69
325,118	77,06
325,646	75,43
326,173	79,46
326,701	64,14
327,228	73,47
327,755	74,76
328,282	85
328,809	71,93
329,336	78,72
329,862	72,63
330,389	74,45
330,915	69,38
331,441	76,37
331,968	64,14
332,494	75,56
333,02	69,04
333,545	67,21
334,071	71,43
334,597	71,9
335,122	77,48
335,648	74
336,173	75,85
336,698	85,41
337,223	81,22
337,748	76,08
338,272	70,39
338,797	77,69
339,322	85,47
339,846	74,7
340,37	76,42
340,894	77,64
341,419	76,61
341,942	75,19
342,466	67,26
342,99	67,3
343,514	80,16
344,037	71,05
344,56	67,33
345,084	76,27
345,607	66,42
346,13	78,23
346,653	67,16
347,175	78,39
347,698	76,92
348,221	70,85
348,743	80
349,265	76,73
349,787	73,87
350,309	65,33
350,831	68,66
351,353	79,18
351,875	78,39
352,397	70,85
352,918	84,06
353,439	81,27
353,961	72,38
354,482	75,84
355,003	71,61
355,524	76,01
356,044	74,18
356,565	71,88
357,086	69,48
357,606	67
358,126	73,58
358,646	67,24
359,167	83,39
359,687	70,3
360,206	83,71
360,726	71,29
361,246	70,9
361,765	67,31
362,285	73,49
362,804	70,12
363,323	70,27
363,842	77,89
364,361	77,4
364,88	71,77
365,398	70,09
365,917	67,46
366,435	71,07
366,954	77,51
367,472	75,08
367,99	73,65
368,508	76,97
369,026	74,5
369,544	75,94
370,061	63,27
370,579	75,14
371,096	70,42
371,613	69,44
372,131	74,41
372,648	72,59
373,165	77,04
373,681	69,63
374,198	74,94
374,715	67,27
375,231	69,63
375,747	72,59
376,264	69,9
376,78	74,88
377,296	65,48
377,812	72,82
378,327	71,36
378,843	71,94
379,359	71,81
379,874	69,23
380,389	68,04
380,905	70,28
381,42	59,8
381,935	68,97
382,449	64,45
382,964	62,19
383,479	69,1
383,993	66
384,508	61,92
385,022	60,08
385,536	61,34
386,05	57,14
386,564	61,4
387,078	60,21
387,592	61,8
388,105	58,77
388,619	59,77
389,132	60,23
389,645	54,07
390,158	56,06
390,671	60,06
391,184	61
391,697	59,74
392,21	55,07
392,722	57,08
393,235	54,95
393,747	56,32
394,259	56,15
394,771	51,64
395,283	53,67
395,795	53,2
396,307	51,79
396,818	53,72
397,33	50,13
397,841	48,83
398,353	50,06
398,864	48,71
399,375	48,82
399,886	44,89
400,397	50,59
400,907	47,85
401,418	43,64
401,928	45,43
402,439	44,39
402,949	44,18
403,459	44,2
403,969	42,66
404,479	42,65
404,989	41,2
405,498	38,08
406,008	38,86
406,517	36,44
407,027	37,79
407,536	34,87
408,045	33
408,554	34,12
409,063	30,11
409,572	32,63
410,08	28,42
410,589	30,13
411,097	27,14
411,606	28,27
412,114	26,13
412,622	27,77
413,13	25,97
413,638	23,88
414,145	24,05
414,653	23,19
415,16	23,02
415,668	23,26
416,175	21,47
416,682	21,7
417,189	20,73
417,696	21,78
418,203	21,2
418,71	20,42
419,216	20,01
419,723	18,85
420,229	19,37
420,735	19,19
421,242	19,6
421,748	19,62
422,254	19,4
422,759	19,18
423,265	17,77
423,771	17,05
424,276	17,28
424,781	17,04
425,287	16,98
425,792	16,23
426,297	17,39
426,802	17,69
427,306	16,93
427,811	15,72
428,316	17,29
428,82	16,57
429,324	16,31
429,829	16,96
430,333	16,82
430,837	16,91
431,34	15,84
431,844	16,77
432,348	16,38
432,851	15,84
433,355	15,54
433,858	16,17
434,361	16,26
434,864	14,91
435,367	16,37
435,87	16,13
436,373	15
436,876	15,98
437,378	15,32
437,88	15,11
438,383	16,45
438,885	15,98
439,387	14,6
439,889	15,08
440,391	15,49
440,892	15,46
441,394	15,3
441,896	15,02
442,397	15,45
442,898	15,26
443,399	15,02
443,9	14,95
444,401	15,36
444,902	14,98
445,403	15,5
445,903	15,91
446,404	15,82
446,904	16,14
447,405	15,08
447,905	15,82
448,405	16,19
448,905	16,36
449,404	16,16
449,904	15,93
450,404	15,46
450,903	16,35
451,403	15,79
451,902	16,69
452,401	16,99
452,9	16,74
453,399	16,96
453,898	16,38
454,396	16,29
454,895	16,25
455,393	16,16
455,892	16,53
456,39	17,14
456,888	17,36
457,386	15,92
457,884	16,59
458,382	17,04
458,879	16,94
459,377	16,88
459,874	16,92
460,372	16,82
460,869	17,02
461,366	16,92
461,863	17,13
462,36	16,62
462,857	16,58
463,353	16,96
463,85	16,34
464,346	16,68
464,843	16,45
465,339	16,85
465,835	16,57
466,331	16,7
466,827	16,92
467,323	16,5
467,818	16,82
468,314	16,85
468,809	16,56
469,305	16,66
469,8	16,91
470,295	17,41
470,79	16,83
471,285	16,89
471,78	16,14
472,274	16,25
472,769	16,76
473,263	16,99
473,758	17,13
474,252	16,95
474,746	16,69
475,24	17,17
475,734	16,9
476,228	16,73
476,721	16,71
477,215	17,33
477,708	16,97
478,202	16,62
478,695	17,39
479,188	17,66
479,681	17,31
480,174	16,93
480,667	17,46
481,159	17,35
481,652	17,43
482,144	17,29
482,637	17,19
483,129	17,22
483,621	17,53
484,113	17,14
484,605	17,16
485,097	17,54
485,588	17,99
486,08	17,65
486,571	17,59
487,063	17,89
487,554	17,37
488,045	17,87
488,536	17,64
489,027	18,16
489,518	17,6
490,008	17,98
490,499	18,48
490,989	18,31
491,48	18,65
491,97	18,41
492,46	18,48
492,95	18,52
493,44	18,89
493,93	18,97
494,419	19,07
494,909	19,26
495,398	19,19
495,888	19,65
496,377	19,6
496,866	20,16
497,355	20,01
497,844	19,97
498,333	20,19
498,821	20,6
499,31	20,77
499,798	21,13
500,287	21,2
500,775	21,44
501,263	21,98
501,751	21,89
502,239	22,17
502,727	22,68
503,215	23,34
503,702	23,24
504,19	23,25
504,677	23,56
505,164	24,05
505,651	24,35
506,139	25,08
506,625	24,9
507,112	25,12
507,599	25,87
508,086	26,64
508,572	26,87
509,058	26,5
509,545	27,18
510,031	27,25
510,517	27,44
511,003	27,91
511,489	28,43
511,974	29,53
512,46	29,82
512,946	29,76
513,431	29,43
513,916	30,65
514,401	30,84
514,887	30,52
515,371	31,6
515,856	32,21
516,341	32,77
516,826	32,82
517,31	32,92
517,795	33,73
518,279	33,65
518,763	34,1
519,247	34,75
519,731	35,34
520,215	35,49
520,699	35,82
521,182	36,72
521,666	36,35
522,149	36,84
522,633	38,01
523,116	37,71
523,599	38,56
524,082	38,84
524,565	39,79
525,048	39,67
525,53	39,7
526,013	40,36
526,495	39,94
526,978	40,52
527,46	40,66
527,942	42,12
528,424	41,86
528,906	41,68
529,388	41,89
529,87	42,12
530,351	41,83
530,833	43,15
531,314	43,25
531,795	43,46
532,277	42,65
532,758	42,94
533,238	44,24
533,719	43,49
534,2	44,7
534,681	44,11
535,161	44,72
535,642	43,99
536,122	44,26
536,602	44,23
537,082	43,85
537,562	44,18
538,042	44,14
538,522	44,11
539,001	45
539,481	44,53
539,96	45,01
540,44	44,56
540,919	45,38
541,398	45,06
541,877	45,21
542,356	45,65
542,835	44,62
543,313	44,56
543,792	44,78
544,27	45,51
544,749	45,31
545,227	44,92
545,705	44,89
546,183	45,87
546,661	46,01
547,139	44,94
547,616	45,2
548,094	45,2
548,571	45,42
549,049	45,54
549,526	45,3
550,003	45,9
550,48	45,77
550,957	44,99
551,434	45,99
551,911	46,07
552,387	45,21
552,864	45,62
553,34	46,36
553,817	46,3
554,293	46,07
554,769	46,06
555,245	46,24
555,721	46,68
556,197	45,19
556,672	45,61
557,148	46,47
557,623	45,88
558,099	46,12
558,574	45,3
559,049	45,83
559,524	45,91
559,999	44,59
560,474	45,4
560,948	45,18
561,423	45,39
561,897	45,14
562,372	45,81
562,846	44,78
563,32	45,27
563,794	45,27
564,268	44,79
564,742	45,84
565,216	44,44
565,69	43,88
566,163	44,82
566,636	44,19
567,11	44,36
567,583	44,39
568,056	43,6
568,529	43,19
569,002	43,67
569,475	43,74
569,947	43,13
570,42	43,19
570,892	42,71
571,365	42,01
571,837	42,32
572,309	42,2
572,781	42,22
573,253	41,65
573,725	41,56
574,197	41,09
574,668	41,24
575,14	41,81
575,611	41,61
576,082	40,38
576,554	40,4
577,025	40,12
577,496	40,18
577,967	40,11
578,437	40,39
578,908	39,93
579,379	39,67
579,849	38,67
580,319	39,35
580,79	39,29
581,26	38,72
581,73	38,76
582,2	38,49
582,669	39,09
583,139	38,22
583,609	37,79
584,078	37,84
584,548	37,99
585,017	37,99
585,486	37,3
585,955	37,11
586,424	37,26
586,893	37,05
587,362	37,15
587,83	36,37
588,299	37,37
588,767	36,62
589,236	36,77
589,704	35,89
590,172	36,37
590,64	36,01
591,108	36,24
591,576	36,1
592,043	36,16
592,511	36,04
592,978	35,5
593,446	35,81
593,913	35,88
594,38	35,98
594,847	35,87
595,314	35,51
595,781	35,67
596,248	34,89
596,715	35,71
597,181	35,36
597,647	35,12
598,114	35,03
598,58	34,86
599,046	35,37
599,512	34,69
599,978	34,7
600,444	34,78
600,91	34,66
601,375	35,05
601,841	34,78
602,306	34,71
602,771	34,55
603,236	34,41
603,702	34,47
604,167	34,18
604,631	34,22
605,096	33,72
605,561	34,24
606,025	34,02
606,49	33,67
606,954	33,95
607,418	33,95
607,882	33,54
608,347	33,27
608,81	33,25
609,274	33,07
609,738	33,03
610,202	32,94
610,665	32,91
611,128	32,9
611,592	32,53
612,055	32,86
612,518	32,37
612,981	32,09
613,444	32,33
613,907	31,73
614,369	31,56
614,832	31,92
615,294	31,77
615,757	31,37
616,219	31,36
616,681	31,1
617,143	31,62
617,605	31,3
618,067	30,55
618,529	30,79
618,99	30,44
619,452	30,4
619,913	30,22
620,375	30,84
620,836	30,2
621,297	30,48
621,758	30,13
622,219	29,99
622,68	29,88
623,14	29,65
623,601	29,82
624,061	29,8
624,522	29,57
624,982	29,53
625,442	29,41
625,902	29,24
626,362	29,79
626,822	29,5
627,282	29,77
627,742	29,48
628,201	28,97
628,661	29,41
629,12	29,49
629,579	29,48
630,038	29,32
630,497	29,27
630,956	29,17
631,415	29,18
631,874	28,95
632,332	29,21
632,791	28,43
633,249	28,75
633,708	28,71
634,166	28,41
634,624	28,29
635,082	28,5
635,54	28,39
635,998	28,1
636,455	27,88
636,913	27,62
637,37	27,93
637,828	27,7
638,285	27,27
638,742	27,45
639,199	26,64
639,656	26,78
640,113	26,71
640,57	26,12
641,027	26,26
641,483	26,24
641,94	25,78
642,396	25,73
642,852	25,52
643,309	25,02
643,765	24,73
644,221	24,74
644,676	24,68
645,132	24,18
645,588	24,07
646,043	23,95
646,499	23,62
646,954	23,7
647,409	23,35
647,864	23,09
648,319	22,97
648,774	22,75
649,229	22,51
649,684	22,73
650,139	22,41
650,593	22,16
651,047	22,23
651,502	22,09
651,956	21,78
652,41	21,85
652,864	21,77
653,318	21,66
653,772	21,48
654,225	21,37
654,679	21,15
655,133	21,45
655,586	20,74
656,039	20,8
656,492	20,87
656,946	20,82
657,399	20,49
657,851	20,25
658,304	20,16
658,757	20,19
659,209	19,99
659,662	19,83
660,114	19,51
660,567	19,26
661,019	18,94
661,471	18,95
661,923	18,84
662,375	18,35
662,826	18,64
663,278	18,26
663,73	18
664,181	17,94
664,632	17,67
665,084	17,55
665,535	17,47
665,986	17,26
666,437	17,29
666,888	16,89
667,338	16,77
667,789	16,86
668,24	16,63
668,69	16,63
669,14	16,47
669,591	16,51
670,041	16,33
670,491	16,4
670,941	16,35
671,391	16,36
671,84	16,19
672,29	16,27
672,74	16,13
673,189	16,27
673,638	16,2
674,088	16,56
674,537	16,42
674,986	16,37
675,435	16,61
675,883	16,94
676,332	16,51
676,781	16,71
677,229	16,8
677,678	17,06
678,126	16,89
678,574	17,17
679,022	17,29
679,47	17,43
679,918	17,66
680,366	17,67
680,814	17,79
681,261	18,11
681,709	18,44
682,156	18,35
682,604	18,6
683,051	19
683,498	19,35
683,945	19,57
684,392	19,8
684,839	20,27
685,286	20,5
685,732	20,75
686,179	21,24
686,625	22,02
687,071	22,28
687,518	22,66
687,964	23,06
688,41	23,85
688,856	24,51
689,301	24,8
689,747	25,4
690,193	26,24
690,638	26,96
691,084	26,98
691,529	28,19
691,974	28,34
692,419	29,4
692,864	29,99
693,309	30,88
693,754	31,41
694,199	31,66
694,643	32,85
695,088	33,46
695,532	34,08
695,977	34,92
696,421	35,55
696,865	36
697,309	36,58
697,753	37,51
698,197	38,13
698,64	38,8
699,084	39,51
699,527	39,83
699,971	40,54
700,414	41,44
700,857	41,39
701,3	42,07
701,743	42,14
702,186	43,05
702,629	43,23
703,072	44,18
703,515	44,41
703,957	44,61
704,399	45,04
704,842	45,65
705,284	45,63
705,726	46,86
706,168	47,02
706,61	47,05
707,052	47,3
707,494	47,88
707,935	48,34
708,377	48,77
708,818	48,65
709,26	49,11
709,701	49,49
710,142	49,64
710,583	50,08
711,024	50,49
711,465	50,85
711,905	50,75
712,346	50,66
712,787	51,01
713,227	51,49
713,667	51,63
714,108	51,87
714,548	52,84
714,988	52,41
715,428	52,55
715,868	52,75
716,307	53,33
716,747	53,36
717,186	53,63
717,626	53,94
718,065	54
718,504	53,95
718,944	54,09
719,383	54,27
719,822	54,56
720,261	54,33
720,699	54,88
721,138	55,02
721,576	55,08
722,015	55,48
722,453	55,44
722,892	55,69
723,33	55,34
723,768	55,88
724,206	55,75
724,644	55,9
725,081	55,65
725,519	55,87
725,957	56,19
726,394	56,46
726,832	56,26
727,269	56,3
727,706	56,94
728,143	56,63
728,58	56,95
729,017	57,31
729,454	56,82
729,89	56,69
730,327	57,07
730,764	57,29
731,2	57,29
731,636	57,32
732,072	57,24
732,509	57,11
732,945	57,1
733,38	57,31
733,816	56,96
734,252	57,17
734,688	57,18
735,123	57,53
735,559	57,06
735,994	57,33
736,429	57,58
736,864	57,6
737,299	57,65
737,734	57,55
738,169	57,65
738,604	57,35
739,038	57,62
739,473	58,01
739,907	57,47
740,342	57,43
740,776	57,67
741,21	57,63
741,644	57,77
742,078	57,69
742,512	57,46
742,946	57,56
743,379	57,62
743,813	57,76
744,246	57,73
744,68	57,28
745,113	57,72
745,546	57,3
745,979	57,2
746,412	57,53
746,845	57,09
747,278	57,19
747,711	57,18
748,143	57,46
748,576	57,31
749,008	56,49
749,441	57,16
749,873	57,11
750,305	56,95
750,737	57,08
751,169	57,3
751,601	56,76
752,032	56,93
752,464	56,84
752,896	56,91
753,327	57,02
753,758	56,82
754,19	56,59
754,621	56,49
755,052	56,72
755,483	56,49
755,914	56,58
756,344	56,31
756,775	56,49
757,206	56,24
757,636	56,03
758,066	56,2
758,497	56,48
758,927	56,5
759,357	56,35
759,787	56,13
760,217	56,58
760,647	56,03
761,076	56,15
761,506	56,14
761,935	56,33
762,365	56,02
762,794	55,87
763,223	55,2
763,653	55,68
764,082	56,07
764,51	55,87
764,939	56,34
765,368	55,85
765,797	56,17
766,225	55,54
766,654	55,39
767,082	55,5
767,51	55,53
767,938	55,25
768,367	55,77
768,795	55,39
769,222	55,28
769,65	55,47
770,078	55,45
770,505	55,49
770,933	55,29
771,36	55,06
771,788	55,07
772,215	55,08
772,642	54,96
773,069	54,9
773,496	54,73
773,923	55,26
774,349	54,85
774,776	55,17
775,203	55,12
775,629	55,49
776,055	54,91
776,482	55,24
776,908	55,08
777,334	55,14
777,76	55,03
778,186	54,84
778,611	54,88
779,037	54,8
779,463	55,25
779,888	54,55
780,314	54,6
780,739	54,52
781,164	54,52
781,589	54,87
782,014	54,35
782,439	54,74
782,864	54,93
783,289	54,78
783,713	54,59
784,138	54,65
784,562	54,85
784,987	54,65
785,411	54,45
785,835	54,81
786,259	54,64
786,683	55,06
787,107	54,63
787,531	54,6
787,954	54,26
788,378	54,74
788,802	54,36
789,225	54,6
789,648	54,18
790,071	54,65
790,495	54,73
790,918	54,24
791,34	54,51
791,763	54,22
792,186	54,35
792,609	54,39
793,031	54,26
793,454	54,51
793,876	54,63
794,298	54,06
794,721	54,53
795,143	54,36
795,565	54,36
795,986	54,59
796,408	54,25
796,83	54,16
797,252	54,16
797,673	54,02
798,094	54,39
798,516	53,99
798,937	54,2
799,358	54,15
799,779	54,61
800,2	54,26
800,621	54,12
801,042	54,38
801,462	53,87
801,883	53,64
802,303	53,9
802,724	54,49
803,144	54,32
803,564	54,16
803,984	54,12
804,404	54,38
804,824	53,64
805,244	54,68
805,664	54,27
806,084	54,1
806,503	53,94
806,923	54,03
807,342	53,85
807,761	53,77
808,18	54,1
808,599	54,1
809,018	54,51
809,437	54,17
809,856	53,89
810,275	54,09
810,693	54,22
811,112	53,97
811,53	54,59
811,949	54,12
812,367	54,54
812,785	53,98
813,203	54,32
813,621	53,96
814,039	54,38
814,457	54,19
814,874	53,84
815,292	54,21
815,709	54,03
816,127	53,93
816,544	53,31
816,961	53,99
817,378	53,78
817,795	53,69
818,212	53,61
818,629	53,77
819,046	54,06
819,462	54,37
819,879	54,13
820,295	53,98
820,712	53,9
821,128	54,08
821,544	53,97
821,96	53,82
822,376	53,94
822,792	54,03
823,208	53,44
823,624	53,87
824,039	53,79
824,455	53,99
824,87	53,62
825,286	54,14
825,701	53,47
826,116	53,67
826,531	54,29
826,946	54,07
827,361	53,71
827,776	53,61
828,19	54,16
828,605	53,38
829,02	53,39
829,434	53,41
829,848	53,9
830,263	53,8
830,677	53,75
831,091	53,52
831,505	53,48
831,919	53,71
832,332	53,2
832,746	54,2
833,16	53,91
833,573	53,8
833,987	53,43
834,4	53,49
