Data from G_6_Relative__8__00164.txt Node

Date: Tue Jan 30 10:12:06 CET 2024
User: diatiterra
Spectrometer: HDX00911
Trigger mode: 0
Integration Time (sec): 6,000000E-3
Scans to average: 2
Nonlinearity correction enabled: false
Boxcar width: 0
Storing dark spectrum: false
XAxis mode: Wavelengths
Number of Pixels in Spectrum: 2068
>>>>>Begin Spectral Data<<<<<
194,468	103,87
195,025	100,81
195,581	93,94
196,138	91,72
196,694	89,55
197,251	76,65
197,807	81,25
198,363	71,72
198,919	88,09
199,474	75,85
200,03	80,31
200,586	75,33
201,141	78,99
201,696	70,59
202,251	79,6
202,806	79,15
203,361	78,46
203,916	79,67
204,471	78,71
205,025	81,59
205,58	74,65
206,134	78,09
206,688	83,69
207,242	83,33
207,796	79,66
208,35	92,69
208,904	80,65
209,457	76,74
210,011	78,6
210,564	78,38
211,117	91,49
211,67	78,95
212,223	76,89
212,776	87,71
213,329	81,86
213,881	78,35
214,434	81,56
214,986	74,55
215,538	80,71
216,09	83,53
216,642	76,86
217,194	84,21
217,746	80,08
218,297	79,41
218,849	80,23
219,4	78,35
219,951	81,86
220,502	80,54
221,053	88,14
221,604	78,74
222,155	72,88
222,705	81,28
223,256	78,65
223,806	75,83
224,356	91,18
224,906	83,7
225,456	71,01
226,006	82,14
226,556	84,07
227,106	85,89
227,655	85,12
228,204	94,57
228,754	75,95
229,303	89,64
229,852	85,15
230,401	86,1
230,949	75,53
231,498	84,38
232,047	86,07
232,595	85,14
233,143	89,47
233,691	78,45
234,239	82,06
234,787	86,1
235,335	80,95
235,883	83,33
236,43	82,2
236,978	83,04
237,525	80,43
238,072	81,06
238,619	76,68
239,166	78,45
239,713	80,59
240,26	79,03
240,806	85,34
241,353	85,04
241,899	78,19
242,445	75,31
242,991	78,69
243,537	86,58
244,083	85,07
244,629	74,01
245,174	83,4
245,72	83,01
246,265	91,86
246,81	88,89
247,355	83,21
247,9	85
248,445	68,25
248,99	82,13
249,534	70,57
250,079	93,06
250,623	78,32
251,168	80,82
251,712	79,04
252,256	69,42
252,8	83,63
253,343	78,95
253,887	80,95
254,43	76,3
254,974	87,2
255,517	95,19
256,06	75,95
256,603	83,13
257,146	77,31
257,689	89,41
258,232	77,38
258,774	81,94
259,317	90,95
259,859	83,81
260,401	85,51
260,943	84,23
261,485	79,55
262,027	74,89
262,569	80,56
263,11	88,05
263,652	82,74
264,193	82,79
264,734	94,44
265,275	86,7
265,816	78,63
266,357	77,18
266,898	79,49
267,438	80,43
267,979	68,97
268,519	78,85
269,059	68,38
269,6	86,73
270,14	77,16
270,68	75,41
271,219	83,04
271,759	77,73
272,298	78,8
272,838	83,27
273,377	84,23
273,916	71,98
274,455	78,85
274,994	84,33
275,533	75,67
276,072	72,34
276,61	85,09
277,149	76,67
277,687	84,32
278,225	73,66
278,763	69,08
279,301	81,63
279,839	72,54
280,377	69,39
280,914	82,87
281,452	81,3
281,989	76,03
282,526	64,58
283,064	75,86
283,601	78,75
284,137	74,67
284,674	74,48
285,211	75,55
285,747	77,56
286,284	87,5
286,82	75
287,356	66,22
287,892	71,19
288,428	69,53
288,964	76,76
289,5	81,86
290,035	76,76
290,571	70,43
291,106	76,92
291,641	72,49
292,176	76,4
292,711	78,88
293,246	69,35
293,781	73,91
294,315	80
294,85	73,71
295,384	76,42
295,918	73,2
296,453	71,26
296,987	81,36
297,52	65,16
298,054	77,38
298,588	74,4
299,121	82,43
299,655	72,17
300,188	76,69
300,721	82,14
301,254	76,68
301,787	73,68
302,32	76,5
302,853	83,4
303,385	73,33
303,918	70,22
304,45	75,55
304,982	75,6
305,514	77,64
306,046	75,22
306,578	68,46
307,11	70,83
307,641	73,53
308,173	71,74
308,704	78,86
309,236	79,13
309,767	70,42
310,298	79,6
310,829	82,17
311,359	81,86
311,89	77,69
312,421	66,12
312,951	70,71
313,481	79,15
314,012	76,74
314,542	72,97
315,072	74,25
315,601	76,61
316,131	72,96
316,661	77,99
317,19	67,76
317,72	68,22
318,249	83,49
318,778	89,3
319,307	72,98
319,836	72
320,365	84,26
320,893	79,92
321,422	70,85
321,95	84,78
322,479	73,09
323,007	71,31
323,535	84,15
324,063	70,04
324,591	81,61
325,118	70,56
325,646	79,31
326,173	76,79
326,701	72,51
327,228	85,71
327,755	72,86
328,282	84,55
328,809	75,44
329,336	71,91
329,862	82,48
330,389	74,45
330,915	74,03
331,441	80,59
331,968	68,13
332,494	78,22
333,02	74,06
333,545	76,52
334,071	77,31
334,597	73,55
335,122	75,68
335,648	79,2
336,173	81,36
336,698	70,82
337,223	77,46
337,748	79,61
338,272	76,39
338,797	75,3
339,322	72,22
339,846	77,51
340,37	80,79
340,894	74,68
341,419	70,97
341,942	68,6
342,466	67,7
342,99	72,62
343,514	78,54
344,037	69,17
344,56	68,13
345,084	75,42
345,607	70,57
346,13	67,74
346,653	59,78
347,175	71,19
347,698	71,79
348,221	75,71
348,743	73,96
349,265	66,53
349,787	62,02
350,309	66,42
350,831	65,14
351,353	63,27
351,875	76,56
352,397	62,71
352,918	77,29
353,439	63,35
353,961	62,94
354,482	64,43
355,003	61,51
355,524	61,49
356,044	62,55
356,565	64,93
357,086	60,39
357,606	54,33
358,126	56,52
358,646	59,31
359,167	65,12
359,687	58,42
360,206	64,86
360,726	61,83
361,246	63,47
361,765	57,93
362,285	61,74
362,804	52,44
363,323	52,85
363,842	59,08
364,361	54,18
364,88	53,15
365,398	56,5
365,917	53,85
366,435	53,44
366,954	59,57
367,472	59,76
367,99	50,14
368,508	63,33
369,026	57,79
369,544	59,13
370,061	60,05
370,579	53,31
371,096	50,79
371,613	49,6
372,131	54,57
372,648	53,55
373,165	51,72
373,681	53,14
374,198	58,48
374,715	49,74
375,231	48,64
375,747	50,86
376,264	52,18
376,78	50,95
377,296	45,95
377,812	53,62
378,327	48,59
378,843	50,36
379,359	50,66
379,874	47,82
380,389	45,66
380,905	46,07
381,42	43,67
381,935	48,71
382,449	45,31
382,964	47,64
383,479	44,89
383,993	47,6
384,508	43,85
385,022	46,52
385,536	46,65
386,05	42,3
386,564	42,81
387,078	47,47
387,592	45,25
388,105	40,4
388,619	37,8
389,132	42,26
389,645	37,79
390,158	42,99
390,671	42,14
391,184	40,82
391,697	35,28
392,21	36,4
392,722	37,45
393,235	37,23
393,747	35,81
394,259	37,19
394,771	36,95
395,283	35,51
395,795	35,87
396,307	34,17
396,818	35,72
397,33	34,81
397,841	33,29
398,353	33,42
398,864	31,73
399,375	33
399,886	31,63
400,397	29,99
400,907	30,54
401,418	30,82
401,928	31,45
402,439	31,19
402,949	30,07
403,459	26,64
403,969	26,16
404,479	28,53
404,989	27,5
405,498	25,59
406,008	28,24
406,517	26,61
407,027	23,29
407,536	23,33
408,045	23,12
408,554	21,94
409,063	21,48
409,572	21,09
410,08	19,49
410,589	19,05
411,097	17,15
411,606	19,73
412,114	15,92
412,622	16,75
413,13	18,13
413,638	16,19
414,145	15,06
414,653	15,34
415,16	15,77
415,668	15,49
416,175	13,8
416,682	13,21
417,189	12,94
417,696	13,13
418,203	13,66
418,71	13,21
419,216	12,22
419,723	12,88
420,229	12,46
420,735	11,72
421,242	11,46
421,748	11,23
422,254	12,58
422,759	10,88
423,265	11,07
423,771	10,49
424,276	10,82
424,781	10,26
425,287	11,14
425,792	10,53
426,297	10,71
426,802	10,53
427,306	10,17
427,811	10,15
428,316	11,3
428,82	9,98
429,324	9,78
429,829	10,41
430,333	9,87
430,837	10,26
431,34	9,17
431,844	9,1
432,348	9,6
432,851	9,81
433,355	9,01
433,858	10,41
434,361	9,29
434,864	9,33
435,367	10
435,87	8,59
436,373	8,72
436,876	9,91
437,378	9,15
437,88	8,82
438,383	9,32
438,885	9,01
439,387	8,71
439,889	8,49
440,391	8,74
440,892	8,83
441,394	8,88
441,896	8,54
442,397	8,64
442,898	8,52
443,399	8,54
443,9	8,58
444,401	8,76
444,902	8,11
445,403	8,87
445,903	9,19
446,404	8,84
446,904	8,62
447,405	8,57
447,905	9,08
448,405	8,51
448,905	8,3
449,404	8,23
449,904	8,43
450,404	8,46
450,903	8,65
451,403	8,53
451,902	8,2
452,401	8,58
452,9	8,57
453,399	8,46
453,898	8,8
454,396	8,63
454,895	8,47
455,393	8,38
455,892	8,87
456,39	8,5
456,888	8,9
457,386	8,51
457,884	8,51
458,382	8,59
458,879	8,44
459,377	8,63
459,874	8,63
460,372	8,93
460,869	8,79
461,366	8,48
461,863	8,62
462,36	8,85
462,857	8
463,353	8,65
463,85	8,41
464,346	8,74
464,843	8,72
465,339	8,7
465,835	8,87
466,331	8,17
466,827	9,11
467,323	8,5
467,818	8,45
468,314	8,48
468,809	8,17
469,305	8,71
469,8	8,95
470,295	8,41
470,79	8,39
471,285	8,29
471,78	8,6
472,274	8,73
472,769	7,99
473,263	8,35
473,758	9,3
474,252	8,37
474,746	8,49
475,24	8,75
475,734	8,67
476,228	8,46
476,721	8,63
477,215	8,22
477,708	8,59
478,202	8,41
478,695	8,36
479,188	8,24
479,681	8,43
480,174	8,13
480,667	8,62
481,159	8,34
481,652	8,56
482,144	8,47
482,637	8,4
483,129	8,42
483,621	8,81
484,113	8,38
484,605	8,52
485,097	8,79
485,588	8,48
486,08	8,66
486,571	8,7
487,063	8,91
487,554	8,58
488,045	8,67
488,536	8,83
489,027	9,08
489,518	8,66
490,008	8,34
490,499	8,8
490,989	8,45
491,48	9,11
491,97	9,15
492,46	8,73
492,95	8,83
493,44	9,3
493,93	9,27
494,419	9,19
494,909	8,86
495,398	9,62
495,888	9,86
496,377	9,37
496,866	10,03
497,355	9,69
497,844	9,69
498,333	9,86
498,821	10,07
499,31	10,36
499,798	10,43
500,287	10,39
500,775	10,22
501,263	10,38
501,751	10,77
502,239	11,06
502,727	10,99
503,215	11,21
503,702	11,61
504,19	11,17
504,677	11,52
505,164	11,85
505,651	12,36
506,139	12,63
506,625	12,54
507,112	12,59
507,599	12,95
508,086	13,71
508,572	13,72
509,058	13,63
509,545	13,94
510,031	14,02
510,517	14,55
511,003	14,91
511,489	15,49
511,974	15,98
512,46	15,82
512,946	16,15
513,431	16,19
513,916	16,98
514,401	16,8
514,887	16,96
515,371	17,67
515,856	17,92
516,341	18,59
516,826	18,9
517,31	19,1
517,795	19,24
518,279	19,57
518,763	19,71
519,247	20,06
519,731	20,63
520,215	21,65
520,699	21,41
521,182	21,84
521,666	22,45
522,149	23,21
522,633	23,44
523,116	23,71
523,599	23,86
524,082	24,05
524,565	24,94
525,048	24,7
525,53	24,88
526,013	26,23
526,495	25,72
526,978	26,14
527,46	26,87
527,942	27,17
528,424	27,45
528,906	27,47
529,388	27,83
529,87	27,72
530,351	28,29
530,833	28,68
531,314	29,09
531,795	29,02
532,277	28,92
532,758	29,11
533,238	29,88
533,719	29,33
534,2	29,86
534,681	29,81
535,161	30,34
535,642	30
536,122	30,86
536,602	30,7
537,082	30,35
537,562	30,78
538,042	30,62
538,522	30,49
539,001	30,55
539,481	30,78
539,96	30,78
540,44	30,91
540,919	31,19
541,398	31,28
541,877	31,39
542,356	31,54
542,835	31,06
543,313	30,58
543,792	31,49
544,27	31,43
544,749	31,53
545,227	31,59
545,705	31,68
546,183	31,73
546,661	32,46
547,139	31,44
547,616	31,14
548,094	32,46
548,571	32,17
549,049	31,92
549,526	32,16
550,003	32,04
550,48	32,08
550,957	31,83
551,434	32,14
551,911	32,62
552,387	32,55
552,864	31,66
553,34	32,23
553,817	32,32
554,293	32,3
554,769	32,35
555,245	31,78
555,721	32,22
556,197	31,84
556,672	32,3
557,148	31,9
557,623	32,12
558,099	31,98
558,574	31,63
559,049	31,59
559,524	32,17
559,999	31,17
560,474	31,56
560,948	31,19
561,423	31
561,897	31,73
562,372	31,09
562,846	30,87
563,32	31,01
563,794	30,55
564,268	30,64
564,742	30,7
565,216	29,89
565,69	29,93
566,163	30,01
566,636	29,93
567,11	29,66
567,583	29,3
568,056	29,34
568,529	28,81
569,002	28,91
569,475	28,1
569,947	28,09
570,42	28,01
570,892	27,92
571,365	27,59
571,837	27,55
572,309	27,52
572,781	27,37
573,253	26,94
573,725	26,08
574,197	25,99
574,668	26,32
575,14	26,13
575,611	25,84
576,082	25,35
576,554	25,58
577,025	25,46
577,496	25,09
577,967	25,03
578,437	24,6
578,908	24,77
579,379	24,23
579,849	24,31
580,319	24,26
580,79	23,75
581,26	23,4
581,73	23,55
582,2	23,46
582,669	23,25
583,139	23,49
583,609	23,48
584,078	22,93
584,548	23,18
585,017	23,01
585,486	22,8
585,955	22,36
586,424	22,46
586,893	21,96
587,362	22,23
587,83	21,74
588,299	21,9
588,767	22,07
589,236	22,05
589,704	21,22
590,172	21,69
590,64	21,67
591,108	21,35
591,576	21,26
592,043	21,01
592,511	20,95
592,978	21,45
593,446	21,15
593,913	21,24
594,38	21,1
594,847	20,99
595,314	20,48
595,781	20,86
596,248	20,6
596,715	20,92
597,181	20,59
597,647	20,62
598,114	20,6
598,58	20,59
599,046	20,33
599,512	20,4
599,978	20,16
600,444	20,32
600,91	20,24
601,375	20,51
601,841	20,21
602,306	20,09
602,771	20,24
603,236	20,1
603,702	20,08
604,167	20,17
604,631	20,01
605,096	19,29
605,561	19,49
606,025	19,64
606,49	19,44
606,954	19,61
607,418	19,38
607,882	19,1
608,347	19,01
608,81	19,06
609,274	19,1
609,738	19,05
610,202	18,59
610,665	18,42
611,128	18,35
611,592	18,35
612,055	18,08
612,518	17,93
612,981	17,79
613,444	17,83
613,907	17,8
614,369	17,64
614,832	17,48
615,294	17,4
615,757	17,14
616,219	17,34
616,681	17,13
617,143	17,33
617,605	16,62
618,067	16,74
618,529	16,54
618,99	16,61
619,452	16,54
619,913	16,44
620,375	16,21
620,836	16,14
621,297	16,1
621,758	16,01
622,219	16,05
622,68	15,64
623,14	15,78
623,601	15,7
624,061	15,92
624,522	15,92
624,982	15,77
625,442	15,52
625,902	15,62
626,362	15,79
626,822	15,52
627,282	15,66
627,742	15,49
628,201	15,57
628,661	15,87
629,12	15,38
629,579	15,56
630,038	15,34
630,497	15,42
630,956	15,56
631,415	15,53
631,874	15,31
632,332	15,08
632,791	15,17
633,249	15,15
633,708	15,29
634,166	14,94
634,624	14,91
635,082	14,99
635,54	14,86
635,998	14,71
636,455	14,59
636,913	14,44
637,37	14,64
637,828	14,41
638,285	14,2
638,742	14,17
639,199	13,84
639,656	13,75
640,113	13,87
640,57	13,46
641,027	13,38
641,483	13,46
641,94	13,1
642,396	12,78
642,852	12,96
643,309	12,76
643,765	12,49
644,221	12,35
644,676	12,25
645,132	12,16
645,588	11,83
646,043	11,66
646,499	11,76
646,954	11,45
647,409	11,48
647,864	11,41
648,319	11,07
648,774	10,86
649,229	11
649,684	10,92
650,139	10,63
650,593	10,54
651,047	10,72
651,502	10,69
651,956	10,48
652,41	10,36
652,864	10,38
653,318	10,04
653,772	10,37
654,225	10,09
654,679	10,06
655,133	10,24
655,586	10,17
656,039	9,99
656,492	9,8
656,946	9,68
657,399	9,72
657,851	9,59
658,304	9,43
658,757	9,39
659,209	9,42
659,662	9,25
660,114	9,19
660,567	9,16
661,019	8,81
661,471	8,9
661,923	8,72
662,375	8,67
662,826	8,63
663,278	8,41
663,73	8,32
664,181	8,15
664,632	8,4
665,084	8,08
665,535	8,01
665,986	8,11
666,437	8,08
666,888	8
667,338	8,04
667,789	7,86
668,24	7,9
668,69	7,85
669,14	7,77
669,591	7,84
670,041	7,89
670,491	7,73
670,941	7,93
671,391	7,9
671,84	7,88
672,29	7,99
672,74	7,95
673,189	8,02
673,638	8,02
674,088	8,28
674,537	8,21
674,986	8,36
675,435	8,43
675,883	8,48
676,332	8,58
676,781	8,63
677,229	8,61
677,678	8,92
678,126	8,79
678,574	8,98
679,022	9,1
679,47	9,38
679,918	9,44
680,366	9,56
680,814	9,67
681,261	9,9
681,709	9,97
682,156	10,02
682,604	10,02
683,051	10,16
683,498	10,38
683,945	10,55
684,392	10,9
684,839	10,74
685,286	11,12
685,732	11,27
686,179	11,28
686,625	11,57
687,071	11,95
687,518	12,08
687,964	12,37
688,41	12,52
688,856	13,14
689,301	13,48
689,747	13,8
690,193	14,22
690,638	14,83
691,084	15
691,529	15,81
691,974	16,15
692,419	16,73
692,864	17,36
693,309	17,88
693,754	18,38
694,199	19,09
694,643	19,62
695,088	20,32
695,532	20,9
695,977	21,45
696,421	22,42
696,865	23
697,309	23,98
697,753	24,49
698,197	25,5
698,64	26
699,084	26,44
699,527	27,48
699,971	27,97
700,414	28,7
700,857	28,94
701,3	30,06
701,743	30,45
702,186	31,32
702,629	31,75
703,072	32,57
703,515	32,95
703,957	33,69
704,399	34,19
704,842	35,32
705,284	35,63
705,726	36,2
706,168	36,88
706,61	37,16
707,052	37,7
707,494	38,18
707,935	38,94
708,377	39,57
708,818	39,69
709,26	40,6
709,701	40,94
710,142	41,32
710,583	42,21
711,024	42,47
711,465	43,18
711,905	43,85
712,346	43,59
712,787	44,15
713,227	44,92
713,667	44,9
714,108	45,27
714,548	46,07
714,988	46,53
715,428	46,36
715,868	47,27
716,307	47,53
716,747	47,59
717,186	48,52
717,626	48,91
718,065	49,46
718,504	49,76
718,944	49,51
719,383	49,93
719,822	50,53
720,261	50,87
720,699	50,7
721,138	51,34
721,576	51,77
722,015	52,55
722,453	52,18
722,892	52,78
723,33	52,76
723,768	53,35
724,206	53,59
724,644	53,79
725,081	53,47
725,519	53,94
725,957	54,35
726,394	54,78
726,832	54,94
727,269	55,29
727,706	55,58
728,143	55,76
728,58	55,82
729,017	56,25
729,454	55,77
729,89	56,07
730,327	56,84
730,764	56,59
731,2	57,34
731,636	56,88
732,072	56,8
732,509	56,93
732,945	57,85
733,38	57,34
733,816	57,15
734,252	57,85
734,688	57,62
735,123	57,8
735,559	57,74
735,994	58,01
736,429	57,92
736,864	58,29
737,299	58,11
737,734	58,6
738,169	58,67
738,604	58,27
739,038	58,35
739,473	58,62
739,907	58,67
740,342	59,04
740,776	58,73
741,21	58,68
741,644	58,96
742,078	58,72
742,512	58,49
742,946	58,99
743,379	59,06
743,813	59,13
744,246	59,04
744,68	59,18
745,113	59,18
745,546	59,02
745,979	58,97
746,412	59,05
746,845	58,73
747,278	59,03
747,711	59,01
748,143	59,21
748,576	59,04
749,008	58,59
749,441	59,3
749,873	58,73
750,305	59,19
750,737	58,69
751,169	58,73
751,601	58,83
752,032	58,51
752,464	58,28
752,896	58,97
753,327	58,72
753,758	58,4
754,19	58,56
754,621	59
755,052	58,68
755,483	58,32
755,914	58,15
756,344	58,82
756,775	58,16
757,206	58,48
757,636	58,31
758,066	58,16
758,497	58,51
758,927	58,49
759,357	58,62
759,787	57,91
760,217	58,16
760,647	58,02
761,076	57,88
761,506	57,93
761,935	58,13
762,365	58,05
762,794	58,16
763,223	57,19
763,653	58,27
764,082	57,82
764,51	57,77
764,939	57,93
765,368	58
765,797	57,91
766,225	57,68
766,654	57,5
767,082	57,52
767,51	57,65
767,938	57,46
768,367	57,89
768,795	57,46
769,222	57,34
769,65	57,42
770,078	57,61
770,505	57,22
770,933	57,61
771,36	57,37
771,788	57,52
772,215	57,13
772,642	57,12
773,069	56,94
773,496	57,29
773,923	57
774,349	57
774,776	57,36
775,203	57,6
775,629	57,34
776,055	57,11
776,482	57,21
776,908	57,24
777,334	56,69
777,76	57,3
778,186	56,85
778,611	57,14
779,037	56,65
779,463	56,75
779,888	56,92
780,314	56,87
780,739	56,57
781,164	56,88
781,589	56,89
782,014	56,72
782,439	56,47
782,864	56,93
783,289	56,67
783,713	56,77
784,138	56,9
784,562	56,76
784,987	56,99
785,411	56,53
785,835	56,96
786,259	57,07
786,683	57,07
787,107	56,57
787,531	56,97
787,954	56,5
788,378	57,44
788,802	56,74
789,225	56,44
789,648	56,6
790,071	56,32
790,495	56,78
790,918	56,72
791,34	56,69
791,763	56,6
792,186	56,33
792,609	57,05
793,031	56,43
793,454	56,69
793,876	56,58
794,298	56,67
794,721	57,04
795,143	56,34
795,565	56,7
795,986	56,07
796,408	56,14
796,83	56,61
797,252	56,03
797,673	56,1
798,094	56,65
798,516	56,62
798,937	56,38
799,358	56,54
799,779	56,61
800,2	56,19
800,621	56,48
801,042	56,89
801,462	56,13
801,883	56,34
802,303	56,25
802,724	56,64
803,144	56,49
803,564	56,53
803,984	56,48
804,404	56,26
804,824	56,35
805,244	56,64
805,664	56,24
806,084	56,44
806,503	56,28
806,923	56,22
807,342	56,44
807,761	56,21
808,18	56,82
808,599	56,41
809,018	56,15
809,437	56,4
809,856	56,17
810,275	56,42
810,693	56,5
811,112	56,53
811,53	56,62
811,949	56,46
812,367	56,62
812,785	56,47
813,203	56,05
813,621	56,19
814,039	56,25
814,457	56,42
814,874	55,89
815,292	55,92
815,709	56,1
816,127	56,23
816,544	56,07
816,961	56,15
817,378	56,24
817,795	56,03
818,212	56,15
818,629	56,38
819,046	56,36
819,462	56,5
819,879	56,47
820,295	56,54
820,712	56,17
821,128	56,44
821,544	56,13
821,96	56,24
822,376	56,83
822,792	56,25
823,208	55,84
823,624	56,55
824,039	56,22
824,455	56,18
824,87	56,07
825,286	56,1
825,701	55,79
826,116	56,23
826,531	56,03
826,946	56,32
827,361	56,36
827,776	55,86
828,19	56,25
828,605	56,03
829,02	56,3
829,434	55,68
829,848	56,12
830,263	55,87
830,677	56,14
831,091	56,17
831,505	55,66
831,919	56,45
832,332	55,93
832,746	56,08
833,16	56,56
833,573	55,67
833,987	55,59
834,4	56,03
834,813	56,23
835,226	55,61
835,639	56,08
836,052	56,48
836,465	55,97
836,878	56,06
837,29	55,7
837,703	56,29
838,116	55,96
838,528	56,04
838,94	55,66
839,352	56,33
