Data from G_6_Relative__2__00158.txt Node

Date: Tue Jan 30 10:11:39 CET 2024
User: diatiterra
Spectrometer: HDX00911
Trigger mode: 0
Integration Time (sec): 6,000000E-3
Scans to average: 2
Nonlinearity correction enabled: false
Boxcar width: 0
Storing dark spectrum: false
XAxis mode: Wavelengths
Number of Pixels in Spectrum: 2068
>>>>>Begin Spectral Data<<<<<
194,468	93,37
195,025	84,68
195,581	86,36
196,138	83,44
196,694	76,62
197,251	74,45
197,807	70,42
198,363	74,18
198,919	76,6
199,474	73,73
200,03	63,39
200,586	69,16
201,141	67,23
201,696	66,39
202,251	66,67
202,806	62,55
203,361	72,36
203,916	69,29
204,471	66,34
205,025	63,18
205,58	66,36
206,134	58,96
206,688	66,52
207,242	75,23
207,796	69,07
208,35	77,63
208,904	70,16
209,457	74,42
210,011	73,36
210,564	70,72
211,117	74,04
211,67	69,23
212,223	67,73
212,776	78,81
213,329	69,62
213,881	74,46
214,434	62,7
214,986	65,62
215,538	75,2
216,09	74,7
216,642	78,1
217,194	81,34
217,746	70,12
218,297	73,11
218,849	65,78
219,4	71
219,951	80,53
220,502	70,04
221,053	81,78
221,604	74,02
222,155	66,53
222,705	71,49
223,256	71,16
223,806	71,25
224,356	71,57
224,906	79,3
225,456	61,76
226,006	79,46
226,556	76,55
227,106	67,63
227,655	67,91
228,204	81
228,754	67,09
229,303	74,32
229,852	76,86
230,401	73,09
230,949	62,77
231,498	71,43
232,047	71,31
232,595	66,27
233,143	75,88
233,691	75,27
234,239	60,31
234,787	69,06
235,335	75,32
235,883	81,08
236,43	72,88
236,978	76,52
237,525	70,64
238,072	61,67
238,619	60,09
239,166	69,4
239,713	71,31
240,26	73,39
240,806	66,81
241,353	73,93
241,899	70,37
242,445	70,71
242,991	76,23
243,537	64,5
244,083	71,04
244,629	75,77
245,174	74,04
245,72	71,43
246,265	75,11
246,81	80,89
247,355	74,45
247,9	76,67
248,445	64,29
248,99	68,09
249,534	62,64
250,079	81,94
250,623	75,22
251,168	77,14
251,712	62,01
252,256	62,4
252,8	74,78
253,343	74,49
253,887	79,22
254,43	72,96
254,974	70
255,517	79,33
256,06	59,49
256,603	73,66
257,146	57,31
257,689	68,64
258,232	72,4
258,774	65,64
259,317	74,57
259,859	73,33
260,401	72,43
260,943	75,1
261,485	71,36
262,027	74,47
262,569	72,69
263,11	68,58
263,652	70,35
264,193	80,93
264,734	74,54
265,275	70,82
265,816	64,96
266,357	67,22
266,898	74,79
267,438	70,64
267,979	67,67
268,519	78,37
269,059	59,29
269,6	75,22
270,14	69,83
270,68	70,08
271,219	77,83
271,759	67,69
272,298	71,2
272,838	65,34
273,377	78,38
273,916	71,98
274,455	68,08
274,994	70,97
275,533	68,06
276,072	68,94
276,61	73,68
277,149	72,5
277,687	77,54
278,225	70,37
278,763	60,69
279,301	66,94
279,839	75,41
280,377	62,45
280,914	69,44
281,452	74,8
281,989	74,79
282,526	67,92
283,064	63,6
283,601	70,83
284,137	63,11
284,674	67,36
285,211	70,31
285,747	65,75
286,284	75,86
286,82	56,85
287,356	68,89
287,892	61,32
288,428	67,81
288,964	70,54
289,5	66,51
290,035	67,63
290,571	69,65
291,106	64,25
291,641	68,56
292,176	68
292,711	65,09
293,246	63,22
293,781	62,61
294,315	73,49
294,85	67,73
295,384	76,42
295,918	68
296,453	64,78
296,987	59,32
297,52	69,68
298,054	66,97
298,588	66,4
299,121	66,22
299,655	69,34
300,188	66,1
300,721	69,64
301,254	64,13
301,787	69,74
302,32	63,25
302,853	70,64
303,385	63,92
303,918	53,33
304,45	67,69
304,982	65,6
305,514	61,38
306,046	67,26
306,578	66,39
307,11	62,88
307,641	64,71
308,173	66,52
308,704	73,98
309,236	73,04
309,767	63,75
310,298	64,4
310,829	67,44
311,359	66,37
311,89	70,77
312,421	66,53
312,951	67,36
313,481	73,46
314,012	62,79
314,542	66,67
315,072	66,52
315,601	65,73
316,131	65,24
316,661	69,5
317,19	65,31
317,72	66,95
318,249	70,18
318,778	70,37
319,307	63,31
319,836	67,6
320,365	68,09
320,893	82,28
321,422	64,57
321,95	71,3
322,479	63,86
323,007	66,14
323,535	64,15
324,063	69,65
324,591	74,71
325,118	61,9
325,646	65,95
326,173	65,62
326,701	66,14
327,228	63,67
327,755	67,62
328,282	77,73
328,809	63,6
329,336	76,6
329,862	64,23
330,389	66,08
330,915	58,91
331,441	68,78
331,968	67,73
332,494	64
333,02	62,34
333,545	61,13
334,071	63,87
334,597	65,7
335,122	68,92
335,648	69,6
336,173	72,88
336,698	56,22
337,223	65,73
337,748	69,8
338,272	65,67
338,797	68,13
339,322	68,38
339,846	60,24
340,37	69
340,894	64,14
341,419	68,15
341,942	62,79
342,466	61,06
342,99	62,74
343,514	63,16
344,037	61,65
344,56	66,14
345,084	63,14
345,607	62,26
346,13	72,58
346,653	60,15
347,175	64,83
347,698	65,57
348,221	68,02
348,743	72,08
349,265	67,35
349,787	59,23
350,309	61,31
350,831	56,34
351,353	57,14
351,875	59,71
352,397	61,69
352,918	68,92
353,439	56,57
353,961	62,24
354,482	58,39
355,003	60,25
355,524	59,46
356,044	61,45
356,565	56,94
357,086	60,39
357,606	51,67
358,126	60,54
358,646	53,79
359,167	55,15
359,687	53,8
360,206	60,38
360,726	52,37
361,246	55,73
361,765	55,34
362,285	55,03
362,804	55,18
363,323	54,35
363,842	50,5
364,361	53,25
364,88	55,56
365,398	53,17
365,917	53,55
366,435	53,72
366,954	53,19
367,472	56,46
367,99	50,71
368,508	58,79
369,026	58,92
369,544	50,72
370,061	51,47
370,579	57,18
371,096	59,69
371,613	52,01
372,131	55,87
372,648	55,08
373,165	53,56
373,681	46,34
374,198	51,65
374,715	45,36
375,231	51,36
375,747	49,38
376,264	47,33
376,78	50,24
377,296	48,1
377,812	47,88
378,327	51,64
378,843	48,2
379,359	51,54
379,874	48,65
380,389	41,55
380,905	47,77
381,42	42,24
381,935	46,34
382,449	46,48
382,964	44,99
383,479	45,72
383,993	45
384,508	41,54
385,022	45,39
385,536	39,78
386,05	37,85
386,564	40,88
387,078	42,41
387,592	42,13
388,105	43,87
388,619	39,26
389,132	35,61
389,645	38,86
390,158	39,69
390,671	40,97
391,184	39,91
391,697	39,54
392,21	35,99
392,722	38,15
393,235	39,15
393,747	36,66
394,259	34,96
394,771	36,23
395,283	32,04
395,795	37,07
396,307	34,04
396,818	31,55
397,33	34,55
397,841	30,94
398,353	31,23
398,864	32,6
399,375	31,76
399,886	31,02
400,397	31,72
400,907	30,01
401,418	27,4
401,928	29,39
402,439	28,79
402,949	26,57
403,459	27,55
403,969	26,74
404,479	26,54
404,989	26,94
405,498	24,36
406,008	24,78
406,517	25,17
407,027	23,61
407,536	23,49
408,045	22,28
408,554	20,25
409,063	20,14
409,572	20
410,08	18,26
410,589	18,16
411,097	17,93
411,606	16,9
412,114	15,46
412,622	15,51
413,13	16,04
413,638	14,39
414,145	16,06
414,653	13,84
415,16	13,89
415,668	14,48
416,175	14,04
416,682	13,43
417,189	12,19
417,696	14,13
418,203	12,7
418,71	12,62
419,216	12,18
419,723	12,14
420,229	12,57
420,735	12,4
421,242	11,39
421,748	12,05
422,254	12,09
422,759	10,95
423,265	10,16
423,771	11,06
424,276	10,69
424,781	10,29
425,287	10,29
425,792	10,17
426,297	10,37
426,802	10,14
427,306	9,99
427,811	10,01
428,316	10,03
428,82	10,07
429,324	9,94
429,829	10
430,333	10,01
430,837	10,26
431,34	9,36
431,844	9,05
432,348	9,7
432,851	9,83
433,355	8,73
433,858	9,77
434,361	9,47
434,864	9,28
435,367	9,51
435,87	8,86
436,373	8,24
436,876	9,82
437,378	9,24
437,88	8,33
438,383	9,19
438,885	8,91
439,387	8,33
439,889	8,62
440,391	8,78
440,892	8,85
441,394	8,56
441,896	8,18
442,397	8,97
442,898	9,21
443,399	9,09
443,9	8,7
444,401	9,17
444,902	9,04
445,403	8,77
445,903	8,89
446,404	9,13
446,904	9,51
447,405	8,88
447,905	9,29
448,405	8,97
448,905	9,4
449,404	9,46
449,904	9,42
450,404	9,58
450,903	9,7
451,403	9,21
451,902	9,78
452,401	9,53
452,9	9,91
453,399	9,36
453,898	9,85
454,396	10,3
454,895	9,94
455,393	9,7
455,892	10,18
456,39	10,09
456,888	10,15
457,386	9,8
457,884	9,99
458,382	10,14
458,879	9,93
459,377	9,88
459,874	9,86
460,372	10,17
460,869	9,62
461,366	9,41
461,863	10,25
462,36	10,47
462,857	9,82
463,353	9,74
463,85	9,89
464,346	9,63
464,843	9,84
465,339	9,99
465,835	9,83
466,331	9,61
466,827	9,41
467,323	9,57
467,818	9,54
468,314	9,37
468,809	9,93
469,305	9,51
469,8	9,99
470,295	10,38
470,79	9,86
471,285	9,92
471,78	9,19
472,274	10,05
472,769	9,59
473,263	9,68
473,758	10,01
474,252	9,79
474,746	10,22
475,24	10,22
475,734	9,56
476,228	9,83
476,721	10,22
477,215	9,74
477,708	10,01
478,202	9,95
478,695	9,61
479,188	10,33
479,681	9,9
480,174	9,79
480,667	9,97
481,159	10,25
481,652	9,99
482,144	10,19
482,637	10,13
483,129	10,09
483,621	10,31
484,113	10,07
484,605	10,4
485,097	10,07
485,588	10,35
486,08	10,21
486,571	10,43
487,063	10,65
487,554	10,38
488,045	10,1
488,536	10,22
489,027	10,47
489,518	10,45
490,008	10,41
490,499	10,9
490,989	10,56
491,48	10,66
491,97	10,91
492,46	11,11
492,95	11,15
493,44	11,2
493,93	11,37
494,419	11,16
494,909	11,27
495,398	11,67
495,888	11,61
496,377	11,66
496,866	11,74
497,355	12,08
497,844	12,28
498,333	12,43
498,821	12,28
499,31	12,68
499,798	12,89
500,287	13,14
500,775	13,15
501,263	13,34
501,751	13,32
502,239	13,87
502,727	14,12
503,215	13,78
503,702	13,9
504,19	14,19
504,677	14,91
505,164	14,5
505,651	15,21
506,139	15,34
506,625	15,33
507,112	15,37
507,599	15,92
508,086	16,1
508,572	16,49
509,058	16,22
509,545	16,74
510,031	17,02
510,517	17,21
511,003	17,21
511,489	17,98
511,974	18,13
512,46	18,77
512,946	18,54
513,431	18,47
513,916	19,26
514,401	19,2
514,887	19,47
515,371	19,76
515,856	19,83
516,341	20,26
516,826	20,61
517,31	21,05
517,795	21,85
518,279	21,39
518,763	21,99
519,247	22,12
519,731	22,59
520,215	22,14
520,699	22,6
521,182	23,34
521,666	23,43
522,149	23,54
522,633	23,88
523,116	24,49
523,599	24,5
524,082	24,45
524,565	25,43
525,048	25,35
525,53	25,52
526,013	25,5
526,495	26,29
526,978	25,51
527,46	25,91
527,942	26,81
528,424	26,65
528,906	26,58
529,388	26,88
529,87	27,24
530,351	26,71
530,833	27,47
531,314	27,71
531,795	27,36
532,277	27,14
532,758	27,9
533,238	28,46
533,719	27,54
534,2	28,41
534,681	28,24
535,161	28,39
535,642	28,38
536,122	28,4
536,602	28,45
537,082	28,36
537,562	28,51
538,042	28,32
538,522	28,41
539,001	28,68
539,481	28,98
539,96	28,79
540,44	28,79
540,919	28,87
541,398	29
541,877	28,83
542,356	29,17
542,835	29,12
543,313	28,49
543,792	28,84
544,27	28,55
544,749	29,1
545,227	29,26
545,705	29,72
546,183	29,19
546,661	30,03
547,139	29,45
547,616	29,36
548,094	29,6
548,571	29,2
549,049	28,97
549,526	30,21
550,003	28,89
550,48	28,95
550,957	29,15
551,434	29,55
551,911	29,45
552,387	29,17
552,864	29,71
553,34	29,4
553,817	29,45
554,293	29,83
554,769	29,27
555,245	29,81
555,721	29,22
556,197	30,07
556,672	29,82
557,148	29,5
557,623	29,67
558,099	29,78
558,574	29,68
559,049	29,61
559,524	29,12
559,999	29,31
560,474	29,05
560,948	29
561,423	28,5
561,897	28,75
562,372	29,33
562,846	28,85
563,32	29,47
563,794	28,6
564,268	28,9
564,742	29,08
565,216	28,53
565,69	28,54
566,163	28,33
566,636	28,49
567,11	28,2
567,583	28,51
568,056	27,92
568,529	27,7
569,002	27,64
569,475	27,23
569,947	27,28
570,42	27,64
570,892	27,36
571,365	27,43
571,837	27,2
572,309	27,08
572,781	27,07
573,253	26,91
573,725	26,37
574,197	26,38
574,668	26,3
575,14	25,95
575,611	26,07
576,082	25,43
576,554	25,74
577,025	25,56
577,496	25,26
577,967	25,4
578,437	25,39
578,908	25,33
579,379	24,69
579,849	24,59
580,319	24,94
580,79	24,39
581,26	24,8
581,73	24,07
582,2	24,89
582,669	24,51
583,139	24,05
583,609	24,1
584,078	24,05
584,548	23,86
585,017	24,2
585,486	23,99
585,955	23,58
586,424	23,51
586,893	23,51
587,362	23,56
587,83	23,09
588,299	23,47
588,767	23,38
589,236	23,64
589,704	23,23
590,172	23,18
590,64	22,98
591,108	22,86
591,576	22,85
592,043	22,93
592,511	22,85
592,978	22,94
593,446	22,65
593,913	22,65
594,38	22,7
594,847	22,56
595,314	22,35
595,781	22,95
596,248	22,33
596,715	22,3
597,181	22,3
597,647	22,3
598,114	22,36
598,58	22,21
599,046	22,47
599,512	22,01
599,978	21,8
600,444	22,35
600,91	22,32
601,375	22,4
601,841	21,96
602,306	22,26
602,771	21,99
603,236	22,02
603,702	21,76
604,167	22,02
604,631	21,84
605,096	21,92
605,561	21,61
606,025	21,65
606,49	21,26
606,954	21,48
607,418	21,36
607,882	21,31
608,347	21,23
608,81	21
609,274	21,11
609,738	21,04
610,202	20,91
610,665	20,9
611,128	20,58
611,592	20,7
612,055	20,55
612,518	20,32
612,981	20,6
613,444	20,25
613,907	20,26
614,369	20,14
614,832	19,98
615,294	20,33
615,757	20,1
616,219	19,68
616,681	19,88
617,143	19,92
617,605	19,52
618,067	19,64
618,529	19,42
618,99	19,46
619,452	19,24
619,913	19,16
620,375	19,22
620,836	19,24
621,297	18,85
621,758	19,1
622,219	18,87
622,68	18,94
623,14	18,7
623,601	18,87
624,061	18,74
624,522	18,83
624,982	18,83
625,442	18,8
625,902	18,79
626,362	18,66
626,822	18,67
627,282	18,74
627,742	18,38
628,201	18,52
628,661	19,02
629,12	18,6
629,579	18,6
630,038	18,73
630,497	18,38
630,956	18,54
631,415	18,43
631,874	18,28
632,332	18,4
632,791	18,18
633,249	18,23
633,708	18,13
634,166	18,03
634,624	17,89
635,082	18,1
635,54	17,92
635,998	17,95
636,455	17,91
636,913	17,66
637,37	17,66
637,828	17,45
638,285	17,14
638,742	17,4
639,199	16,96
639,656	16,98
640,113	16,87
640,57	16,58
641,027	16,53
641,483	16,05
641,94	16,24
642,396	16,12
642,852	16,18
643,309	15,86
643,765	15,53
644,221	15,53
644,676	15,31
645,132	15,23
645,588	15
646,043	15,01
646,499	14,75
646,954	14,84
647,409	14,69
647,864	14,41
648,319	14,25
648,774	14,02
649,229	13,93
649,684	13,95
650,139	13,88
650,593	13,56
651,047	13,52
651,502	13,43
651,956	13,44
652,41	13,33
652,864	13,13
653,318	13,11
653,772	13,42
654,225	13,29
654,679	13,01
655,133	13,03
655,586	12,89
656,039	13,08
656,492	12,82
656,946	12,98
657,399	12,66
657,851	12,51
658,304	12,67
658,757	12,27
659,209	12,37
659,662	12,05
660,114	11,92
660,567	11,92
661,019	11,64
661,471	11,46
661,923	11,28
662,375	11,39
662,826	11,2
663,278	11,1
663,73	10,86
664,181	10,88
664,632	10,57
665,084	10,64
665,535	10,4
665,986	10,3
666,437	10,42
666,888	10,25
667,338	10,08
667,789	10
668,24	10,03
668,69	9,77
669,14	9,79
669,591	9,61
670,041	9,55
670,491	9,75
670,941	9,6
671,391	9,43
671,84	9,63
672,29	9,4
672,74	9,39
673,189	9,44
673,638	9,53
674,088	9,51
674,537	9,59
674,986	9,55
675,435	9,52
675,883	9,7
676,332	9,53
676,781	9,68
677,229	9,77
677,678	9,8
678,126	9,74
678,574	10,13
679,022	9,99
679,47	10,13
679,918	10,3
680,366	10,35
680,814	10,46
681,261	10,41
681,709	10,7
682,156	10,78
682,604	10,92
683,051	11,08
683,498	11,49
683,945	11,51
684,392	11,78
684,839	12,29
685,286	12,32
685,732	12,63
686,179	12,86
686,625	13,28
687,071	13,66
687,518	13,82
687,964	14,32
688,41	14,69
688,856	14,97
689,301	15,59
689,747	15,96
690,193	16,5
690,638	17,19
691,084	17,41
691,529	17,61
691,974	18,3
692,419	18,79
692,864	19,16
693,309	19,7
693,754	20,5
694,199	20,83
694,643	21,4
695,088	21,65
695,532	22,37
695,977	22,99
696,421	23,33
696,865	23,52
697,309	24,34
697,753	24,82
698,197	25,33
698,64	25,56
699,084	26,09
699,527	26,4
699,971	26,93
700,414	27,53
700,857	27,54
701,3	28,01
701,743	28,38
702,186	28,59
702,629	29,17
703,072	29,45
703,515	29,82
703,957	30,14
704,399	30,11
704,842	30,69
705,284	30,89
705,726	31,33
706,168	31,62
706,61	31,82
707,052	32,16
707,494	32,23
707,935	32,81
708,377	32,78
708,818	32,86
709,26	33,59
709,701	33,68
710,142	33,89
710,583	34,08
711,024	34,33
711,465	34,63
711,905	34,58
712,346	34,65
712,787	35,07
713,227	35,47
713,667	35,3
714,108	35,47
714,548	36,22
714,988	36,18
715,428	36,07
715,868	36,01
716,307	36,32
716,747	36,33
717,186	36,74
717,626	36,98
718,065	37,24
718,504	37,24
718,944	37,14
719,383	37,41
719,822	37,61
720,261	37,73
720,699	37,95
721,138	37,73
721,576	37,89
722,015	38,54
722,453	38,45
722,892	39,02
723,33	38,57
723,768	38,85
724,206	39,06
724,644	38,92
725,081	38,76
725,519	38,74
725,957	39,12
726,394	39,53
726,832	39,14
727,269	39,34
727,706	39,51
728,143	39,71
728,58	39,56
729,017	39,87
729,454	39,77
729,89	39,83
730,327	40,26
730,764	39,99
731,2	40,01
731,636	40,1
732,072	39,94
732,509	39,9
732,945	39,93
733,38	40,29
733,816	40,15
734,252	40,2
734,688	39,96
735,123	40,21
735,559	40,24
735,994	40,02
736,429	39,96
736,864	40,48
737,299	40,39
737,734	40,26
738,169	40,73
738,604	40,22
739,038	40,54
739,473	40,85
739,907	40,54
740,342	40,33
740,776	40,71
741,21	40,58
741,644	40,7
742,078	40,33
742,512	40,62
742,946	40,35
743,379	40,74
743,813	40,63
744,246	40,59
744,68	40,69
745,113	40,61
745,546	40,37
745,979	40,5
746,412	40,6
746,845	40,31
747,278	40,25
747,711	40,6
748,143	40,87
748,576	40,79
749,008	40,14
749,441	40,46
749,873	40,26
750,305	40,34
750,737	40,3
751,169	40,58
751,601	40,27
752,032	40,39
752,464	40,4
752,896	40,05
753,327	40,57
753,758	40,49
754,19	40,15
754,621	40,5
755,052	39,86
755,483	39,75
755,914	39,83
756,344	39,9
756,775	39,89
757,206	39,84
757,636	39,78
758,066	40,26
758,497	39,75
758,927	39,96
759,357	40,24
759,787	40,02
760,217	40,02
760,647	39,65
761,076	39,69
761,506	39,66
761,935	39,92
762,365	39,91
762,794	39,65
763,223	39,51
763,653	39,92
764,082	39,65
764,51	39,79
764,939	39,78
765,368	39,63
765,797	39,88
766,225	39,41
766,654	39,64
767,082	39,57
767,51	39,56
767,938	39,42
768,367	39,71
768,795	39,57
769,222	39,26
769,65	39,6
770,078	39,5
770,505	39,54
770,933	39,53
771,36	39,65
771,788	39,12
772,215	39,51
772,642	39,27
773,069	39,2
773,496	39,53
773,923	39,68
774,349	39,42
774,776	39,39
775,203	39,01
775,629	39,39
776,055	39,13
776,482	39,22
776,908	39,33
777,334	39,04
777,76	39,32
778,186	38,82
778,611	39,29
779,037	39,35
779,463	39,27
779,888	39,28
780,314	39,12
780,739	39,2
781,164	38,9
781,589	39,02
782,014	39,21
782,439	39,24
782,864	39,24
783,289	39,26
783,713	38,99
784,138	39,18
784,562	39,32
784,987	39,07
785,411	38,72
785,835	39,22
786,259	39,28
786,683	39,2
787,107	39,1
787,531	38,85
787,954	39,09
788,378	38,96
788,802	38,63
789,225	39
789,648	38,99
790,071	39,2
790,495	38,78
790,918	39,1
791,34	38,82
791,763	38,72
792,186	39,08
792,609	39,02
793,031	38,87
793,454	39,14
793,876	39,22
794,298	39,04
794,721	39,4
795,143	38,88
795,565	39,35
795,986	38,86
796,408	38,74
796,83	39,02
797,252	38,75
797,673	38,77
798,094	39,44
798,516	38,93
798,937	38,85
799,358	39,15
799,779	38,85
800,2	38,77
800,621	38,93
801,042	38,95
801,462	38,83
801,883	38,63
802,303	39,05
802,724	39,03
803,144	39,18
803,564	39
803,984	39,03
804,404	38,81
804,824	39,11
805,244	39,06
805,664	39,11
806,084	38,88
806,503	38,43
806,923	38,57
807,342	38,85
807,761	38,39
808,18	39,14
808,599	38,63
809,018	38,79
809,437	39,01
809,856	38,67
810,275	39,24
810,693	38,81
811,112	38,92
811,53	38,72
811,949	39,15
812,367	38,85
812,785	38,91
813,203	38,86
813,621	38,75
814,039	38,8
814,457	39,08
814,874	38,54
815,292	39,24
815,709	38,62
816,127	38,95
816,544	38,62
816,961	38,85
817,378	38,78
817,795	38,39
818,212	38,83
818,629	38,7
819,046	38,79
819,462	39
819,879	38,79
820,295	38,57
820,712	38,92
821,128	38,85
821,544	38,49
821,96	38,54
822,376	39,29
822,792	38,79
823,208	38,89
823,624	38,66
824,039	38,36
824,455	38,77
824,87	38,49
825,286	38,88
825,701	38,46
826,116	38,8
826,531	38,66
826,946	38,76
827,361	38,93
827,776	38,72
828,19	38,55
828,605	38,34
829,02	38,72
829,434	38,38
829,848	38,56
830,263	38,47
830,677	38,31
831,091	38,64
831,505	38,43
831,919	38,48
832,332	38,54
832,746	38,4
833,16	38,67
833,573	38,48
833,987	38,32
834,4	38,43
834,813	38,12
835,226	38,46
835,639	38,6
836,052	38,79
836,465	38,51
836,878	38,81
837,29	38,67
837,703	38,75
