Data from H_1_Relative__8__00174.txt Node

Date: Tue Jan 30 10:13:28 CET 2024
User: diatiterra
Spectrometer: HDX00911
Trigger mode: 0
Integration Time (sec): 6,000000E-3
Scans to average: 2
Nonlinearity correction enabled: false
Boxcar width: 0
Storing dark spectrum: false
XAxis mode: Wavelengths
Number of Pixels in Spectrum: 2068
>>>>>Begin Spectral Data<<<<<
194,468	97,79
195,025	108,06
195,581	86,36
196,138	94,27
196,694	100,5
197,251	86,34
197,807	82,5
198,363	76,64
198,919	88,51
199,474	95,76
200,03	85,04
200,586	85,02
201,141	89,08
201,696	86,55
202,251	82,59
202,806	88,09
203,361	83,74
203,916	85,06
204,471	92,57
205,025	82,01
205,58	83,41
206,134	87,65
206,688	88,84
207,242	90,09
207,796	88,14
208,35	92,69
208,904	77,02
209,457	79,84
210,011	86,9
210,564	86,94
211,117	100,43
211,67	80,97
212,223	78,09
212,776	93,64
213,329	86,08
213,881	90,91
214,434	81,15
214,986	90,18
215,538	83,07
216,09	81,12
216,642	87,19
217,194	100
217,746	83,27
218,297	89,5
218,849	84,79
219,4	89,61
219,951	94,69
220,502	89,49
221,053	86,02
221,604	88,19
222,155	86,86
222,705	80
223,256	85,39
223,806	81,67
224,356	93,14
224,906	96,48
225,456	91,18
226,006	87,5
226,556	94,69
227,106	83,4
227,655	89,3
228,204	92,76
228,754	90,3
229,303	90,54
229,852	92,14
230,401	92,83
230,949	71,99
231,498	88,84
232,047	91,8
232,595	89,16
233,143	93,42
233,691	83,75
234,239	82,44
234,787	91,48
235,335	83,98
235,883	103,6
236,43	93,64
236,978	85,65
237,525	85,96
238,072	79,3
238,619	78,92
239,166	82,33
239,713	87,34
240,26	93,55
240,806	82,76
241,353	91,45
241,899	88,89
242,445	82,01
242,991	80,74
243,537	83,55
244,083	93,21
244,629	87,22
245,174	87,23
245,72	80,69
246,265	91,86
246,81	94,67
247,355	83,94
247,9	88,75
248,445	73,81
248,99	80,85
249,534	76,23
250,079	93,98
250,623	87,17
251,168	91,02
251,712	79,48
252,256	73,14
252,8	91,59
253,343	90,28
253,887	91,77
254,43	89,26
254,974	86,8
255,517	79,33
256,06	84,81
256,603	86,01
257,146	81,54
257,689	88,98
258,232	99,1
258,774	90,75
259,317	90,52
259,859	101,9
260,401	95,33
260,943	85,48
261,485	90,45
262,027	90,21
262,569	75,46
263,11	92,04
263,652	88,05
264,193	76,28
264,734	93,98
265,275	90,13
265,816	82,05
266,357	85,06
266,898	84,62
267,438	85,96
267,979	84,48
268,519	96,15
269,059	75,49
269,6	87,17
270,14	87,93
270,68	86,07
271,219	83,91
271,759	82,53
272,298	89,6
272,838	83,27
273,377	96,85
273,916	85,99
274,455	82,31
274,994	88,94
275,533	81,75
276,072	90,21
276,61	99,56
277,149	76,25
277,687	91,53
278,225	77,37
278,763	80,53
279,301	78,78
279,839	87,3
280,377	77,14
280,914	93,98
281,452	88,62
281,989	86,78
282,526	78,33
283,064	80,84
283,601	94,17
284,137	86,22
284,674	88,7
285,211	80,79
285,747	87,4
286,284	90,52
286,82	91,13
287,356	86,22
287,892	78,19
288,428	89,7
288,964	87,55
289,5	88,37
290,035	89,63
290,571	82,88
291,106	84,62
291,641	89,52
292,176	86
292,711	87,93
293,246	77,78
293,781	84,78
294,315	91,16
294,85	78,88
295,384	91,51
295,918	86,8
296,453	89,88
296,987	81,78
297,52	86,88
298,054	91,86
298,588	86,8
299,121	87,84
299,655	79,25
300,188	86,44
300,721	97,77
301,254	79,82
301,787	85,53
302,32	79,06
302,853	92,77
303,385	80,39
303,918	79,56
304,45	89,52
304,982	80,4
305,514	80,08
306,046	78,76
306,578	85,06
307,11	84,85
307,641	93,7
308,173	85,22
308,704	91,06
309,236	86,52
309,767	81,25
310,298	77,2
310,829	80,62
311,359	88,05
311,89	82,69
312,421	73,06
312,951	83,68
313,481	86,26
314,012	78,29
314,542	82,88
315,072	79,83
315,601	82,26
316,131	82,83
316,661	82,24
317,19	77,14
317,72	85,17
318,249	81,19
318,778	89,71
319,307	87,9
319,836	89,2
320,365	85,53
320,893	92,13
321,422	89,24
321,95	86,52
322,479	82,33
323,007	81,27
323,535	88,68
324,063	84,44
324,591	88,51
325,118	88,74
325,646	81,9
326,173	83,04
326,701	78,88
327,228	76,33
327,755	83,33
328,282	93,18
328,809	80,7
329,336	92,77
329,862	88,69
330,389	92,07
330,915	80,62
331,441	95,78
331,968	74,9
332,494	89,33
333,02	82,85
333,545	78,95
334,071	84,03
334,597	86,36
335,122	93,24
335,648	83,6
336,173	79,66
336,698	81,55
337,223	83,57
337,748	80,78
338,272	83,69
338,797	87,25
339,322	80,77
339,846	84,74
340,37	86,46
340,894	81,01
341,419	79,84
341,942	82,56
342,466	83,19
342,99	77,57
343,514	88,66
344,037	84,21
344,56	84,06
345,084	81,36
345,607	79,25
346,13	82,26
346,653	79,7
347,175	80,51
347,698	74,73
348,221	87,04
348,743	92,45
349,265	76,73
349,787	73,87
350,309	77,01
350,831	77,46
351,353	77,55
351,875	73,26
352,397	75,25
352,918	82,47
353,439	81,67
353,961	73,43
354,482	74,16
355,003	75,39
355,524	72,97
356,044	78,55
356,565	71,53
357,086	72,4
357,606	64,67
358,126	73,58
358,646	67,59
359,167	75,08
359,687	67,99
360,206	71,88
360,726	66,88
361,246	71,21
361,765	70,87
362,285	71,48
362,804	58,23
363,323	61,86
363,842	65,02
364,361	63,16
364,88	67,57
365,398	63,44
365,917	64,79
366,435	64,74
366,954	63,83
367,472	66,37
367,99	58,36
368,508	64,85
369,026	68,27
369,544	69,28
370,061	56,57
370,579	63,81
371,096	58,38
371,613	57,64
372,131	58,49
372,648	59,39
373,165	63,32
373,681	57,85
374,198	58,48
374,715	60,57
375,231	58,27
375,747	56,79
376,264	50,73
376,78	57,58
377,296	56,43
377,812	56,61
378,327	57,75
378,843	54,68
379,359	54,85
379,874	51,56
380,389	50,91
380,905	57,54
381,42	54,69
381,935	57,76
382,449	52,73
382,964	50,09
383,479	52,19
383,993	55
384,508	48,27
385,022	49,91
385,536	49,07
386,05	48,61
386,564	48,25
387,078	49,56
387,592	44,43
388,105	50,66
388,619	46,04
389,132	45,09
389,645	40,86
390,158	44,41
390,671	43,76
391,184	46,43
391,697	43,39
392,21	44,25
392,722	39,97
393,235	42,86
393,747	41,71
394,259	41,04
394,771	41,37
395,283	37,92
395,795	42,13
396,307	36,56
396,818	38,59
397,33	38,7
397,841	38,12
398,353	38,06
398,864	37,76
399,375	35,62
399,886	34,31
400,397	35,38
400,907	34,31
401,418	32,99
401,928	32,68
402,439	34,2
402,949	32,44
403,459	30,17
403,969	29,15
404,479	33,84
404,989	31,2
405,498	29,02
406,008	29,53
406,517	27,03
407,027	26,43
407,536	25,59
408,045	24,58
408,554	21,94
409,063	23,39
409,572	22,94
410,08	22,12
410,589	21,71
411,097	20,8
411,606	21,26
412,114	17,68
412,622	17,48
413,13	19,64
413,638	17,53
414,145	17,97
414,653	16,44
415,16	16,38
415,668	16,92
416,175	15,93
416,682	15,21
417,189	15,05
417,696	14,3
418,203	15,2
418,71	14,03
419,216	14,48
419,723	13,81
420,229	13,84
420,735	12,7
421,242	13,69
421,748	12,73
422,254	13,79
422,759	12,48
423,265	11,47
423,771	11,56
424,276	11,62
424,781	11,33
425,287	11,79
425,792	11,83
426,297	10,99
426,802	11,36
427,306	11,84
427,811	11,31
428,316	12,39
428,82	12,31
429,324	11,03
429,829	10,88
430,333	11,43
430,837	11,1
431,34	10,7
431,844	10,75
432,348	11,74
432,851	10,7
433,355	10,5
433,858	11,17
434,361	10,41
434,864	10,09
435,367	10,85
435,87	10,1
436,373	10,17
436,876	11,09
437,378	10,66
437,88	9,78
438,383	10,19
438,885	10,53
439,387	10,03
439,889	10,19
440,391	9,87
440,892	10,46
441,394	10,35
441,896	9,7
442,397	10,23
442,898	10,19
443,399	9,38
443,9	9,93
444,401	10,01
444,902	9,7
445,403	9,8
445,903	10,43
446,404	10,45
446,904	10,07
447,405	9,78
447,905	9,37
448,405	10,36
448,905	10,52
449,404	9,74
449,904	10,11
450,404	9,39
450,903	10,07
451,403	10,12
451,902	9,8
452,401	9,77
452,9	10,39
453,399	10,18
453,898	10,17
454,396	10,13
454,895	9,7
455,393	10,85
455,892	10,13
456,39	9,82
456,888	10,28
457,386	10
457,884	9,94
458,382	10,23
458,879	10,14
459,377	10,36
459,874	10,33
460,372	10,06
460,869	10,2
461,366	10,02
461,863	10,06
462,36	9,69
462,857	9,91
463,353	9,9
463,85	9,59
464,346	9,91
464,843	10,04
465,339	9,6
465,835	9,85
466,331	9,64
466,827	9,79
467,323	10
467,818	9,89
468,314	9,49
468,809	9,61
469,305	9,51
469,8	9,91
470,295	9,45
470,79	9,87
471,285	10,1
471,78	9,51
472,274	9,7
472,769	9,91
473,263	9,45
473,758	9,89
474,252	9,53
474,746	9,65
475,24	9,78
475,734	9,29
476,228	9,51
476,721	9,57
477,215	9,61
477,708	9,51
478,202	9,86
478,695	9,41
479,188	10
479,681	9,93
480,174	9,18
480,667	9,72
481,159	9,7
481,652	9,71
482,144	9,97
482,637	9,47
483,129	9,44
483,621	9,6
484,113	9,13
484,605	9,24
485,097	9,06
485,588	9,8
486,08	9,75
486,571	9,63
487,063	9,94
487,554	9,51
488,045	9,61
488,536	9,78
489,027	9,92
489,518	10,05
490,008	9,53
490,499	9,87
490,989	9,79
491,48	10,02
491,97	10,17
492,46	9,91
492,95	9,73
493,44	9,64
493,93	9,91
494,419	10,28
494,909	9,97
495,398	10,24
495,888	10,27
496,377	10,06
496,866	9,93
497,355	9,99
497,844	10,37
498,333	10,54
498,821	10,47
499,31	10,85
499,798	11,02
500,287	10,96
500,775	10,7
501,263	11,26
501,751	10,64
502,239	11,33
502,727	11,18
503,215	11,78
503,702	11,17
504,19	11,09
504,677	11,88
505,164	11,76
505,651	11,91
506,139	12,46
506,625	12,65
507,112	12,4
507,599	12,77
508,086	12,79
508,572	13
509,058	13,3
509,545	13,8
510,031	13,64
510,517	14,07
511,003	14,31
511,489	14,19
511,974	14,54
512,46	15,29
512,946	15,72
513,431	15,32
513,916	15,93
514,401	16,15
514,887	16,6
515,371	16,71
515,856	17,18
516,341	17,33
516,826	17,4
517,31	18,22
517,795	18,48
518,279	18,85
518,763	18,85
519,247	19,07
519,731	19,92
520,215	19,92
520,699	20,54
521,182	21,09
521,666	21,24
522,149	21,98
522,633	22,56
523,116	22,51
523,599	23,32
524,082	22,96
524,565	23,82
525,048	24,17
525,53	24,71
526,013	25,05
526,495	25,25
526,978	25,5
527,46	25,95
527,942	26,44
528,424	27,17
528,906	26,8
529,388	26,47
529,87	27,35
530,351	27,15
530,833	28,17
531,314	27,65
531,795	28,4
532,277	28,61
532,758	28,9
533,238	29,75
533,719	28,84
534,2	29,59
534,681	29,21
535,161	30,12
535,642	29,7
536,122	30,26
536,602	29,5
537,082	29,98
537,562	30,4
538,042	30,15
538,522	29,62
539,001	30,16
539,481	30,92
539,96	29,96
540,44	30,16
540,919	31,39
541,398	31,21
541,877	30,72
542,356	31,51
542,835	30,97
543,313	31,42
543,792	31,38
544,27	31,69
544,749	31,67
545,227	31,36
545,705	31,45
546,183	31,75
546,661	31,77
547,139	31,46
547,616	31,65
548,094	32,28
548,571	31,44
549,049	32,05
549,526	32,61
550,003	32,02
550,48	31,87
550,957	31,98
551,434	31,85
551,911	33,06
552,387	32,11
552,864	32,18
553,34	32,51
553,817	32,18
554,293	31,97
554,769	31,57
555,245	31,95
555,721	31,91
556,197	31,43
556,672	31,83
557,148	31,79
557,623	31,85
558,099	31,61
558,574	31,71
559,049	31,19
559,524	31,77
559,999	31,39
560,474	31,11
560,948	31,07
561,423	30,76
561,897	30,76
562,372	30,34
562,846	30,51
563,32	30,59
563,794	30,71
564,268	30,27
564,742	30,22
565,216	29,79
565,69	29,57
566,163	29,56
566,636	29,48
567,11	29,43
567,583	29,31
568,056	28,29
568,529	28
569,002	27,92
569,475	28,11
569,947	27,65
570,42	27,58
570,892	27,51
571,365	27,24
571,837	27,1
572,309	26,56
572,781	26,36
573,253	26,02
573,725	25,86
574,197	25,64
574,668	25,3
575,14	25,22
575,611	25,2
576,082	25,06
576,554	24,81
577,025	24,29
577,496	24,48
577,967	23,92
578,437	23,82
578,908	23,92
579,379	23,5
579,849	23,53
580,319	23,48
580,79	23,11
581,26	22,58
581,73	22,57
582,2	22,63
582,669	22,33
583,139	22,44
583,609	22,43
584,078	22,15
584,548	22,14
585,017	21,67
585,486	21,73
585,955	21,55
586,424	21,14
586,893	21,12
587,362	21,33
587,83	20,85
588,299	21,21
588,767	20,61
589,236	21,09
589,704	20,85
590,172	20,59
590,64	20,32
591,108	20,25
591,576	20,4
592,043	20,22
592,511	20,19
592,978	20,16
593,446	20,09
593,913	20,02
594,38	20,21
594,847	20,06
595,314	20,19
595,781	19,93
596,248	19,95
596,715	19,73
597,181	19,56
597,647	19,65
598,114	19,68
598,58	19,25
599,046	19,69
599,512	19,27
599,978	18,93
600,444	19,52
600,91	19,08
601,375	19,23
601,841	19,11
602,306	18,98
602,771	19,15
603,236	18,94
603,702	18,57
604,167	18,86
604,631	18,57
605,096	18,49
605,561	18,57
606,025	18,47
606,49	18,33
606,954	18,37
607,418	18,26
607,882	18,24
608,347	17,95
608,81	17,89
609,274	17,86
609,738	17,68
610,202	17,71
610,665	17,49
611,128	17,26
611,592	17,14
612,055	17,25
612,518	16,99
612,981	16,85
613,444	16,89
613,907	16,95
614,369	16,65
614,832	16,4
615,294	16,35
615,757	16,22
616,219	16,1
616,681	16,05
617,143	15,96
617,605	15,72
618,067	15,64
618,529	15,55
618,99	15,9
619,452	15,55
619,913	15,57
620,375	15,36
620,836	15,15
621,297	15,04
621,758	15,11
622,219	14,96
622,68	15,01
623,14	14,9
623,601	14,68
624,061	14,75
624,522	14,87
624,982	14,82
625,442	14,99
625,902	14,8
626,362	14,54
626,822	14,67
627,282	14,76
627,742	14,73
628,201	14,59
628,661	14,68
629,12	14,28
629,579	14,66
630,038	14,87
630,497	14,61
630,956	14,48
631,415	14,31
631,874	14,55
632,332	14,47
632,791	14,42
633,249	14,39
633,708	14,18
634,166	14,11
634,624	14,15
635,082	14,26
635,54	14,17
635,998	13,88
636,455	13,93
636,913	13,81
637,37	13,65
637,828	13,67
638,285	13,45
638,742	13,49
639,199	13,28
639,656	13,19
640,113	12,91
640,57	12,92
641,027	12,78
641,483	12,53
641,94	12,46
642,396	12,61
642,852	12,2
643,309	12,05
643,765	11,91
644,221	11,85
644,676	11,76
645,132	11,52
645,588	11,33
646,043	11,58
646,499	11,46
646,954	11,14
647,409	11,23
647,864	10,96
648,319	10,94
648,774	10,65
649,229	10,72
649,684	10,73
650,139	10,54
650,593	10,41
651,047	10,29
651,502	10,47
651,956	10,21
652,41	10,29
652,864	10,14
653,318	10,37
653,772	10,17
654,225	10,17
654,679	9,98
655,133	9,95
655,586	10,08
656,039	9,75
656,492	9,83
656,946	9,86
657,399	9,73
657,851	9,61
658,304	9,55
658,757	9,42
659,209	9,5
659,662	9,45
660,114	9,32
660,567	9,13
661,019	9,07
661,471	9,22
661,923	9,17
662,375	8,83
662,826	8,96
663,278	8,79
663,73	8,89
664,181	8,83
664,632	8,88
665,084	8,7
665,535	8,58
665,986	8,69
666,437	8,67
666,888	8,67
667,338	8,6
667,789	8,69
668,24	8,57
668,69	8,69
669,14	8,61
669,591	8,7
670,041	8,84
670,491	8,9
670,941	8,87
671,391	8,76
671,84	8,96
672,29	9,12
672,74	8,94
673,189	9
673,638	9,09
674,088	9,24
674,537	9,23
674,986	9,44
675,435	9,39
675,883	9,58
676,332	9,55
676,781	9,76
677,229	9,71
677,678	9,9
678,126	9,96
678,574	10,24
679,022	10,3
679,47	10,27
679,918	10,29
680,366	10,58
680,814	10,62
681,261	10,69
681,709	10,94
682,156	10,78
682,604	11,12
683,051	11,05
683,498	11,27
683,945	11,56
684,392	11,53
684,839	11,68
685,286	11,74
685,732	12,01
686,179	11,93
686,625	12,19
687,071	12,4
687,518	12,42
687,964	12,74
688,41	13,05
688,856	13,34
689,301	13,56
689,747	13,79
690,193	13,92
690,638	14,25
691,084	14,59
691,529	15,37
691,974	15,67
692,419	15,89
692,864	16,31
693,309	17,16
693,754	17,78
694,199	18
694,643	19
695,088	19,36
695,532	20,07
695,977	21,07
696,421	21,72
696,865	22,52
697,309	23,09
697,753	23,7
698,197	24,72
698,64	24,93
699,084	26,13
699,527	27
699,971	27,69
700,414	28,76
700,857	29,06
701,3	30,35
701,743	30,75
702,186	31,71
702,629	32,53
703,072	33,39
703,515	33,92
703,957	34,64
704,399	35,63
704,842	36,16
705,284	36,88
705,726	37,88
706,168	38,42
706,61	38,75
707,052	39,77
707,494	40,81
707,935	41,21
708,377	42,18
708,818	42,33
709,26	43,39
709,701	43,72
710,142	44,58
710,583	45,59
711,024	46,58
711,465	46,89
711,905	47,28
712,346	47,87
712,787	48,58
713,227	49,46
713,667	49,8
714,108	50,34
714,548	51,48
714,988	52,3
715,428	52,49
715,868	53,29
716,307	53,88
716,747	54,36
717,186	55,16
717,626	55,61
718,065	56,4
718,504	57,07
718,944	56,57
719,383	57,75
719,822	57,97
720,261	58,63
720,699	59,46
721,138	60,14
721,576	59,79
722,015	60,77
722,453	61,45
722,892	61,85
723,33	62,12
723,768	62,48
724,206	62,98
724,644	63,22
725,081	63,58
725,519	64,17
725,957	64,99
726,394	65,04
726,832	64,88
727,269	66,01
727,706	66,38
728,143	66,41
728,58	66,91
729,017	67,06
729,454	67,73
729,89	67,9
730,327	68,28
730,764	68,5
731,2	68,48
731,636	68,94
732,072	68,9
732,509	69,33
732,945	69,71
733,38	69,97
733,816	70,11
734,252	70,24
734,688	70,58
735,123	70,46
735,559	70,3
735,994	71
736,429	70,73
736,864	71,41
737,299	71,66
737,734	71,23
738,169	71,89
738,604	71,68
739,038	71,87
739,473	72,03
739,907	72,68
740,342	72,67
740,776	72,67
741,21	72,29
741,644	73,2
742,078	72,69
742,512	72,89
742,946	72,54
743,379	73,15
743,813	73,25
744,246	73,17
744,68	73,36
745,113	72,72
745,546	72,95
745,979	73,38
746,412	73,31
746,845	72,68
747,278	73,37
747,711	73,08
748,143	73,58
748,576	73,42
749,008	72,49
749,441	73,59
749,873	73,02
750,305	72,86
750,737	72,79
751,169	73,1
751,601	73,01
752,032	73,36
752,464	72,97
752,896	72,89
753,327	73,52
753,758	73,35
754,19	73,2
754,621	73,34
755,052	73,48
755,483	73,23
755,914	72,67
756,344	73,2
756,775	72,88
757,206	72,92
757,636	72,72
758,066	72,56
758,497	72,63
758,927	72,73
759,357	73,33
759,787	72,68
760,217	73,05
760,647	72,22
761,076	72,9
761,506	72,38
761,935	72,74
762,365	72,29
762,794	72,54
763,223	72,43
763,653	72,82
764,082	72,47
764,51	72,43
764,939	72,46
765,368	72,66
765,797	72,51
766,225	72,16
766,654	72,09
767,082	72,07
767,51	72,75
767,938	72,14
768,367	72,35
768,795	72,1
769,222	72,33
769,65	71,91
770,078	71,95
770,505	72,2
770,933	71,81
771,36	71,89
771,788	71,64
772,215	72,07
772,642	71,91
773,069	71,62
773,496	72,07
773,923	71,95
774,349	72,18
774,776	71,95
775,203	72,06
775,629	71,83
776,055	72,06
776,482	71,91
776,908	72,18
777,334	71,45
777,76	71,75
778,186	71,71
778,611	71,92
779,037	71,77
779,463	72,11
779,888	71,37
780,314	71,35
780,739	71,86
781,164	71,78
781,589	71,68
782,014	71,18
782,439	72,02
782,864	71,69
783,289	71,56
783,713	71,21
784,138	71,68
784,562	71,49
784,987	71,54
785,411	71,11
785,835	71,93
786,259	71,44
786,683	71,82
787,107	71,42
787,531	71,31
787,954	71,24
788,378	71,4
788,802	71,1
789,225	71
789,648	71,4
790,071	71,82
790,495	71,51
790,918	71,66
791,34	71,33
791,763	71,15
792,186	71,41
792,609	71,31
793,031	70,93
793,454	71,38
793,876	71,51
794,298	71,45
794,721	71,23
795,143	71,29
795,565	71,3
795,986	71,36
796,408	71,17
796,83	71,55
797,252	71,26
797,673	71,06
798,094	71,19
798,516	71,34
798,937	71,26
799,358	71,62
799,779	71,46
800,2	71,08
800,621	71,23
801,042	71,38
801,462	71,55
801,883	70,94
802,303	70,78
802,724	71,29
803,144	71,39
803,564	71,49
803,984	70,91
804,404	70,98
804,824	71,48
805,244	71,36
805,664	71,11
806,084	71,06
806,503	71,13
806,923	71,26
807,342	71,2
807,761	71,23
808,18	71,5
808,599	71,06
809,018	71,33
809,437	71,43
809,856	70,84
810,275	71,64
810,693	71,35
811,112	71,2
811,53	71,24
811,949	71,31
812,367	71,47
812,785	70,85
813,203	70,45
813,621	71,25
814,039	71,6
814,457	71,25
814,874	70,86
815,292	70,65
815,709	70,98
816,127	71,35
816,544	70,94
816,961	70,93
817,378	71,14
817,795	71,03
818,212	71,06
818,629	71,39
819,046	70,71
819,462	71,51
819,879	71,03
820,295	71,45
820,712	70,92
821,128	71,6
821,544	70,67
821,96	71,13
822,376	71,54
822,792	71,12
823,208	70,77
823,624	70,78
824,039	71,19
824,455	71,15
824,87	71,05
825,286	70,65
825,701	70,24
826,116	71,03
826,531	71,31
826,946	70,9
827,361	70,98
827,776	70,62
828,19	70,96
828,605	70,56
829,02	70,74
829,434	70,56
829,848	71,18
830,263	71,04
830,677	70,67
831,091	70,66
831,505	70,59
831,919	70,81
832,332	70,69
832,746	70,8
833,16	70,76
833,573	71,19
833,987	70,29
834,4	70,57
834,813	70,17
835,226	70,46
835,639	71,08
836,052	70,82
836,465	70,64
836,878	70,71
837,29	70,78
