Data from H_1_Relative__0__00166.txt Node

Date: Tue Jan 30 10:12:57 CET 2024
User: diatiterra
Spectrometer: HDX00911
Trigger mode: 0
Integration Time (sec): 6,000000E-3
Scans to average: 2
Nonlinearity correction enabled: false
Boxcar width: 0
Storing dark spectrum: false
XAxis mode: Wavelengths
Number of Pixels in Spectrum: 2068
>>>>>Begin Spectral Data<<<<<
194,468	101,1
195,025	100
195,581	93,94
196,138	92,36
196,694	88,06
197,251	79,74
197,807	90,83
198,363	81,15
198,919	85,11
199,474	80,08
200,03	82,28
200,586	87,22
201,141	82,35
201,696	79,41
202,251	82,09
202,806	81,28
203,361	83,33
203,916	83,4
204,471	85,15
205,025	81,59
205,58	85,25
206,134	81,27
206,688	80,69
207,242	83,33
207,796	81,36
208,35	89,04
208,904	87,5
209,457	86,43
210,011	79,91
210,564	90,09
211,117	82,13
211,67	79,35
212,223	81,27
212,776	87,29
213,329	80,59
213,881	82,68
214,434	80,33
214,986	85,27
215,538	88,19
216,09	80,72
216,642	78,51
217,194	94,26
217,746	86,45
218,297	89,08
218,849	80,23
219,4	87,01
219,951	89,82
220,502	84,05
221,053	88,14
221,604	79,13
222,155	77,12
222,705	79,15
223,256	77,9
223,806	87,92
224,356	100,98
224,906	88,99
225,456	84,03
226,006	80,8
226,556	85,84
227,106	83,4
227,655	83,26
228,204	95,02
228,754	84,39
229,303	84,23
229,852	92,58
230,401	74,44
230,949	79,43
231,498	81,25
232,047	80,33
232,595	77,91
233,143	89,04
233,691	75,97
234,239	79,77
234,787	88,34
235,335	85,71
235,883	90,54
236,43	88,14
236,978	83,04
237,525	80
238,072	81,5
238,619	70,85
239,166	83,19
239,713	78,06
240,26	76,61
240,806	87,93
241,353	88,03
241,899	86,01
242,445	80,75
242,991	79,92
243,537	84,42
244,083	81
244,629	79,74
245,174	85,53
245,72	81,47
246,265	86,88
246,81	87,56
247,355	82,85
247,9	88,33
248,445	70,24
248,99	77,02
249,534	82,64
250,079	94,91
250,623	89,82
251,168	89,39
251,712	72,93
252,256	77,69
252,8	87,17
253,343	85,43
253,887	91,34
254,43	84,44
254,974	73,6
255,517	86,06
256,06	75,53
256,603	84,77
257,146	75,38
257,689	81,78
258,232	77,83
258,774	92,51
259,317	94,83
259,859	85,71
260,401	90,19
260,943	83,4
261,485	93,64
262,027	79,15
262,569	89,35
263,11	81,86
263,652	77,88
264,193	91,63
264,734	94,44
265,275	87,55
265,816	73,5
266,357	78,84
266,898	81,2
267,438	84,26
267,979	80,17
268,519	89,9
269,059	71,15
269,6	90,27
270,14	83,19
270,68	78,28
271,219	83,04
271,759	83,41
272,298	78
272,838	82,47
273,377	87,39
273,916	78,6
274,455	78,85
274,994	84,33
275,533	81,37
276,072	87,23
276,61	94,74
277,149	71,67
277,687	88,98
278,225	80,66
278,763	79,39
279,301	73,06
279,839	82,38
280,377	82,04
280,914	89,35
281,452	81,71
281,989	76,86
282,526	79,17
283,064	86,21
283,601	94,58
284,137	87,56
284,674	87,87
285,211	82,1
285,747	82,68
286,284	87,93
286,82	84,68
287,356	80
287,892	87,24
288,428	80,69
288,964	85,89
289,5	80,47
290,035	83,82
290,571	85,6
291,106	86,43
291,641	81,22
292,176	85,2
292,711	85,78
293,246	77,01
293,781	77,83
294,315	89,3
294,85	81,27
295,384	88,68
295,918	88
296,453	80,57
296,987	81,78
297,52	85,52
298,054	85,97
298,588	79,2
299,121	87,84
299,655	78,3
300,188	79,66
300,721	79,02
301,254	77,58
301,787	83,77
302,32	76,92
302,853	88,51
303,385	76,47
303,918	76
304,45	83,84
304,982	79,6
305,514	84,55
306,046	75,66
306,578	77,18
307,11	75,76
307,641	82,35
308,173	86,96
308,704	95,12
309,236	83,91
309,767	75
310,298	71,6
310,829	84,5
311,359	85,4
311,89	75,38
312,421	74,69
312,951	77,41
313,481	86,73
314,012	79,46
314,542	78,83
315,072	84,55
315,601	79,03
316,131	72,1
316,661	84,56
317,19	72,65
317,72	69,92
318,249	85,32
318,778	93
319,307	75,81
319,836	83,2
320,365	87,66
320,893	87,4
321,422	82,51
321,95	83,91
322,479	77,91
323,007	74,5
323,535	82,64
324,063	77,43
324,591	80,46
325,118	77,92
325,646	81,9
326,173	80,8
326,701	71,71
327,228	81,22
327,755	76,67
328,282	88,18
328,809	82,46
329,336	85,96
329,862	82,48
330,389	78,85
330,915	75,58
331,441	90,72
331,968	70,52
332,494	80,44
333,02	83,26
333,545	74,9
334,071	80,67
334,597	78,1
335,122	88,29
335,648	82,8
336,173	82,2
336,698	82,83
337,223	83,1
337,748	80
338,272	80,26
338,797	82,07
339,322	79,91
339,846	78,31
340,37	79,04
340,894	75,11
341,419	77,42
341,942	72,09
342,466	66,81
342,99	77,19
343,514	80,57
344,037	72,18
344,56	78,09
345,084	76,27
345,607	77,36
346,13	71,77
346,653	66,42
347,175	77,54
347,698	74,73
348,221	75,3
348,743	80,38
349,265	81,63
349,787	76,31
350,309	77,74
350,831	67,61
351,353	82,04
351,875	64,1
352,397	69,83
352,918	82,47
353,439	72,91
353,961	77,62
354,482	65,77
355,003	70,66
355,524	73,31
356,044	75,64
356,565	74,65
357,086	70,45
357,606	56,67
358,126	65,55
358,646	65,52
359,167	73,75
359,687	69,64
360,206	69,65
360,726	70,66
361,246	72,76
361,765	74,11
362,285	70,13
362,804	64,33
363,323	65,47
363,842	72,28
364,361	65,94
364,88	71,77
365,398	76,13
365,917	70,41
366,435	74,1
366,954	72,64
367,472	70,87
367,99	68,56
368,508	75,15
369,026	69,97
369,544	70,43
370,061	60,32
370,579	70,72
371,096	67,28
371,613	64,08
372,131	67,36
372,648	69,29
373,165	70,45
373,681	67,28
374,198	69,37
374,715	58,51
375,231	68,64
375,747	68,4
376,264	63,35
376,78	61,61
377,296	65,24
377,812	64,59
378,327	66,67
378,843	65,95
379,359	63,44
379,874	61,95
380,389	62,56
380,905	62
381,42	56,53
381,935	69,18
382,449	63,48
382,964	55,77
383,479	54,28
383,993	63,2
384,508	56,73
385,022	62,15
385,536	57,62
386,05	56,96
386,564	54,56
387,078	60,91
387,592	50,82
388,105	57,12
388,619	49,6
389,132	53,91
389,645	50,38
390,158	54,33
390,671	53,01
391,184	57,06
391,697	47,37
392,21	46,68
392,722	50,63
393,235	52,2
393,747	50,98
394,259	46,96
394,771	54,21
395,283	43,39
395,795	49,47
396,307	44,24
396,818	45,76
397,33	47,01
397,841	47,39
398,353	45,42
398,864	43,79
399,375	42,96
399,886	41,97
400,397	43,37
400,907	40,71
401,418	39,61
401,928	43,68
402,439	37,84
402,949	37,18
403,459	38,75
403,969	35,23
404,479	36,21
404,989	35,09
405,498	33,69
406,008	35,32
406,517	34,58
407,027	31,83
407,536	33,74
408,045	29,25
408,554	28,83
409,063	29,05
409,572	26,42
410,08	27,46
410,589	25
411,097	24,69
411,606	25,09
412,114	22,59
412,622	22,71
413,13	23,66
413,638	21,2
414,145	21,13
414,653	19,84
415,16	20,9
415,668	18,85
416,175	19,53
416,682	18,99
417,189	18,37
417,696	18,6
418,203	18,91
418,71	16,46
419,216	17,05
419,723	17,15
420,229	15,71
420,735	17,04
421,242	15,68
421,748	15,57
422,254	16,42
422,759	15,58
423,265	14,96
423,771	14,69
424,276	15,31
424,781	15,24
425,287	14,26
425,792	14,63
426,297	15,11
426,802	14,21
427,306	15,4
427,811	13,95
428,316	14,5
428,82	14,04
429,324	13,69
429,829	14,43
430,333	14,68
430,837	14,55
431,34	14,09
431,844	13,11
432,348	14,19
432,851	13,93
433,355	12,7
433,858	13,27
434,361	13,49
434,864	13,08
435,367	14,15
435,87	12,93
436,373	12,43
436,876	13,65
437,378	12,51
437,88	12,94
438,383	13,26
438,885	12,6
439,387	12,47
439,889	11,91
440,391	12,65
440,892	12,43
441,394	13,1
441,896	12,89
442,397	12,89
442,898	12,08
443,399	12,52
443,9	12,79
444,401	12,39
444,902	12,39
445,403	13,12
445,903	13,07
446,404	12,57
446,904	12,7
447,405	12,33
447,905	13,02
448,405	13,01
448,905	12,63
449,404	12,88
449,904	12,64
450,404	12,98
450,903	12,98
451,403	13,24
451,902	13,11
452,401	13,01
452,9	13,44
453,399	12,82
453,898	13,63
454,396	12,75
454,895	12,93
455,393	13,79
455,892	13,34
456,39	13,44
456,888	13,6
457,386	13,52
457,884	12,96
458,382	13
458,879	13,35
459,377	13,94
459,874	13,36
460,372	14,19
460,869	13,45
461,366	12,9
461,863	13,74
462,36	13,28
462,857	12,93
463,353	13,26
463,85	13,05
464,346	13,26
464,843	13,54
465,339	13,35
465,835	13,24
466,331	13,32
466,827	13,43
467,323	13,3
467,818	13,03
468,314	13,2
468,809	13,02
469,305	12,72
469,8	13,23
470,295	13,38
470,79	13,51
471,285	13,38
471,78	12,5
472,274	13,61
472,769	13,08
473,263	13,11
473,758	13,76
474,252	13,61
474,746	13,34
475,24	13,4
475,734	13,19
476,228	12,88
476,721	13,2
477,215	13,23
477,708	13,21
478,202	13,31
478,695	13,6
479,188	13,05
479,681	13,43
480,174	13,06
480,667	13,33
481,159	12,99
481,652	13,75
482,144	13,24
482,637	13,16
483,129	12,78
483,621	13,27
484,113	13,73
484,605	13,32
485,097	13,44
485,588	13,4
486,08	13,5
486,571	13,61
487,063	14,22
487,554	13,41
488,045	13,59
488,536	13,53
489,027	13,75
489,518	13,41
490,008	13,68
490,499	13,97
490,989	13,56
491,48	14
491,97	13,67
492,46	13,48
492,95	14,2
493,44	14,47
493,93	14,67
494,419	14,51
494,909	14,38
495,398	14,48
495,888	14,88
496,377	14,8
496,866	14,94
497,355	14,99
497,844	15,36
498,333	15,26
498,821	15,32
499,31	15,51
499,798	15,55
500,287	15,7
500,775	15,85
501,263	15,89
501,751	16,44
502,239	16,66
502,727	16,83
503,215	16,83
503,702	17,19
504,19	17,31
504,677	17,5
505,164	17,31
505,651	17,92
506,139	18,41
506,625	18,61
507,112	18,8
507,599	19,05
508,086	19,41
508,572	19,8
509,058	19,82
509,545	20,18
510,031	20,7
510,517	20,59
511,003	20,67
511,489	21,21
511,974	21,51
512,46	22,22
512,946	22,68
513,431	22,59
513,916	23,49
514,401	23,43
514,887	23,53
515,371	24,07
515,856	24,9
516,341	24,73
516,826	25,07
517,31	26,11
517,795	26,19
518,279	26,72
518,763	26,75
519,247	27,27
519,731	27,73
520,215	28,16
520,699	28,38
521,182	29,19
521,666	29,55
522,149	30,46
522,633	30,51
523,116	30,44
523,599	31,36
524,082	30,99
524,565	32,52
525,048	32,47
525,53	32,59
526,013	33,54
526,495	33,66
526,978	33,48
527,46	34,33
527,942	34,66
528,424	35,19
528,906	35,18
529,388	35,73
529,87	35,27
530,351	36,07
530,833	36,27
531,314	36,19
531,795	36,45
532,277	36,52
532,758	36,54
533,238	37,59
533,719	37,54
534,2	37,02
534,681	37,5
535,161	38
535,642	38,07
536,122	37,89
536,602	37,8
537,082	37,59
537,562	38,05
538,042	38,18
538,522	38,18
539,001	38,64
539,481	38,22
539,96	38,03
540,44	38,13
540,919	38,52
541,398	38,48
541,877	38,4
542,356	38,81
542,835	39,1
543,313	38,97
543,792	38,91
544,27	38,89
544,749	39,11
545,227	38,94
545,705	38,68
546,183	39,43
546,661	39,63
547,139	39,74
547,616	38,93
548,094	40,2
548,571	39,27
549,049	39,82
549,526	39,97
550,003	39,85
550,48	40,41
550,957	39,04
551,434	40,01
551,911	40,28
552,387	39,64
552,864	40,09
553,34	39,94
553,817	39,21
554,293	39,56
554,769	39,35
555,245	39,78
555,721	40,38
556,197	40,23
556,672	39,26
557,148	39,92
557,623	40,12
558,099	39,61
558,574	39,82
559,049	39,04
559,524	39,7
559,999	38,89
560,474	39,19
560,948	39,09
561,423	38,51
561,897	38,74
562,372	38,76
562,846	38,81
563,32	38,84
563,794	38,15
564,268	38,08
564,742	38,15
565,216	38,05
565,69	37,75
566,163	37,84
566,636	37,47
567,11	37,43
567,583	37,34
568,056	36,71
568,529	36,96
569,002	37,1
569,475	35,79
569,947	36
570,42	35,6
570,892	35,62
571,365	36,03
571,837	35,44
572,309	34,58
572,781	35,09
573,253	34,4
573,725	34,23
574,197	33,88
574,668	34,12
575,14	34,08
575,611	33,64
576,082	33,19
576,554	33
577,025	32,41
577,496	32,38
577,967	32,5
578,437	32,43
578,908	31,74
579,379	31,61
579,849	31,17
580,319	31,79
580,79	31,21
581,26	31,05
581,73	31,5
582,2	30,76
582,669	30,61
583,139	30,84
583,609	30,42
584,078	30,21
584,548	30,45
585,017	30,29
585,486	29,35
585,955	29,52
586,424	29,62
586,893	29,47
587,362	29,23
587,83	29,07
588,299	29,29
588,767	29,33
589,236	29,48
589,704	29,12
590,172	28,71
590,64	28,8
591,108	28,18
591,576	28,45
592,043	28,21
592,511	27,93
592,978	28,23
593,446	28,26
593,913	27,98
594,38	28,07
594,847	28,16
595,314	28,02
595,781	28,15
596,248	27,39
596,715	27,42
597,181	27,4
597,647	27,58
598,114	27,73
598,58	27,44
599,046	27,39
599,512	27,24
599,978	27,3
600,444	27,54
600,91	27,34
601,375	27,08
601,841	27,29
602,306	27,02
602,771	26,7
603,236	26,9
603,702	26,6
604,167	26,62
604,631	26,96
605,096	26,57
605,561	26,65
606,025	26,16
606,49	25,99
606,954	26,11
607,418	25,98
607,882	26,09
608,347	25,93
608,81	25,89
609,274	25,44
609,738	25,27
610,202	25,52
610,665	25,28
611,128	24,98
611,592	24,96
612,055	24,76
612,518	24,81
612,981	24,36
613,444	24,75
613,907	24,41
614,369	24,63
614,832	24,47
615,294	24,23
615,757	23,82
616,219	23,76
616,681	23,79
617,143	23,61
617,605	23,47
618,067	23,26
618,529	23,26
618,99	23,34
619,452	22,94
619,913	23,12
620,375	22,84
620,836	22,83
621,297	22,79
621,758	22,75
622,219	22,16
622,68	22,33
623,14	22,3
623,601	22,48
624,061	22,41
624,522	22,27
624,982	22,33
625,442	22,11
625,902	22,24
626,362	21,89
626,822	21,8
627,282	22,34
627,742	21,55
628,201	21,91
628,661	22,24
629,12	21,72
629,579	22,18
630,038	21,68
630,497	21,81
630,956	21,53
631,415	21,67
631,874	21,77
632,332	21,79
632,791	21,28
633,249	21,14
633,708	21,61
634,166	21,15
634,624	21,36
635,082	21
635,54	20,97
635,998	21,12
636,455	20,64
636,913	20,68
637,37	20,37
637,828	20,56
638,285	20,19
638,742	20,34
639,199	19,8
639,656	19,71
640,113	19,58
640,57	19,42
641,027	19,26
641,483	18,9
641,94	18,74
642,396	18,62
642,852	18,71
643,309	18,16
643,765	18,16
644,221	17,95
644,676	17,56
645,132	17,88
645,588	17,39
646,043	17,29
646,499	17,35
646,954	17,18
647,409	17
647,864	16,69
648,319	16,74
648,774	16,16
649,229	16,19
649,684	16,22
650,139	16,05
650,593	15,86
651,047	15,85
651,502	15,69
651,956	15,67
652,41	15,52
652,864	15,52
653,318	15,51
653,772	15,45
654,225	15,44
654,679	15,13
655,133	15,3
655,586	15,15
656,039	15,16
656,492	15,06
656,946	14,8
657,399	14,62
657,851	14,67
658,304	14,59
658,757	14,5
659,209	14,71
659,662	14,33
660,114	13,98
660,567	13,86
661,019	13,89
661,471	13,58
661,923	13,59
662,375	13,39
662,826	13,44
663,278	13,26
663,73	13,06
664,181	13,32
664,632	13,23
665,084	12,88
665,535	12,7
665,986	12,79
666,437	12,59
666,888	12,64
667,338	12,58
667,789	12,62
668,24	12,5
668,69	12,41
669,14	12,32
669,591	12,37
670,041	12,51
670,491	12,62
670,941	12,51
671,391	12,45
671,84	12,59
672,29	12,34
672,74	12,43
673,189	12,68
673,638	12,76
674,088	12,82
674,537	12,91
674,986	13,14
675,435	12,88
675,883	13,15
676,332	13,12
676,781	13,07
677,229	13,27
677,678	13,63
678,126	13,54
678,574	13,84
679,022	13,87
679,47	14,17
679,918	14,26
680,366	14,2
680,814	14,66
681,261	14,49
681,709	14,92
682,156	14,86
682,604	15,18
683,051	15,19
683,498	15,48
683,945	15,71
684,392	16,05
684,839	16,13
685,286	16,14
685,732	16,69
686,179	16,63
686,625	17,13
687,071	17,3
687,518	17,78
687,964	17,84
688,41	18,09
688,856	18,83
689,301	19,26
689,747	19,84
690,193	19,91
690,638	20,59
691,084	20,92
691,529	21,64
691,974	22,07
692,419	22,71
692,864	23,34
693,309	23,93
693,754	24,58
694,199	25,29
694,643	25,85
695,088	26,32
695,532	27,24
695,977	27,96
696,421	28,5
696,865	29,27
697,309	29,85
697,753	30,56
698,197	31,68
698,64	32,28
699,084	32,7
699,527	33,33
699,971	34,34
700,414	35,4
700,857	35,44
701,3	36,08
701,743	36,82
702,186	37,58
702,629	37,96
703,072	38,8
703,515	39,67
703,957	39,79
704,399	40,26
704,842	41,36
705,284	41,55
705,726	42,43
706,168	43,05
706,61	43,66
707,052	43,87
707,494	44,35
707,935	45,04
708,377	45,74
708,818	45,73
709,26	46,71
709,701	47,17
710,142	47,92
710,583	48,21
711,024	48,9
711,465	49,25
711,905	49,61
712,346	50,17
712,787	50,39
713,227	51,6
713,667	51,53
714,108	51,51
714,548	52,76
714,988	53,32
715,428	52,93
715,868	54,02
716,307	54,46
716,747	54,48
717,186	55,2
717,626	55,81
718,065	56,18
718,504	56,61
718,944	56,64
719,383	56,73
719,822	57,34
720,261	57,89
720,699	58,34
721,138	58,73
721,576	59,01
722,015	59,56
722,453	59,74
722,892	60,29
723,33	60,25
723,768	60,85
724,206	61,18
724,644	61,04
725,081	61,52
725,519	61,84
725,957	61,79
726,394	62,57
726,832	62,86
727,269	62,91
727,706	63,25
728,143	63,8
728,58	63,93
729,017	63,96
729,454	63,87
729,89	64,03
730,327	64,69
730,764	64,35
731,2	65,3
731,636	65,13
732,072	64,88
732,509	65,19
732,945	65,79
733,38	65,7
733,816	65,98
734,252	65,87
734,688	65,58
735,123	66,44
735,559	65,95
735,994	66,38
736,429	66,2
736,864	66,71
737,299	66,74
737,734	66,69
738,169	67,35
738,604	66,73
739,038	67,14
739,473	67,61
739,907	67,03
740,342	67,67
740,776	67,94
741,21	67,04
741,644	67,45
742,078	67,24
742,512	67,43
742,946	67,39
743,379	67,28
743,813	67,69
744,246	67,92
744,68	67,83
745,113	67,98
745,546	67,48
745,979	67,47
746,412	67,52
746,845	67,93
747,278	67,6
747,711	67,55
748,143	67,73
748,576	67,71
749,008	66,81
749,441	67,18
749,873	67,27
750,305	67,51
750,737	67,32
751,169	67,94
751,601	67,26
752,032	67,23
752,464	67,66
752,896	67,24
753,327	67,68
753,758	67,35
754,19	67,38
754,621	67,31
755,052	67,41
755,483	66,84
755,914	66,98
756,344	66,77
756,775	66,88
757,206	66,86
757,636	66,94
758,066	66,47
758,497	66,75
758,927	66,83
759,357	66,87
759,787	66,76
760,217	66,77
760,647	66,75
761,076	66,67
761,506	66,44
761,935	66,57
762,365	66,28
762,794	66,57
763,223	66,03
763,653	66,68
764,082	66,52
764,51	66,2
764,939	66,65
765,368	66,38
765,797	66,42
766,225	65,98
766,654	65,87
767,082	66,16
767,51	65,74
767,938	65,46
768,367	65,98
768,795	66,05
769,222	66,08
769,65	65,78
770,078	65,57
770,505	65,86
770,933	65,57
771,36	66,01
771,788	65,84
772,215	65,85
772,642	65,59
773,069	65,31
773,496	65,54
773,923	65,1
774,349	65,31
774,776	65,8
775,203	65,89
775,629	65,55
776,055	65,24
776,482	65,78
776,908	65,49
777,334	65,04
777,76	65,62
778,186	65,37
778,611	65,12
779,037	65,07
779,463	65,56
779,888	64,6
780,314	64,89
780,739	65,25
781,164	65,11
781,589	64,97
782,014	64,93
782,439	65,64
782,864	65,23
783,289	65,16
783,713	64,79
784,138	65,38
784,562	65,24
784,987	64,66
785,411	64,87
785,835	65,45
786,259	65,05
786,683	64,86
787,107	65,14
787,531	64,95
787,954	65,13
788,378	64,98
788,802	64,91
789,225	64,97
789,648	64,61
790,071	64,75
790,495	64,58
790,918	65,26
791,34	64,64
791,763	64,88
792,186	64,97
792,609	64,98
793,031	64,65
793,454	64,65
793,876	65,1
794,298	64,89
794,721	65,07
795,143	64,34
795,565	65,22
795,986	64,15
796,408	64,06
796,83	64,81
797,252	64,48
797,673	64,01
798,094	64,49
798,516	64,52
798,937	64,6
799,358	64,91
799,779	65,18
800,2	64,94
800,621	64,12
801,042	64,76
801,462	64,35
801,883	64,59
802,303	64,36
802,724	64,65
803,144	64,65
803,564	64,41
803,984	64,39
804,404	64,07
804,824	64,87
805,244	65,39
805,664	64,81
806,084	64,22
806,503	64,61
806,923	64,49
807,342	64,26
807,761	64,15
808,18	64,8
808,599	64,85
809,018	64,49
809,437	64,24
809,856	64,27
810,275	64,65
810,693	64,37
811,112	64,22
811,53	64,52
811,949	64,47
812,367	64,44
812,785	64,12
813,203	64,47
813,621	64,23
814,039	64,36
814,457	64,45
814,874	63,91
815,292	64,3
815,709	64,56
816,127	64,54
816,544	63,67
816,961	64,36
817,378	64,1
817,795	63,78
818,212	64,21
818,629	64,44
819,046	64,32
819,462	64,74
819,879	64,07
820,295	64,61
820,712	63,89
821,128	64,35
821,544	64,51
821,96	63,94
822,376	64,8
822,792	64,64
823,208	64,26
823,624	64,2
824,039	64,41
824,455	63,88
824,87	64,23
825,286	64,31
825,701	63,46
826,116	63,75
826,531	64,57
826,946	64,34
827,361	64,54
827,776	63,81
828,19	64,57
828,605	63,67
829,02	63,84
829,434	63,64
829,848	64,05
830,263	63,76
830,677	64,58
831,091	64
831,505	64,32
831,919	64,12
832,332	64,31
832,746	64,02
833,16	63,96
833,573	63,79
833,987	63,7
834,4	63,55
