Data from H_1_Relative__5__00171.txt Node

Date: Tue Jan 30 10:13:14 CET 2024
User: diatiterra
Spectrometer: HDX00911
Trigger mode: 0
Integration Time (sec): 6,000000E-3
Scans to average: 2
Nonlinearity correction enabled: false
Boxcar width: 0
Storing dark spectrum: false
XAxis mode: Wavelengths
Number of Pixels in Spectrum: 2068
>>>>>Begin Spectral Data<<<<<
194,468	95,58
195,025	101,61
195,581	96,21
196,138	80,89
196,694	102,49
197,251	85,02
197,807	81,67
198,363	80,33
198,919	75,74
199,474	76,69
200,03	79,53
200,586	87,22
201,141	74,79
201,696	78,99
202,251	83,58
202,806	80
203,361	84,15
203,916	85,89
204,471	88,61
205,025	82,43
205,58	89,86
206,134	76,89
206,688	88,41
207,242	93,24
207,796	81,78
208,35	89,95
208,904	89,11
209,457	87,98
210,011	86,46
210,564	87,39
211,117	84,26
211,67	87,45
212,223	78,49
212,776	90,68
213,329	87,76
213,881	80,09
214,434	74,18
214,986	84,38
215,538	83,46
216,09	84,74
216,642	81,4
217,194	98,09
217,746	83,27
218,297	90,76
218,849	86,69
219,4	79,22
219,951	88,94
220,502	84,05
221,053	90,25
221,604	81,1
222,155	80,93
222,705	80,85
223,256	81,65
223,806	82,92
224,356	96,08
224,906	90,75
225,456	92,02
226,006	87,95
226,556	84,96
227,106	88,38
227,655	86,51
228,204	95,02
228,754	87,34
229,303	92,79
229,852	96,94
230,401	90,13
230,949	82,27
231,498	86,16
232,047	78,69
232,595	85,54
233,143	92,11
233,691	80,21
234,239	72,14
234,787	72,65
235,335	84,85
235,883	82,43
236,43	79,66
236,978	84,35
237,525	74,04
238,072	77,97
238,619	72,2
239,166	83,62
239,713	78,06
240,26	82,26
240,806	78,88
241,353	90,6
241,899	82,72
242,445	78,66
242,991	75,82
243,537	81,39
244,083	81,9
244,629	83,26
245,174	83,4
245,72	79,54
246,265	81,45
246,81	81,33
247,355	75,91
247,9	77,92
248,445	72,62
248,99	81,7
249,534	80,75
250,079	85,65
250,623	86,73
251,168	82,86
251,712	64,63
252,256	81,82
252,8	84,07
253,343	79,35
253,887	87,45
254,43	77,78
254,974	82,4
255,517	74,04
256,06	73
256,603	76,95
257,146	79,23
257,689	77,12
258,232	83,71
258,774	77,09
259,317	81,9
259,859	77,62
260,401	78,97
260,943	75,1
261,485	81,82
262,027	76,17
262,569	89,35
263,11	84,51
263,652	80,53
264,193	82,33
264,734	87,04
265,275	82,4
265,816	74,79
266,357	86,72
266,898	89,32
267,438	78,3
267,979	77,59
268,519	88,46
269,059	72,73
269,6	80,97
270,14	75,43
270,68	75,82
271,219	85,65
271,759	71,62
272,298	75,2
272,838	73,31
273,377	92,34
273,916	76,26
274,455	69,62
274,994	82,95
275,533	74,52
276,072	84,26
276,61	84,21
277,149	76,67
277,687	89,83
278,225	79,01
278,763	72,14
279,301	81,63
279,839	82,79
280,377	72,24
280,914	73,61
281,452	77,24
281,989	83,88
282,526	74,17
283,064	80,46
283,601	84,17
284,137	70,67
284,674	83,68
285,211	80,35
285,747	74,8
286,284	86,21
286,82	82,26
287,356	76,89
287,892	75,31
288,428	78,11
288,964	79,25
289,5	86,51
290,035	76,76
290,571	82,1
291,106	76,92
291,641	82,97
292,176	77,2
292,711	81,9
293,246	72,41
293,781	69,13
294,315	84,19
294,85	69,32
295,384	74,53
295,918	86
296,453	75,71
296,987	77,97
297,52	83,71
298,054	79,64
298,588	69,6
299,121	79,28
299,655	85,85
300,188	84,75
300,721	80,36
301,254	78,92
301,787	85,09
302,32	76,07
302,853	85,96
303,385	77,25
303,918	84,44
304,45	83,84
304,982	73,2
305,514	73,58
306,046	84,07
306,578	73,86
307,11	84,47
307,641	74,37
308,173	81,74
308,704	89,84
309,236	86,96
309,767	72,92
310,298	84
310,829	79,07
311,359	83,63
311,89	69,62
312,421	70,2
312,951	72,8
313,481	86,26
314,012	85,66
314,542	82,43
315,072	80,26
315,601	78,23
316,131	82,4
316,661	79,92
317,19	66,12
317,72	80,08
318,249	77,98
318,778	92,18
319,307	81,85
319,836	83,2
320,365	80,85
320,893	80,31
321,422	75,34
321,95	77,39
322,479	82,33
323,007	80,08
323,535	81,13
324,063	80,16
324,591	84,67
325,118	75,32
325,646	80,6
326,173	90,18
326,701	77,29
327,228	76,73
327,755	83,81
328,282	89,09
328,809	71,93
329,336	85,11
329,862	75,55
330,389	73,57
330,915	74,03
331,441	83,97
331,968	76,1
332,494	83,11
333,02	76,99
333,545	71,66
334,071	78,57
334,597	77,69
335,122	82,88
335,648	75,2
336,173	77,54
336,698	77,68
337,223	88,26
337,748	78,82
338,272	71,67
338,797	82,47
339,322	76,92
339,846	72,29
340,37	77,73
340,894	78,9
341,419	81,05
341,942	71,32
342,466	68,14
342,99	74,14
343,514	80,97
344,037	68,8
344,56	82,87
345,084	75
345,607	72,08
346,13	72,58
346,653	63,84
347,175	79,66
347,698	72,89
348,221	72,87
348,743	79,25
349,265	75,1
349,787	71,08
350,309	71,17
350,831	68,66
351,353	75,1
351,875	72,16
352,397	67,8
352,918	77,29
353,439	71,31
353,961	68,53
354,482	72,15
355,003	70,35
355,524	67,91
356,044	66,91
356,565	61,46
357,086	67,21
357,606	54,33
358,126	67,56
358,646	62,07
359,167	61,46
359,687	64,36
360,206	68,69
360,726	58,68
361,246	60,06
361,765	61,17
362,285	62,42
362,804	53,05
363,323	66,07
363,842	66,01
364,361	60,99
364,88	66,97
365,398	58,61
365,917	55,92
366,435	65,01
366,954	62,31
367,472	61,56
367,99	58,36
368,508	68,48
369,026	63,17
369,544	67,25
370,061	54,16
370,579	62,98
371,096	58,38
371,613	54,96
372,131	56,92
372,648	63,96
373,165	59,89
373,681	56,54
374,198	55,7
374,715	55,41
375,231	53,83
375,747	57,78
376,264	54,61
376,78	55,92
377,296	47,62
377,812	59,1
378,327	57,28
378,843	51,8
379,359	51,98
379,874	52,81
380,389	52,28
380,905	51,59
381,42	49,39
381,935	53,66
382,449	52,34
382,964	46,31
383,479	48,85
383,993	52,4
384,508	48,27
385,022	49,53
385,536	44,98
386,05	48,79
386,564	47,37
387,078	48,69
387,592	44,92
388,105	39,9
388,619	39,58
389,132	47,25
389,645	40,4
390,158	41,89
390,671	42
391,184	43,25
391,697	39,12
392,21	39,38
392,722	38,29
393,235	39,01
393,747	38,76
394,259	38,67
394,771	41,65
395,283	35,91
395,795	37,33
396,307	33,91
396,818	34,16
397,33	38,57
397,841	36,16
398,353	36,65
398,864	35,3
399,375	32,75
399,886	29,32
400,397	35,6
400,907	32
401,418	31,64
401,928	30,83
402,439	29,21
402,949	31
403,459	29,06
403,969	28,28
404,479	28,25
404,989	27,22
405,498	25,07
406,008	27,46
406,517	25,51
407,027	23,61
407,536	23,16
408,045	22,51
408,554	21,79
409,063	22,33
409,572	19,59
410,08	20,26
410,589	19,49
411,097	18,65
411,606	18,55
412,114	16,37
412,622	17,14
413,13	16,04
413,638	15,83
414,145	15,86
414,653	14,54
415,16	15,54
415,668	14,71
416,175	13,07
416,682	12,49
417,189	12,19
417,696	12,88
418,203	13,58
418,71	12,31
419,216	13,47
419,723	13,03
420,229	12,8
420,735	12,29
421,242	12,49
421,748	11,98
422,254	12,82
422,759	11,36
423,265	10,8
423,771	11,19
424,276	10,6
424,781	10,79
425,287	10,89
425,792	10,32
426,297	10,28
426,802	9,99
427,306	11,15
427,811	10,15
428,316	10,4
428,82	9,86
429,324	10,25
429,829	10,03
430,333	10,75
430,837	9,8
431,34	10,27
431,844	9,84
432,348	10,16
432,851	9,96
433,355	9,54
433,858	10,08
434,361	10,18
434,864	9,53
435,367	9,54
435,87	9,34
436,373	9,41
436,876	10,85
437,378	9,11
437,88	9,22
438,383	9,99
438,885	9,59
439,387	8,87
439,889	9,04
440,391	8,96
440,892	9,4
441,394	9,39
441,896	9,3
442,397	9,22
442,898	9,42
443,399	9,42
443,9	9,2
444,401	8,8
444,902	8,89
445,403	8,63
445,903	9,37
446,404	9,13
446,904	8,73
447,405	9,19
447,905	9,06
448,405	8,78
448,905	9,55
449,404	9,29
449,904	9,1
450,404	8,83
450,903	9,12
451,403	8,87
451,902	8,88
452,401	9,26
452,9	9,35
453,399	9,52
453,898	8,87
454,396	9,29
454,895	9,02
455,393	9,04
455,892	8,69
456,39	8,53
456,888	9,14
457,386	8,94
457,884	9,17
458,382	8,61
458,879	9,31
459,377	9,09
459,874	9,38
460,372	8,92
460,869	9,01
461,366	8,95
461,863	8,87
462,36	8,85
462,857	8,41
463,353	8,74
463,85	8,43
464,346	8,77
464,843	8,84
465,339	8,93
465,835	8,39
466,331	8,45
466,827	9,15
467,323	8,67
467,818	8,71
468,314	9,04
468,809	8,93
469,305	8,2
469,8	8,7
470,295	8,68
470,79	8,41
471,285	8,52
471,78	8,62
472,274	8,52
472,769	8,4
473,263	9,04
473,758	8,82
474,252	8,72
474,746	8,21
475,24	8,6
475,734	8,19
476,228	8,29
476,721	8,58
477,215	8,57
477,708	8,47
478,202	8,3
478,695	8,35
479,188	8,48
479,681	8,45
480,174	8,04
480,667	8,87
481,159	8,65
481,652	8,52
482,144	8,39
482,637	8,73
483,129	8,42
483,621	8,76
484,113	8,27
484,605	8,79
485,097	8,79
485,588	8,66
486,08	8,5
486,571	8,66
487,063	8,72
487,554	8,93
488,045	8,82
488,536	8,54
489,027	8,55
489,518	8,59
490,008	8,83
490,499	8,96
490,989	8,79
491,48	8,85
491,97	8,82
492,46	8,62
492,95	8,47
493,44	8,77
493,93	8,76
494,419	8,91
494,909	8,88
495,398	9,22
495,888	9,13
496,377	8,96
496,866	9,44
497,355	9,35
497,844	9,35
498,333	9,4
498,821	9,63
499,31	9,62
499,798	9,96
500,287	10,04
500,775	9,7
501,263	10,05
501,751	10,11
502,239	10,34
502,727	10,6
503,215	10,6
503,702	10,56
504,19	10,7
504,677	10,9
505,164	11,16
505,651	11,18
506,139	11,07
506,625	11,54
507,112	12,12
507,599	12,24
508,086	12,25
508,572	12,1
509,058	12,83
509,545	12,81
510,031	12,85
510,517	13,55
511,003	13,44
511,489	13,88
511,974	14,18
512,46	14,44
512,946	14,59
513,431	14,95
513,916	15,04
514,401	15,35
514,887	15,86
515,371	16
515,856	16,43
516,341	17,01
516,826	17,09
517,31	17,52
517,795	18,05
518,279	18,4
518,763	18,33
519,247	18,98
519,731	19,83
520,215	19,38
520,699	19,5
521,182	20,6
521,666	20,71
522,149	21,23
522,633	21,93
523,116	21,81
523,599	22,61
524,082	22,75
524,565	22,91
525,048	23,58
525,53	23,51
526,013	24,87
526,495	24,49
526,978	24,86
527,46	24,66
527,942	25,83
528,424	25,83
528,906	25,83
529,388	26,06
529,87	26,96
530,351	26,79
530,833	26,69
531,314	27,27
531,795	27,4
532,277	27,29
532,758	27,3
533,238	28,36
533,719	28,56
534,2	28,93
534,681	28,4
535,161	29,32
535,642	28,58
536,122	29,25
536,602	29,37
537,082	29,08
537,562	28,95
538,042	29,25
538,522	29,41
539,001	29,64
539,481	29,71
539,96	29,77
540,44	29,9
540,919	29,52
541,398	29,95
541,877	29,82
542,356	30,64
542,835	30,49
543,313	29,97
543,792	29,83
544,27	30,43
544,749	30,09
545,227	30,4
545,705	30,46
546,183	30,31
546,661	30,42
547,139	30,78
547,616	30,21
548,094	31,18
548,571	30,16
549,049	30,66
549,526	31,17
550,003	30,4
550,48	31,16
550,957	30,73
551,434	30,33
551,911	31,18
552,387	31,15
552,864	30,93
553,34	31,56
553,817	31,04
554,293	30,7
554,769	30,87
555,245	31,55
555,721	31,63
556,197	31,04
556,672	30,71
557,148	31,06
557,623	30,88
558,099	30,41
558,574	31,06
559,049	30,1
559,524	30,16
559,999	30,33
560,474	30,25
560,948	30,68
561,423	30,02
561,897	30,18
562,372	29,9
562,846	29,9
563,32	29,66
563,794	29,13
564,268	29,48
564,742	29,33
565,216	28,89
565,69	28,81
566,163	28,8
566,636	28,52
567,11	28,48
567,583	28,48
568,056	27,44
568,529	27,63
569,002	27,48
569,475	27,45
569,947	27,42
570,42	26,62
570,892	26,53
571,365	26,32
571,837	26,2
572,309	25,94
572,781	26,31
573,253	25,87
573,725	25,28
574,197	24,69
574,668	24,83
575,14	24,58
575,611	24,53
576,082	23,8
576,554	24,24
577,025	23,69
577,496	23,81
577,967	23,34
578,437	23,45
578,908	23,5
579,379	22,87
579,849	22,54
580,319	22,79
580,79	22,63
581,26	22,08
581,73	21,84
582,2	21,64
582,669	22,02
583,139	21,73
583,609	21,64
584,078	21,32
584,548	21,44
585,017	21,22
585,486	21
585,955	20,56
586,424	20,53
586,893	20,69
587,362	20,72
587,83	20,51
588,299	20,57
588,767	20,5
589,236	20,6
589,704	19,96
590,172	19,68
590,64	19,91
591,108	19,83
591,576	19,91
592,043	19,36
592,511	19,45
592,978	19,46
593,446	19,73
593,913	19,33
594,38	19,56
594,847	19,33
595,314	19,27
595,781	19,45
596,248	19,19
596,715	19,3
597,181	19,15
597,647	19,16
598,114	18,7
598,58	19,46
599,046	19,43
599,512	18,34
599,978	18,76
600,444	18,88
600,91	18,74
601,375	18,56
601,841	18,99
602,306	18,78
602,771	18,28
603,236	18,36
603,702	17,95
604,167	18,1
604,631	18,31
605,096	17,97
605,561	18,31
606,025	17,89
606,49	17,67
606,954	17,73
607,418	17,74
607,882	17,59
608,347	17,83
608,81	17,44
609,274	17,26
609,738	17,2
610,202	16,95
610,665	16,62
611,128	16,74
611,592	16,54
612,055	16,45
612,518	16,38
612,981	16,28
613,444	16,12
613,907	16,32
614,369	15,83
614,832	15,8
615,294	15,63
615,757	15,53
616,219	15,35
616,681	15,74
617,143	15,17
617,605	15,02
618,067	15,21
618,529	15,05
618,99	15,1
619,452	14,85
619,913	15,08
620,375	14,98
620,836	14,51
621,297	14,6
621,758	14,46
622,219	14,63
622,68	14,46
623,14	14,28
623,601	14,54
624,061	14,37
624,522	14,3
624,982	14,35
625,442	14,15
625,902	13,96
626,362	14,3
626,822	14,17
627,282	14,02
627,742	13,88
628,201	14,03
628,661	13,86
629,12	13,86
629,579	14,17
630,038	14,08
630,497	13,85
630,956	13,54
631,415	13,92
631,874	13,72
632,332	13,83
632,791	13,74
633,249	13,65
633,708	13,43
634,166	13,58
634,624	13,56
635,082	13,46
635,54	13,36
635,998	13,13
636,455	13,19
636,913	13
637,37	12,8
637,828	12,81
638,285	12,71
638,742	12,94
639,199	12,52
639,656	12,46
640,113	12,26
640,57	12,07
641,027	11,93
641,483	11,76
641,94	11,77
642,396	11,59
642,852	11,52
643,309	11,45
643,765	11,3
644,221	11,25
644,676	10,9
645,132	10,99
645,588	10,63
646,043	10,74
646,499	10,41
646,954	10,45
647,409	10,45
647,864	10,11
648,319	10,1
648,774	9,96
649,229	9,99
649,684	9,88
650,139	9,63
650,593	9,76
651,047	9,5
651,502	9,46
651,956	9,43
652,41	9,35
652,864	9,41
653,318	9,29
653,772	9,35
654,225	9,31
654,679	9,22
655,133	9,27
655,586	9,1
656,039	9,09
656,492	8,95
656,946	8,96
657,399	8,66
657,851	8,77
658,304	8,71
658,757	8,7
659,209	8,75
659,662	8,54
660,114	8,33
660,567	8,27
661,019	8,4
661,471	8,17
661,923	8,09
662,375	8,03
662,826	8,07
663,278	7,99
663,73	8
664,181	8,05
664,632	7,88
665,084	7,85
665,535	7,68
665,986	7,85
666,437	7,68
666,888	7,81
667,338	7,77
667,789	7,71
668,24	7,81
668,69	7,69
669,14	7,82
669,591	7,75
670,041	7,76
670,491	7,78
670,941	7,98
671,391	7,97
671,84	8,04
672,29	7,93
672,74	8,02
673,189	8,23
673,638	8,19
674,088	8,24
674,537	8,41
674,986	8,43
675,435	8,51
675,883	8,69
676,332	8,63
676,781	8,7
677,229	8,98
677,678	9,02
678,126	9,06
678,574	9,2
679,022	9,35
679,47	9,62
679,918	9,5
680,366	9,64
680,814	9,93
681,261	10,1
681,709	10,02
682,156	10,23
682,604	10,19
683,051	10,54
683,498	10,55
683,945	10,73
684,392	10,85
684,839	10,99
685,286	10,91
685,732	11,3
686,179	11,33
686,625	11,51
687,071	11,62
687,518	11,85
687,964	11,97
688,41	12,16
688,856	12,62
689,301	12,75
689,747	13,11
690,193	13,21
690,638	13,66
691,084	13,91
691,529	14,6
691,974	14,92
692,419	15,54
692,864	15,99
693,309	16,64
693,754	16,94
694,199	17,61
694,643	18,25
695,088	18,8
695,532	19,58
695,977	20
696,421	21,02
696,865	21,85
697,309	22,29
697,753	23,04
698,197	23,99
698,64	24,88
699,084	25,77
699,527	26,04
699,971	26,77
700,414	27,67
700,857	27,87
701,3	28,9
701,743	29,54
702,186	30,38
702,629	30,93
703,072	31,86
703,515	32,32
703,957	33,1
704,399	33,77
704,842	34,48
705,284	35,42
705,726	35,9
706,168	36,47
706,61	36,98
707,052	37,77
707,494	38,26
707,935	38,98
708,377	39,64
708,818	40,03
709,26	41,18
709,701	41,4
710,142	41,62
710,583	42,52
711,024	43,17
711,465	44,16
711,905	44,62
712,346	44,76
712,787	45,08
713,227	45,81
713,667	46,51
714,108	46,91
714,548	47,6
714,988	48,53
715,428	48,36
715,868	48,69
716,307	49,2
716,747	50,16
717,186	50,79
717,626	51,14
718,065	51,62
718,504	51,65
718,944	52,15
719,383	52,82
719,822	53,6
720,261	53,63
720,699	54,27
721,138	54,72
721,576	55,1
722,015	55,36
722,453	55,32
722,892	55,93
723,33	56,35
723,768	56,65
724,206	57,19
724,644	57,1
725,081	57,76
725,519	58,12
725,957	58,25
726,394	58,52
726,832	58,65
727,269	59,1
727,706	59,65
728,143	59,71
728,58	60,12
729,017	60,47
729,454	60,05
729,89	60,58
730,327	60,97
730,764	61,25
731,2	61,73
731,636	61,39
732,072	61,62
732,509	61,91
732,945	62,29
733,38	62,27
733,816	62,59
734,252	62,71
734,688	62,49
735,123	63,41
735,559	62,65
735,994	62,98
736,429	63,22
736,864	63
737,299	63,51
737,734	63,37
738,169	63,73
738,604	63,64
739,038	63,93
739,473	64,48
739,907	64,33
740,342	64,3
740,776	64,49
741,21	64,05
741,644	64,65
742,078	64,32
742,512	64,42
742,946	64,06
743,379	64,43
743,813	65,09
744,246	64,95
744,68	64,56
745,113	64,65
745,546	64,59
745,979	64,44
746,412	64,52
746,845	65,01
747,278	64,48
747,711	64,44
748,143	65,08
748,576	64,54
749,008	64,23
749,441	64,44
749,873	64,21
750,305	64,43
750,737	65,07
751,169	64,47
751,601	64,73
752,032	64,8
752,464	64,39
752,896	64,62
753,327	65,02
753,758	64,54
754,19	65,02
754,621	65,01
755,052	64,2
755,483	64,37
755,914	64,19
756,344	64,63
756,775	64,49
757,206	64,32
757,636	63,92
758,066	63,7
758,497	63,61
758,927	63,99
759,357	64,65
759,787	63,95
760,217	64,19
760,647	64,05
761,076	63,65
761,506	63,74
761,935	64,3
762,365	63,7
762,794	63,66
763,223	63,45
763,653	64,02
764,082	63,62
764,51	63,84
764,939	64,14
765,368	63,91
765,797	63,94
766,225	63,15
766,654	63,38
767,082	63,2
767,51	63,5
767,938	63,46
768,367	63,58
768,795	63,32
769,222	63,28
769,65	63,44
770,078	63,65
770,505	63,1
770,933	63,06
771,36	62,77
771,788	63,26
772,215	63,53
772,642	62,74
773,069	62,75
773,496	63,29
773,923	63,31
774,349	63,02
774,776	63,37
775,203	63,6
775,629	62,88
776,055	63,03
776,482	63,16
776,908	62,88
777,334	62,57
777,76	63,28
778,186	62,47
778,611	63,04
779,037	62,89
779,463	62,86
779,888	63,38
780,314	62,62
780,739	62,56
781,164	62,61
781,589	62,83
782,014	62,72
782,439	62,48
782,864	62,59
783,289	62,95
783,713	62,29
784,138	62,99
784,562	62,37
784,987	62,64
785,411	62,48
785,835	63,05
786,259	62,63
786,683	62,73
787,107	62,5
787,531	62,54
787,954	62,36
788,378	62,88
788,802	62,45
789,225	62,23
789,648	62,67
790,071	62,68
790,495	62,43
790,918	62,66
791,34	62,45
791,763	62,51
792,186	62,2
792,609	62,11
793,031	62,07
793,454	62,81
793,876	62,51
794,298	62,83
794,721	62,48
795,143	62,27
795,565	63,02
795,986	62,34
796,408	62,27
796,83	62,71
797,252	62,12
797,673	61,98
798,094	62,61
798,516	62,55
798,937	62,65
799,358	62,86
799,779	62,73
800,2	62,61
800,621	62,23
801,042	62,47
801,462	61,91
801,883	62,04
802,303	61,99
802,724	62,21
803,144	62,53
803,564	62,38
803,984	62,64
804,404	62,18
804,824	61,86
805,244	62,95
805,664	62,36
806,084	62,21
806,503	61,79
806,923	62,24
807,342	62,28
807,761	62,06
808,18	62,55
808,599	62,62
809,018	62,45
809,437	62,22
809,856	61,96
810,275	62,56
810,693	62,61
811,112	62,72
811,53	62,78
811,949	62,6
812,367	62,05
812,785	62,16
813,203	61,93
813,621	62,3
814,039	62,26
814,457	62,51
814,874	61,91
815,292	61,9
815,709	61,79
816,127	62,07
816,544	61,55
816,961	62,42
817,378	61,71
817,795	62,13
818,212	61,91
818,629	62,47
819,046	62,33
819,462	62,53
819,879	62,18
820,295	62,27
820,712	62,43
821,128	62,31
821,544	62,02
821,96	61,9
822,376	62,59
822,792	62,12
823,208	62,11
823,624	62,55
824,039	62,22
824,455	62,32
824,87	61,83
825,286	61,95
825,701	61,68
826,116	61,97
826,531	62,36
826,946	61,94
827,361	61,93
827,776	62,33
828,19	61,77
828,605	61,76
829,02	61,85
829,434	61,81
829,848	62,06
830,263	61,96
830,677	61,88
831,091	62,18
831,505	61,86
831,919	62,43
832,332	62,05
832,746	62,3
833,16	61,59
833,573	61,35
833,987	61,07
834,4	61,54
834,813	61,79
835,226	62,05
835,639	61,84
836,052	62,57
836,465	61,79
836,878	62,06
837,29	61,94
837,703	62,3
838,116	62,26
838,528	61,94
838,94	61,54
839,352	61,91
839,765	62,18
840,177	62,15
