Data from L_5_Relative__7__00205.txt Node

Date: Tue Jan 30 10:16:35 CET 2024
User: diatiterra
Spectrometer: HDX00911
Trigger mode: 0
Integration Time (sec): 6,000000E-3
Scans to average: 2
Nonlinearity correction enabled: false
Boxcar width: 0
Storing dark spectrum: false
XAxis mode: Wavelengths
Number of Pixels in Spectrum: 2068
>>>>>Begin Spectral Data<<<<<
194,468	100,55
195,025	106,45
195,581	96,97
196,138	94,27
196,694	97,51
197,251	91,63
197,807	82,08
198,363	78,69
198,919	88,51
199,474	88,14
200,03	83,07
200,586	83,26
201,141	96,64
201,696	79,83
202,251	89,55
202,806	83,4
203,361	85,77
203,916	84,65
204,471	87,13
205,025	83,68
205,58	91,24
206,134	86,85
206,688	92,7
207,242	89,64
207,796	90,25
208,35	89,04
208,904	83,06
209,457	90,31
210,011	90,39
210,564	83,33
211,117	87,23
211,67	83,81
212,223	82,07
212,776	88,56
213,329	91,14
213,881	90,91
214,434	84,02
214,986	92,41
215,538	87,4
216,09	85,54
216,642	84,3
217,194	99,52
217,746	86,06
218,297	87,39
218,849	80,23
219,4	83,55
219,951	96,46
220,502	82,88
221,053	82,2
221,604	90,16
222,155	91,53
222,705	88,09
223,256	83,52
223,806	87,92
224,356	95,1
224,906	93,39
225,456	81,93
226,006	83,93
226,556	87,17
227,106	90,04
227,655	86,98
228,204	99,55
228,754	91,14
229,303	95,95
229,852	95,2
230,401	84,3
230,949	76,6
231,498	90,18
232,047	73,77
232,595	89,96
233,143	92,11
233,691	80,21
234,239	81,3
234,787	93,27
235,335	89,61
235,883	92,34
236,43	88,56
236,978	88,26
237,525	88,51
238,072	85,02
238,619	80,72
239,166	84,48
239,713	85,23
240,26	84,68
240,806	80,17
241,353	92,31
241,899	88,07
242,445	82,43
242,991	88,52
243,537	86,58
244,083	79,19
244,629	78,85
245,174	82,98
245,72	79,92
246,265	96,38
246,81	83,11
247,355	89,05
247,9	84,17
248,445	79,76
248,99	77,45
249,534	78,49
250,079	93,98
250,623	93,36
251,168	87,76
251,712	70,31
252,256	80,99
252,8	93,81
253,343	89,88
253,887	90,04
254,43	80
254,974	79,2
255,517	90,38
256,06	81,01
256,603	88,48
257,146	80
257,689	88,98
258,232	94,12
258,774	76,65
259,317	88,36
259,859	85,24
260,401	89,72
260,943	80,91
261,485	86,82
262,027	86,38
262,569	93,52
263,11	84,51
263,652	80,97
264,193	84,65
264,734	93,06
265,275	90,13
265,816	81,2
266,357	85,89
266,898	88,89
267,438	85,96
267,979	92,67
268,519	94,23
269,059	70,36
269,6	80,97
270,14	79,74
270,68	82,79
271,219	94,78
271,759	80,79
272,298	88,4
272,838	86,85
273,377	88,74
273,916	77,43
274,455	81,54
274,994	84,33
275,533	78,33
276,072	90,64
276,61	84,21
277,149	91,25
277,687	87,71
278,225	78,19
278,763	74,43
279,301	80,41
279,839	91,8
280,377	69,8
280,914	82,87
281,452	82,93
281,989	84,71
282,526	76,67
283,064	76,25
283,601	86,67
284,137	76,89
284,674	86,19
285,211	88,65
285,747	89,76
286,284	84,05
286,82	79,84
287,356	76
287,892	75,72
288,428	81,12
288,964	82,99
289,5	80,93
290,035	78,84
290,571	80,54
291,106	78,28
291,641	77,29
292,176	81,6
292,711	84,05
293,246	73,18
293,781	81,3
294,315	80,93
294,85	84,06
295,384	85,38
295,918	82
296,453	82,59
296,987	78,39
297,52	80,09
298,054	78,28
298,588	79,2
299,121	79,73
299,655	83,49
300,188	78,81
300,721	80,8
301,254	81,61
301,787	82,89
302,32	76,07
302,853	90,64
303,385	77,65
303,918	73,78
304,45	92,14
304,982	78
305,514	80,89
306,046	86,28
306,578	80,5
307,11	83,71
307,641	81,93
308,173	90,87
308,704	86,99
309,236	85,22
309,767	76,25
310,298	85,6
310,829	82,17
311,359	93,81
311,89	85,77
312,421	75,92
312,951	82,85
313,481	85,78
314,012	78,68
314,542	83,33
315,072	77,25
315,601	79,44
316,131	81,97
316,661	85,71
317,19	76,33
317,72	80,08
318,249	79,36
318,778	82,3
319,307	76,61
319,836	83,6
320,365	84,68
320,893	87,01
321,422	87
321,95	87,83
322,479	78,31
323,007	76,1
323,535	76,98
324,063	76,65
324,591	85,82
325,118	84,85
325,646	85,34
326,173	76,34
326,701	78,88
327,228	78,78
327,755	78,57
328,282	90,45
328,809	74,56
329,336	86,81
329,862	82,85
330,389	78,85
330,915	72,48
331,441	88,19
331,968	72,91
332,494	88,89
333,02	83,68
333,545	76,92
334,071	84,87
334,597	86,78
335,122	80,63
335,648	87,6
336,173	80,51
336,698	81,55
337,223	80,28
337,748	81,96
338,272	86,7
338,797	89,64
339,322	82,48
339,846	81,53
340,37	93,45
340,894	79,75
341,419	77,42
341,942	74,03
342,466	82,3
342,99	79,85
343,514	78,54
344,037	75,19
344,56	81,67
345,084	80,08
345,607	70,94
346,13	72,58
346,653	65,68
347,175	79,24
347,698	74,73
348,221	79,35
348,743	85,66
349,265	77,55
349,787	77,35
350,309	77,37
350,831	66,9
351,353	71,84
351,875	75,09
352,397	69,83
352,918	78,49
353,439	78,49
353,961	69,58
354,482	76,17
355,003	70,98
355,524	69,59
356,044	71,27
356,565	71,18
357,086	72,73
357,606	68,33
358,126	73,24
358,646	64,14
359,167	67,44
359,687	70,3
360,206	71,88
360,726	64,67
361,246	69,35
361,765	66,34
362,285	70,81
362,804	63,11
363,323	65,47
363,842	66,67
364,361	66,25
364,88	61,26
365,398	62,24
365,917	60,06
366,435	62,26
366,954	63,83
367,472	63,96
367,99	69,97
368,508	66,36
369,026	65,44
369,544	64,06
370,061	59,52
370,579	63,54
371,096	61,52
371,613	53,62
372,131	60,31
372,648	65,23
373,165	59,89
373,681	59,95
374,198	61,77
374,715	54,9
375,231	61,73
375,747	56,54
376,264	51,94
376,78	60,43
377,296	53,57
377,812	54,11
378,327	58,45
378,843	54,68
379,359	55,73
379,874	49,27
380,389	49,77
380,905	54,14
381,42	52,45
381,935	61,42
382,449	49,41
382,964	49,15
383,479	51,36
383,993	52
384,508	48,27
385,022	47,27
385,536	47,03
386,05	46,75
386,564	49,65
387,078	50,96
387,592	46,23
388,105	44,37
388,619	43,46
389,132	45,09
389,645	43,63
390,158	46,61
390,671	44,35
391,184	41,27
391,697	43,95
392,21	42,76
392,722	41,37
393,235	40,66
393,747	40,45
394,259	40
394,771	41,8
395,283	39,79
395,795	41,07
396,307	41,59
396,818	38,72
397,33	40,65
397,841	35,64
398,353	36,26
398,864	34,81
399,375	34,25
399,886	35,28
400,397	34,52
400,907	32
401,418	34,33
401,928	33,5
402,439	32,85
402,949	28,22
403,459	30,78
403,969	30,69
404,479	30,05
404,989	29,35
405,498	25,77
406,008	28,93
406,517	27,54
407,027	24,82
407,536	26,55
408,045	24,2
408,554	22,6
409,063	21,91
409,572	24,37
410,08	20,26
410,589	19,75
411,097	19,01
411,606	19,67
412,114	17,51
412,622	16,98
413,13	17,92
413,638	16,14
414,145	16,82
414,653	14,84
415,16	15,82
415,668	15,72
416,175	14,59
416,682	15,34
417,189	14,3
417,696	14,34
418,203	14,04
418,71	13,01
419,216	13,16
419,723	12,72
420,229	12,84
420,735	12,33
421,242	12,77
421,748	12,76
422,254	13,48
422,759	11,94
423,265	11,54
423,771	12,05
424,276	10,82
424,781	10,73
425,287	10,82
425,792	11,19
426,297	11,14
426,802	11,33
427,306	11,69
427,811	11,43
428,316	11,24
428,82	11,22
429,324	10,69
429,829	11,24
430,333	10,66
430,837	11,29
431,34	9,9
431,844	9,79
432,348	10,88
432,851	10,42
433,355	9,64
433,858	10,69
434,361	10,06
434,864	10,56
435,367	10,66
435,87	9,65
436,373	9,57
436,876	10,66
437,378	9,8
437,88	9,33
438,383	9,81
438,885	9,7
439,387	9,56
439,889	9,41
440,391	9,09
440,892	10,16
441,394	9,71
441,896	9,72
442,397	9,52
442,898	9,61
443,399	9,64
443,9	9,54
444,401	9,93
444,902	9,02
445,403	9,46
445,903	10,21
446,404	9,96
446,904	9,68
447,405	9,88
447,905	9,02
448,405	9,86
448,905	9,39
449,404	9,36
449,904	9,23
450,404	9,52
450,903	9,7
451,403	9,16
451,902	9,46
452,401	9,01
452,9	9,19
453,399	9,66
453,898	9,08
454,396	9,38
454,895	9,56
455,393	10,21
455,892	9,66
456,39	9,25
456,888	9,88
457,386	9,52
457,884	9,25
458,382	9,29
458,879	9,94
459,377	8,85
459,874	9,23
460,372	9,71
460,869	9,35
461,366	9,43
461,863	9
462,36	9,19
462,857	9,47
463,353	9,18
463,85	9,28
464,346	9,36
464,843	9,31
465,339	8,86
465,835	9,59
466,331	8,97
466,827	8,78
467,323	8,9
467,818	9,19
468,314	9,05
468,809	9,32
469,305	9,04
469,8	9,29
470,295	9,04
470,79	9,24
471,285	9,15
471,78	8,55
472,274	9,16
472,769	8,66
473,263	9,18
473,758	9,1
474,252	8,79
474,746	8,67
475,24	9,09
475,734	8,9
476,228	8,89
476,721	9,29
477,215	9,23
477,708	8,98
478,202	8,62
478,695	8,79
479,188	9,56
479,681	9,5
480,174	9,11
480,667	8,72
481,159	9,12
481,652	9,16
482,144	9,04
482,637	8,75
483,129	8,75
483,621	8,76
484,113	8,89
484,605	9,22
485,097	8,97
485,588	9,31
486,08	8,79
486,571	9,08
487,063	9,3
487,554	9,12
488,045	9,26
488,536	9,02
489,027	9,37
489,518	9,49
490,008	9,49
490,499	9,52
490,989	9,37
491,48	9,31
491,97	9,67
492,46	9,19
492,95	9,35
493,44	9,63
493,93	9,64
494,419	9,34
494,909	9,3
495,398	9,54
495,888	10,02
496,377	9,66
496,866	9,95
497,355	9,72
497,844	10,09
498,333	10,48
498,821	10,13
499,31	10,19
499,798	10,6
500,287	10,91
500,775	11,13
501,263	10,83
501,751	10,76
502,239	11,41
502,727	11,22
503,215	11,65
503,702	11,8
504,19	11,94
504,677	12,03
505,164	11,95
505,651	12,04
506,139	12,53
506,625	12,75
507,112	13,18
507,599	13,19
508,086	13,78
508,572	14,05
509,058	14,07
509,545	14,7
510,031	15,02
510,517	14,86
511,003	14,79
511,489	15,42
511,974	15,87
512,46	16,65
512,946	16,75
513,431	16,73
513,916	17,42
514,401	17,65
514,887	17,89
515,371	18,83
515,856	18,55
516,341	18,63
516,826	19,06
517,31	20,13
517,795	19,97
518,279	20,45
518,763	21,14
519,247	21,8
519,731	22,09
520,215	21,97
520,699	22,82
521,182	23,44
521,666	23,64
522,149	24,36
522,633	24,59
523,116	25,2
523,599	25,85
524,082	25,69
524,565	26,18
525,048	26,72
525,53	27,5
526,013	27,51
526,495	27,75
526,978	27,99
527,46	28,08
527,942	29,42
528,424	29,07
528,906	29,29
529,388	29,7
529,87	30,32
530,351	29,9
530,833	30,69
531,314	31,15
531,795	31,6
532,277	31,78
532,758	31,35
533,238	32,06
533,719	31,78
534,2	32,15
534,681	32,15
535,161	33,18
535,642	32,5
536,122	32,96
536,602	32,97
537,082	32,54
537,562	32,71
538,042	33,47
538,522	33,04
539,001	33,49
539,481	32,93
539,96	33
540,44	33,48
540,919	33,8
541,398	33,49
541,877	33,39
542,356	33,61
542,835	33,67
543,313	33,53
543,792	33,47
544,27	34,23
544,749	34,26
545,227	34,11
545,705	33,76
546,183	34,55
546,661	34,65
547,139	34,2
547,616	34,7
548,094	35,25
548,571	34,97
549,049	34,89
549,526	34,85
550,003	34,67
550,48	34,97
550,957	34,73
551,434	34,63
551,911	34,58
552,387	34,72
552,864	34,85
553,34	35,52
553,817	35,26
554,293	35,29
554,769	35,12
555,245	34,96
555,721	35,53
556,197	35,18
556,672	34,96
557,148	34,43
557,623	34,58
558,099	34,49
558,574	34,64
559,049	34,16
559,524	34,35
559,999	34,18
560,474	34,68
560,948	34
561,423	33,6
561,897	33,61
562,372	34,22
562,846	33,85
563,32	33,93
563,794	33,45
564,268	32,71
564,742	33,6
565,216	32,6
565,69	32,68
566,163	32,49
566,636	32,11
567,11	32
567,583	32,13
568,056	30,98
568,529	30,88
569,002	30,94
569,475	30,71
569,947	30,46
570,42	30,28
570,892	30,11
571,365	30,01
571,837	30,02
572,309	29,45
572,781	29,58
573,253	29,2
573,725	28,82
574,197	28,6
574,668	28,24
575,14	28,21
575,611	27,74
576,082	26,77
576,554	27,45
577,025	26,97
577,496	26,98
577,967	26,84
578,437	26,99
578,908	26,6
579,379	25,7
579,849	25,71
580,319	25,99
580,79	25,55
581,26	25,24
581,73	25,18
582,2	25,36
582,669	24,93
583,139	24,97
583,609	24,89
584,078	24,61
584,548	24,34
585,017	24,63
585,486	23,95
585,955	24,16
586,424	23,56
586,893	23,76
587,362	23,81
587,83	23,34
588,299	23,52
588,767	23,47
589,236	23,33
589,704	23,25
590,172	23,07
590,64	22,82
591,108	22,6
591,576	22,65
592,043	22,84
592,511	22,65
592,978	22,87
593,446	22,44
593,913	22,26
594,38	22,59
594,847	22,35
595,314	22,16
595,781	22,2
596,248	21,76
596,715	21,92
597,181	22,11
597,647	22,2
598,114	22,05
598,58	21,68
599,046	22,28
599,512	21,76
599,978	21,68
600,444	21,55
600,91	21,36
601,375	21,72
601,841	21,44
602,306	21,66
602,771	21,53
603,236	20,98
603,702	21,08
604,167	21,09
604,631	20,84
605,096	20,83
605,561	20,75
606,025	20,61
606,49	20,75
606,954	20,26
607,418	20,78
607,882	20,17
608,347	20,05
608,81	19,94
609,274	19,64
609,738	19,63
610,202	19,61
610,665	19,46
611,128	19,19
611,592	19,25
612,055	18,9
612,518	19,08
612,981	18,87
613,444	18,76
613,907	18,44
614,369	18,15
614,832	18,27
615,294	18,23
615,757	18,08
616,219	17,88
616,681	17,79
617,143	17,62
617,605	17,27
618,067	17,18
618,529	17,31
618,99	17,15
619,452	16,91
619,913	16,87
620,375	17,06
620,836	16,91
621,297	16,89
621,758	16,8
622,219	16,54
622,68	16,7
623,14	16,55
623,601	16,43
624,061	16,45
624,522	16,33
624,982	16,37
625,442	16,4
625,902	16,08
626,362	16,09
626,822	15,98
627,282	16,43
627,742	16,37
628,201	15,87
628,661	16,16
629,12	16,13
629,579	16
630,038	15,88
630,497	15,9
630,956	16,01
631,415	15,87
631,874	15,71
632,332	15,86
632,791	15,91
633,249	15,64
633,708	15,63
634,166	15,4
634,624	15,41
635,082	15,26
635,54	15,2
635,998	15,22
636,455	15,07
636,913	15,07
637,37	15,08
637,828	14,86
638,285	14,59
638,742	14,62
639,199	14,05
639,656	14,33
640,113	13,85
640,57	14,05
641,027	13,87
641,483	13,85
641,94	13,55
642,396	13,39
642,852	13,29
643,309	12,95
643,765	12,98
644,221	12,76
644,676	12,45
645,132	12,66
645,588	12,35
646,043	12,05
646,499	12,13
646,954	11,93
647,409	11,88
647,864	11,4
648,319	11,53
648,774	11,18
649,229	11,44
649,684	11,32
650,139	11,09
650,593	10,94
651,047	10,66
651,502	10,95
651,956	10,66
652,41	10,56
652,864	10,71
653,318	10,53
653,772	10,39
654,225	10,56
654,679	10,42
655,133	10,37
655,586	10,32
656,039	10,19
656,492	10,05
656,946	10,07
657,399	9,72
657,851	9,7
658,304	9,68
658,757	9,63
659,209	9,65
659,662	9,48
660,114	9,6
660,567	9,17
661,019	9,07
661,471	8,95
661,923	9,04
662,375	9,01
662,826	8,6
663,278	8,76
663,73	8,68
664,181	8,75
664,632	8,64
665,084	8,58
665,535	8,39
665,986	8,58
666,437	8,33
666,888	8,37
667,338	8,33
667,789	8,38
668,24	8,38
668,69	8,34
669,14	8,26
669,591	8,3
670,041	8,24
670,491	8,42
670,941	8,44
671,391	8,39
671,84	8,39
672,29	8,54
672,74	8,41
673,189	8,55
673,638	8,72
674,088	8,81
674,537	8,85
674,986	8,76
675,435	9,01
675,883	9,18
676,332	9,07
676,781	9,3
677,229	9,41
677,678	9,46
678,126	9,64
678,574	9,67
679,022	9,77
679,47	10,05
679,918	10,07
680,366	10,22
680,814	10,18
681,261	10,42
681,709	10,55
682,156	10,51
682,604	10,77
683,051	10,89
683,498	11,04
683,945	11,1
684,392	11,25
684,839	11,41
685,286	11,48
685,732	11,83
686,179	11,84
686,625	12,1
687,071	12,3
687,518	12,53
687,964	12,75
688,41	13,09
688,856	13,42
689,301	13,75
689,747	14,06
690,193	14,6
690,638	15,13
691,084	15,47
691,529	16,08
691,974	16,82
692,419	17,2
692,864	17,56
693,309	18,57
693,754	19,28
694,199	19,68
694,643	20,65
695,088	21,11
695,532	21,88
695,977	22,89
696,421	23,38
696,865	24,47
697,309	25,05
697,753	26,18
698,197	26,6
698,64	27,53
699,084	28,39
699,527	29,31
699,971	29,9
700,414	30,92
700,857	31,27
701,3	32,45
701,743	32,92
702,186	33,79
702,629	34,58
703,072	35,61
703,515	36,23
703,957	36,73
704,399	37,48
704,842	37,99
705,284	39,1
705,726	39,44
706,168	40,49
706,61	40,85
707,052	41,64
707,494	42,43
707,935	42,72
708,377	43,52
708,818	43,9
709,26	44,63
709,701	45,26
710,142	45,68
710,583	46,55
711,024	47,39
711,465	47,65
711,905	48,24
712,346	48,4
712,787	49,15
713,227	49,77
713,667	50,18
714,108	50,78
714,548	51,42
714,988	51,88
715,428	52,09
715,868	52,85
716,307	53,37
716,747	53,79
717,186	54,3
717,626	54,68
718,065	54,84
718,504	55,73
718,944	55,77
719,383	56,17
719,822	56,93
720,261	57,29
720,699	57,06
721,138	58,14
721,576	57,92
722,015	58,41
722,453	58,72
722,892	59,46
723,33	59,3
723,768	59,84
724,206	60,09
724,644	60,1
725,081	60,6
725,519	61,11
725,957	61,09
726,394	61,52
726,832	61,7
727,269	62,01
727,706	62,32
728,143	62,45
728,58	63,15
729,017	63,37
729,454	63,14
729,89	63,25
730,327	63,87
730,764	63,65
731,2	63,94
731,636	64,21
732,072	63,89
732,509	64,48
732,945	64,6
733,38	65,29
733,816	64,99
734,252	64,96
734,688	64,91
735,123	65,33
735,559	65
735,994	65,16
736,429	65,5
736,864	65,95
737,299	65,2
737,734	65,75
738,169	66,09
738,604	65,83
739,038	65,97
739,473	66,52
739,907	66,1
740,342	66,7
740,776	66,39
741,21	65,97
741,644	66,43
742,078	66,37
742,512	66,64
742,946	66,5
743,379	66,7
743,813	66,76
744,246	66,72
744,68	66,85
745,113	66,66
745,546	66,46
745,979	66,63
746,412	66,55
746,845	66,35
747,278	66,48
747,711	66,39
748,143	66,42
748,576	66,8
749,008	65,84
749,441	66,86
749,873	66,69
750,305	66,05
750,737	66,36
751,169	66,32
751,601	66,38
752,032	66,28
752,464	66,23
752,896	66,21
753,327	66,64
753,758	67,01
754,19	66,36
754,621	66,36
755,052	66,02
755,483	65,93
755,914	65,7
756,344	65,87
756,775	66,02
757,206	65,98
757,636	65,68
758,066	65,37
758,497	66,1
758,927	65,95
759,357	66,19
759,787	65,98
760,217	65,84
760,647	65,52
761,076	65,41
761,506	65,25
761,935	65,78
762,365	65,17
762,794	65,53
763,223	65,02
763,653	65,45
764,082	65,39
764,51	65,51
764,939	65,64
765,368	65,47
765,797	65,48
766,225	65,29
766,654	64,93
767,082	65,38
767,51	65
767,938	64,73
768,367	65,23
768,795	65,13
769,222	64,75
769,65	65,02
770,078	64,94
770,505	64,84
770,933	65,15
771,36	64,62
771,788	64,67
772,215	65,43
772,642	64,06
773,069	64,59
773,496	65,01
773,923	65,22
774,349	64,55
774,776	64,5
775,203	65,04
775,629	64,82
776,055	64,87
776,482	64,62
776,908	64,91
777,334	64,31
777,76	64,37
778,186	64,18
778,611	64,79
779,037	64,42
779,463	64,45
779,888	64,46
780,314	64,34
780,739	64,08
781,164	64,06
781,589	64,14
782,014	63,8
782,439	64,04
782,864	64,15
783,289	64,36
783,713	63,82
784,138	64,52
784,562	64,06
784,987	64,02
785,411	63,78
785,835	63,87
786,259	64,05
786,683	63,78
787,107	63,92
787,531	63,75
787,954	64,42
788,378	64,14
788,802	64,08
789,225	63,8
789,648	64,16
790,071	63,86
790,495	63,76
790,918	64,36
791,34	63,88
791,763	63,62
792,186	63,85
792,609	63,53
793,031	63,84
793,454	63,86
793,876	63,91
794,298	64,2
794,721	63,92
795,143	63,67
795,565	64,05
795,986	63,41
796,408	63,67
796,83	63,76
797,252	63,81
797,673	63,55
798,094	64,03
798,516	63,95
798,937	64,16
799,358	63,56
799,779	64
800,2	63,71
800,621	63,25
801,042	63,85
801,462	63,7
801,883	63,59
802,303	63,8
802,724	63,47
803,144	63,82
803,564	63,58
803,984	63,94
804,404	63,9
804,824	63,45
805,244	64,19
805,664	63,41
806,084	63,42
806,503	63,43
806,923	63,25
807,342	63,9
807,761	63,86
808,18	64,13
808,599	64,06
809,018	63,64
809,437	63,52
809,856	63,63
810,275	63,72
810,693	63,59
811,112	64,31
811,53	63,82
811,949	63,92
812,367	63,87
812,785	63,34
813,203	63,36
813,621	64,12
814,039	63,61
814,457	63,66
814,874	63,44
815,292	63,15
815,709	63,68
816,127	63,39
816,544	62,74
816,961	63,71
817,378	63,33
817,795	62,92
818,212	63,51
818,629	63,57
819,046	63,45
819,462	63,79
819,879	63,2
820,295	63,44
820,712	63,53
821,128	63,58
821,544	63,42
821,96	63,53
822,376	63,69
822,792	63,42
823,208	63,67
823,624	63,48
824,039	63,45
824,455	63,86
824,87	63,36
825,286	63,37
825,701	63,76
826,116	63,48
826,531	63,59
826,946	62,87
827,361	63,26
827,776	63,4
828,19	63,81
828,605	62,87
829,02	63,39
829,434	63,13
829,848	63,54
830,263	63,21
830,677	63,37
831,091	63,32
831,505	62,98
831,919	63,51
832,332	63,17
832,746	63,5
833,16	63,02
833,573	63,14
833,987	62,97
834,4	62,95
834,813	63,04
835,226	62,92
835,639	62,59
836,052	63,64
836,465	63,15
836,878	63,22
837,29	63,43
837,703	63,27
838,116	63,41
838,528	63,54
838,94	62,7
