Data from D3__Relative__3__12-26-45-790.txt Node

Date: Fri Feb 02 12:26:45 CET 2024
User: diatiterra
Spectrometer: HDX00911
Trigger mode: 0
Integration Time (sec): 6,000000E-3
Scans to average: 2
Nonlinearity correction enabled: false
Boxcar width: 0
Storing dark spectrum: false
XAxis mode: Wavelengths
Number of Pixels in Spectrum: 2068
>>>>>Begin Spectral Data<<<<<
194,468	125,76
195,025	104,13
195,581	88,71
196,138	112,17
196,694	87,34
197,251	87,1
197,807	83,92
198,363	78,03
198,919	74,24
199,474	79
200,03	77,3
200,586	78,72
201,141	76,73
201,696	72,5
202,251	73,46
202,806	75,78
203,361	80,71
203,916	72,61
204,471	73,55
205,025	79,81
205,58	72,24
206,134	76
206,688	69,55
207,242	75,87
207,796	67,35
208,35	72,89
208,904	70,96
209,457	74,34
210,011	71,95
210,564	72,92
211,117	66,97
211,67	75,91
212,223	75,77
212,776	71,3
213,329	68,73
213,881	78,62
214,434	70,82
214,986	76,34
215,538	68,58
216,09	72,7
216,642	76,39
217,194	75,68
217,746	71,26
218,297	79,94
218,849	68,88
219,4	66,67
219,951	78,85
220,502	71,34
221,053	77,07
221,604	77,08
222,155	76,27
222,705	71,48
223,256	70,62
223,806	80,13
224,356	85,95
224,906	77,35
225,456	78,34
226,006	67,71
226,556	69,14
227,106	71,34
227,655	75,98
228,204	78,19
228,754	73,29
229,303	73,44
229,852	73,07
230,401	77,3
230,949	82,8
231,498	75,38
232,047	74,52
232,595	78,98
233,143	77,64
233,691	84,18
234,239	77,08
234,787	79,87
235,335	83,81
235,883	73,44
236,43	75,79
236,978	72,78
237,525	74,83
238,072	72,45
238,619	76,3
239,166	82,61
239,713	71,17
240,26	78,6
240,806	85,42
241,353	85,28
241,899	82,52
242,445	79,17
242,991	74,6
243,537	76,56
244,083	77,88
244,629	86,51
245,174	85,23
245,72	83,28
246,265	74,7
246,81	79,34
247,355	80,21
247,9	74,13
248,445	77,39
248,99	76,87
249,534	85,02
250,079	74,12
250,623	79,67
251,168	78,96
251,712	79,63
252,256	79,75
252,8	80
253,343	77,52
253,887	73,57
254,43	68,71
254,974	76,74
255,517	83,8
256,06	74,92
256,603	67,87
257,146	72,1
257,689	79,11
258,232	76,27
258,774	73,93
259,317	75,8
259,859	83,62
260,401	73,97
260,943	71,66
261,485	65,33
262,027	73,97
262,569	73,46
263,11	72,19
263,652	69,14
264,193	85,99
264,734	73,44
265,275	66,87
265,816	70,92
266,357	78,4
266,898	79,67
267,438	80,33
267,979	69,85
268,519	70,81
269,059	70,95
269,6	71,3
270,14	79,19
270,68	74,28
271,219	83,23
271,759	75,73
272,298	85,81
272,838	66,17
273,377	73,25
273,916	71,57
274,455	74,92
274,994	74,29
275,533	78,4
276,072	73,77
276,61	76,34
277,149	74,84
277,687	73,83
278,225	69,21
278,763	79,26
279,301	77,85
279,839	73,44
280,377	79,07
280,914	80,07
281,452	74,6
281,989	83,79
282,526	73,6
283,064	74,36
283,601	73,46
284,137	81,49
284,674	81,66
285,211	75,32
285,747	72,05
286,284	69,28
286,82	83,61
287,356	72,15
287,892	83,53
288,428	71,99
288,964	76,32
289,5	77,81
290,035	73,7
290,571	75,49
291,106	68,47
291,641	76,25
292,176	77,48
292,711	69,13
293,246	80,14
293,781	74,35
294,315	72,79
294,85	74,59
295,384	66,24
295,918	79,52
296,453	71,28
296,987	72,33
297,52	72,09
298,054	77,19
298,588	77,39
299,121	72,67
299,655	74,73
300,188	75,7
300,721	81,88
301,254	69,23
301,787	79,08
302,32	67,66
302,853	81,05
303,385	72,61
303,918	66,89
304,45	74,35
304,982	71,05
305,514	72,79
306,046	68,75
306,578	72,37
307,11	76,36
307,641	68,9
308,173	63,67
308,704	64,78
309,236	70,2
309,767	71,33
310,298	74,83
310,829	70,27
311,359	73,31
311,89	75,24
312,421	79,93
312,951	75,65
313,481	69,23
314,012	81,36
314,542	79,43
315,072	71,79
315,601	74,48
316,131	76,21
316,661	73,36
317,19	73,25
317,72	75,24
318,249	81,29
318,778	72,9
319,307	71,52
319,836	76,83
320,365	86,24
320,893	80,41
321,422	69,67
321,95	67,32
322,479	78,11
323,007	73,03
323,535	80,76
324,063	71,57
324,591	73,15
325,118	74,75
325,646	79,37
326,173	76,53
326,701	79,33
327,228	67
327,755	65,4
328,282	65,89
328,809	74,18
329,336	70,28
329,862	77,44
330,389	67,52
330,915	72,49
331,441	70,29
331,968	70,78
332,494	63,66
333,02	70,21
333,545	66,97
334,071	71,96
334,597	75,25
335,122	64,2
335,648	76,53
336,173	74,43
336,698	70,7
337,223	66,25
337,748	67,75
338,272	67,38
338,797	64,67
339,322	68,77
339,846	64,62
340,37	62,31
340,894	65,19
341,419	61,03
341,942	64,82
342,466	59,31
342,99	62,5
343,514	60,79
344,037	59,76
344,56	65,19
345,084	61,92
345,607	59,88
346,13	61,23
346,653	57,3
347,175	56,72
347,698	55,53
348,221	53,81
348,743	54,33
349,265	54,91
349,787	54,62
350,309	54,86
350,831	51,74
351,353	55,95
351,875	56,44
352,397	55,41
352,918	55,61
353,439	50,61
353,961	52,44
354,482	55,04
355,003	53,96
355,524	54,1
356,044	51,91
356,565	53,14
357,086	48,31
357,606	49,88
358,126	48,9
358,646	50,35
359,167	44,05
359,687	46,64
360,206	48,75
360,726	48,21
361,246	43,86
361,765	42,59
362,285	43,06
362,804	50,32
363,323	44,51
363,842	47,34
364,361	39,92
364,88	38,55
365,398	45,13
365,917	45,21
366,435	42,25
366,954	39,34
367,472	39,46
367,99	41,44
368,508	42,93
369,026	42,59
369,544	38,33
370,061	37,14
370,579	40,41
371,096	37,98
371,613	36,41
372,131	40,66
372,648	39,8
373,165	40,58
373,681	38,36
374,198	42,37
374,715	40,72
375,231	35,37
375,747	36,51
376,264	32,33
376,78	35,78
377,296	34,42
377,812	36,74
378,327	36,47
378,843	34,35
379,359	34,73
379,874	37,3
380,389	31,55
380,905	32,2
381,42	31,82
381,935	31,3
382,449	33,45
382,964	31,7
383,479	31,23
383,993	27,85
384,508	28,36
385,022	29,05
385,536	29,07
386,05	26,56
386,564	26,09
387,078	28,91
387,592	26,2
388,105	27,54
388,619	24,14
389,132	26,07
389,645	26,34
390,158	22,04
390,671	22,32
391,184	23,54
391,697	22,76
392,21	22,61
392,722	22,66
393,235	21,03
393,747	22,44
394,259	22,54
394,771	21,42
395,283	21,27
395,795	23,43
396,307	20,54
396,818	20,39
397,33	20,91
397,841	19,64
398,353	19,84
398,864	19,13
399,375	17,5
399,886	17,45
400,397	17,28
400,907	16,09
401,418	16,76
401,928	16,53
402,439	15,69
402,949	16,03
403,459	15,78
403,969	14,64
404,479	15,9
404,989	14,16
405,498	14,76
406,008	13,08
406,517	14,12
407,027	13,91
407,536	12,02
408,045	12,79
408,554	12,48
409,063	12,1
409,572	11,3
410,08	11,15
410,589	10,61
411,097	10,91
411,606	9,02
412,114	9,9
412,622	9,31
413,13	9,51
413,638	8,27
414,145	8,76
414,653	8,41
415,16	8,37
415,668	8,39
416,175	7,36
416,682	7,78
417,189	6,98
417,696	6,87
418,203	7,42
418,71	6,94
419,216	7,51
419,723	7,27
420,229	5,99
420,735	6,85
421,242	6,48
421,748	6,27
422,254	6,48
422,759	5,96
423,265	5,81
423,771	6,21
424,276	5,91
424,781	6,07
425,287	5,95
425,792	5,64
426,297	5,86
426,802	5,5
427,306	5,48
427,811	5,79
428,316	5,59
428,82	5,61
429,324	5,5
429,829	5,68
430,333	5,56
430,837	5,2
431,34	5,23
431,844	5,32
432,348	5,11
432,851	5,43
433,355	5,22
433,858	5,26
434,361	5,45
434,864	5,27
435,367	4,92
435,87	4,84
436,373	5,2
436,876	5,09
437,378	5,25
437,88	4,93
438,383	5,05
438,885	4,77
439,387	4,99
439,889	4,97
440,391	4,63
440,892	4,9
441,394	4,96
441,896	4,62
442,397	5
442,898	4,7
443,399	4,71
443,9	5,01
444,401	4,85
444,902	4,82
445,403	4,82
445,903	4,79
446,404	4,77
446,904	4,95
447,405	4,64
447,905	4,62
448,405	4,77
448,905	4,71
449,404	4,85
449,904	4,81
450,404	4,45
450,903	4,72
451,403	4,63
451,902	4,74
452,401	4,69
452,9	4,61
453,399	4,52
453,898	4,7
454,396	4,72
454,895	4,53
455,393	4,99
455,892	4,59
456,39	4,63
456,888	4,34
457,386	4,45
457,884	4,87
458,382	4,72
458,879	4,69
459,377	4,66
459,874	4,52
460,372	4,99
460,869	4,59
461,366	4,58
461,863	4,55
462,36	4,76
462,857	4,7
463,353	4,78
463,85	4,46
464,346	4,53
464,843	4,45
465,339	4,76
465,835	4,48
466,331	4,46
466,827	4,36
467,323	4,3
467,818	4,67
468,314	4,7
468,809	4,46
469,305	4,58
469,8	4,55
470,295	4,53
470,79	4,7
471,285	4,31
471,78	4,55
472,274	4,61
472,769	4,45
473,263	4,71
473,758	4,43
474,252	4,42
474,746	4,28
475,24	4,36
475,734	4,44
476,228	4,56
476,721	4,54
477,215	4,33
477,708	4,42
478,202	4,49
478,695	4,49
479,188	4,33
479,681	4,41
480,174	4,55
480,667	4,24
481,159	4,58
481,652	4,36
482,144	4,39
482,637	4,51
483,129	4,7
483,621	4,43
484,113	4,51
484,605	4,26
485,097	4,35
485,588	4,16
486,08	4,34
486,571	4,56
487,063	4,64
487,554	4,42
488,045	4,44
488,536	4,52
489,027	4,61
489,518	4,78
490,008	4,68
490,499	4,66
490,989	4,55
491,48	4,56
491,97	4,54
492,46	4,52
492,95	4,55
493,44	4,74
493,93	4,65
494,419	4,81
494,909	4,68
495,398	4,77
495,888	5,04
496,377	4,68
496,866	4,73
497,355	5,08
497,844	4,81
498,333	5,15
498,821	5,05
499,31	5,13
499,798	5,17
500,287	5,22
500,775	5,32
501,263	5,31
501,751	5,35
502,239	5,37
502,727	5,4
503,215	5,57
503,702	5,7
504,19	5,65
504,677	5,79
505,164	6,07
505,651	6
506,139	6,17
506,625	6,16
507,112	6,42
507,599	6,43
508,086	6,53
508,572	6,74
509,058	6,77
509,545	7,14
510,031	7,19
510,517	7,3
511,003	7,42
511,489	7,64
511,974	8
512,46	8,21
512,946	8,32
513,431	8,31
513,916	8,61
514,401	8,8
514,887	8,88
515,371	9,2
515,856	9,42
516,341	9,84
516,826	10,08
517,31	10,07
517,795	10,68
518,279	10,81
518,763	11,2
519,247	11,64
519,731	11,81
520,215	12,47
520,699	12,41
521,182	12,78
521,666	13,08
522,149	13,46
522,633	13,8
523,116	14,04
523,599	14,31
524,082	14,6
524,565	15,1
525,048	15,52
525,53	15,78
526,013	16,02
526,495	15,85
526,978	16,37
527,46	16,78
527,942	16,94
528,424	17,15
528,906	17,92
529,388	17,95
529,87	17,87
530,351	18,28
530,833	18,58
531,314	18,55
531,795	19,24
532,277	18,97
532,758	19,01
533,238	19,36
533,719	19,61
534,2	19,46
534,681	19,73
535,161	19,86
535,642	20,16
536,122	20,02
536,602	20,1
537,082	20,92
537,562	20,68
538,042	20,66
538,522	20,45
539,001	20,66
539,481	20,75
539,96	20,73
540,44	21,06
540,919	20,95
541,398	20,94
541,877	21,3
542,356	21,21
542,835	21,36
543,313	21,55
543,792	21,6
544,27	21,42
544,749	21,22
545,227	21,49
545,705	21,44
546,183	21,51
546,661	21,7
547,139	21,81
547,616	21,99
548,094	21,85
548,571	21,79
549,049	21,91
549,526	22,07
550,003	22,31
550,48	21,87
550,957	22,36
551,434	21,93
551,911	22,11
552,387	21,96
552,864	22,09
553,34	22,45
553,817	22,41
554,293	22,43
554,769	22,16
555,245	22,1
555,721	21,9
556,197	21,89
556,672	22,27
557,148	22,08
557,623	22,12
558,099	21,88
558,574	21,69
559,049	21,65
559,524	21,78
559,999	21,58
560,474	21,34
560,948	21,19
561,423	21,37
561,897	21,28
562,372	21,18
562,846	20,73
563,32	20,67
563,794	20,67
564,268	20,35
564,742	20,27
565,216	20,5
565,69	20,31
566,163	19,99
566,636	19,6
567,11	19,4
567,583	19,33
568,056	19,01
568,529	18,91
569,002	18,92
569,475	18,36
569,947	18,47
570,42	17,96
570,892	17,9
571,365	17,65
571,837	17,52
572,309	17,34
572,781	17,1
573,253	17,07
573,725	16,92
574,197	16,78
574,668	16,63
575,14	16,36
575,611	16,18
576,082	16,08
576,554	15,94
577,025	15,74
577,496	15,57
577,967	15,39
578,437	15,26
578,908	15,25
579,379	15,13
579,849	14,89
580,319	14,76
580,79	14,56
581,26	14,5
581,73	14,5
582,2	14,27
582,669	14,08
583,139	14,06
583,609	13,68
584,078	13,56
584,548	13,61
585,017	13,56
585,486	13,5
585,955	13,38
586,424	13,13
586,893	13,33
587,362	13,19
587,83	12,91
588,299	13,02
588,767	13
589,236	12,74
589,704	12,78
590,172	12,66
590,64	12,43
591,108	12,32
591,576	12,42
592,043	12,36
592,511	12,46
592,978	12,21
593,446	12,08
593,913	12,23
594,38	12,2
594,847	12,32
595,314	12,09
595,781	11,88
596,248	12,04
596,715	11,99
597,181	11,89
597,647	11,76
598,114	11,8
598,58	11,73
599,046	11,75
599,512	11,74
599,978	11,82
600,444	11,86
600,91	11,67
601,375	11,73
601,841	11,78
602,306	11,56
602,771	11,54
603,236	11,39
603,702	11,33
604,167	11,44
604,631	11,33
605,096	11,16
605,561	11,16
606,025	11,08
606,49	11,06
606,954	10,96
607,418	10,83
607,882	10,8
608,347	10,76
608,81	10,79
609,274	10,71
609,738	10,59
610,202	10,41
610,665	10,45
611,128	10,24
611,592	10,22
612,055	10,14
612,518	9,88
612,981	9,98
613,444	9,88
613,907	10
614,369	9,81
614,832	9,77
615,294	9,72
615,757	9,45
616,219	9,45
616,681	9,4
617,143	9,36
617,605	9,25
618,067	9,25
618,529	9,1
618,99	9,12
619,452	8,98
619,913	9,03
620,375	8,91
620,836	8,93
621,297	8,88
621,758	8,9
622,219	8,78
622,68	8,71
623,14	8,67
623,601	8,5
624,061	8,69
624,522	8,65
624,982	8,57
625,442	8,54
625,902	8,49
626,362	8,54
626,822	8,53
627,282	8,44
627,742	8,42
628,201	8,42
628,661	8,47
629,12	8,44
629,579	8,31
630,038	8,53
630,497	8,46
630,956	8,35
631,415	8,36
631,874	8,4
632,332	8,37
632,791	8,2
633,249	8,23
633,708	8,18
634,166	8,17
634,624	8,02
635,082	8,09
635,54	7,95
635,998	7,81
636,455	7,77
636,913	7,73
637,37	7,68
637,828	7,54
638,285	7,51
638,742	7,33
639,199	7,31
639,656	7,21
640,113	7,13
640,57	6,95
641,027	6,96
641,483	6,74
641,94	6,78
642,396	6,74
642,852	6,64
643,309	6,43
643,765	6,5
644,221	6,36
644,676	6,2
645,132	6,12
645,588	6,02
646,043	5,95
646,499	5,98
646,954	5,83
647,409	5,73
647,864	5,72
648,319	5,7
648,774	5,63
649,229	5,52
649,684	5,58
650,139	5,49
650,593	5,46
651,047	5,48
651,502	5,36
651,956	5,32
652,41	5,37
652,864	5,39
653,318	5,29
653,772	5,24
654,225	5,31
654,679	5,28
655,133	5,25
655,586	5,27
656,039	5,16
656,492	5,19
656,946	5,18
657,399	5,09
657,851	5,19
658,304	5,05
658,757	5,06
659,209	5,01
659,662	4,98
660,114	4,89
660,567	4,85
661,019	4,92
661,471	4,81
661,923	4,9
662,375	4,84
662,826	4,72
663,278	4,69
663,73	4,78
664,181	4,7
664,632	4,67
665,084	4,77
665,535	4,72
665,986	4,67
666,437	4,68
666,888	4,72
667,338	4,75
667,789	4,76
668,24	4,77
668,69	4,84
669,14	4,76
669,591	4,95
670,041	4,93
670,491	4,88
670,941	4,87
671,391	5
671,84	5,04
672,29	5,18
672,74	5,28
673,189	5,24
673,638	5,28
674,088	5,36
674,537	5,47
674,986	5,5
675,435	5,63
675,883	5,67
676,332	5,78
676,781	5,85
677,229	5,82
677,678	5,98
678,126	6,1
678,574	6,14
679,022	6,28
679,47	6,43
679,918	6,47
680,366	6,59
680,814	6,63
681,261	6,79
681,709	6,85
682,156	6,92
682,604	7,05
683,051	7,23
683,498	7,2
683,945	7,29
684,392	7,26
684,839	7,48
685,286	7,53
685,732	7,59
686,179	7,63
686,625	7,79
687,071	7,88
687,518	8,01
687,964	8,11
688,41	8,18
688,856	8,32
689,301	8,61
689,747	8,74
690,193	8,89
690,638	9,2
691,084	9,5
691,529	9,8
691,974	10,06
692,419	10,38
692,864	10,87
693,309	11,21
693,754	11,74
694,199	12,15
694,643	12,76
695,088	13,27
695,532	13,93
695,977	14,27
696,421	14,96
696,865	15,55
697,309	16,28
697,753	16,98
698,197	17,57
698,64	18,29
699,084	18,95
699,527	19,48
699,971	20,4
700,414	21,25
700,857	21,87
701,3	22,55
701,743	23,21
702,186	23,78
702,629	24,63
703,072	25,37
703,515	26,2
703,957	26,75
704,399	27,62
704,842	28,16
705,284	28,95
705,726	29,72
706,168	30,12
706,61	30,89
707,052	31,68
707,494	32,32
707,935	33,26
708,377	33,63
708,818	34,41
709,26	35,1
709,701	35,5
710,142	36,48
710,583	37,15
711,024	37,71
711,465	38,26
711,905	39,04
712,346	39,67
712,787	40,41
713,227	40,96
713,667	41,67
714,108	42,37
714,548	42,79
714,988	43,77
715,428	44,17
715,868	44,84
716,307	45,43
716,747	45,91
717,186	46,55
717,626	47
718,065	47,88
718,504	48,19
718,944	49,17
719,383	49,48
719,822	50,32
720,261	50,53
720,699	51,14
721,138	51,84
721,576	52,27
722,015	52,75
722,453	53,25
722,892	53,78
723,33	54,43
723,768	54,83
724,206	55,23
724,644	55,83
725,081	55,88
725,519	56,51
725,957	56,58
726,394	57,21
726,832	57,56
727,269	58,18
727,706	58,32
728,143	58,84
728,58	59,27
729,017	59,46
729,454	59,92
729,89	60,47
730,327	60,5
730,764	60,7
731,2	61,07
731,636	61,49
732,072	61,82
732,509	61,84
732,945	62,28
733,38	62,62
733,816	62,68
734,252	62,74
734,688	63,11
735,123	63,54
735,559	63,69
735,994	63,75
736,429	63,87
736,864	64,26
737,299	64,41
737,734	64,42
738,169	64,75
738,604	64,99
739,038	65,01
739,473	64,9
739,907	65,41
740,342	65,26
740,776	65,93
741,21	65,83
741,644	65,94
742,078	65,97
742,512	65,92
742,946	66,01
743,379	66,13
743,813	66,24
744,246	66,12
744,68	66,37
745,113	66,55
745,546	66,15
745,979	66,19
746,412	66,27
746,845	66,64
747,278	66,53
747,711	66,48
748,143	66,75
748,576	66,94
749,008	66,87
749,441	66,44
749,873	66,44
750,305	66,58
750,737	66,67
751,169	66,3
751,601	66,81
752,032	66,22
752,464	66,1
752,896	66,62
753,327	66,53
753,758	66,7
754,19	66,53
754,621	66,55
755,052	66,27
755,483	66,46
755,914	66,39
756,344	66,13
756,775	66,49
757,206	66,23
757,636	66,01
758,066	65,93
758,497	66,21
758,927	66,5
759,357	66,42
759,787	66,44
760,217	66,26
760,647	65,92
761,076	65,99
761,506	66,06
761,935	65,89
762,365	65,7
762,794	66,06
763,223	66,26
763,653	66,16
764,082	66,19
764,51	65,7
764,939	65,77
765,368	65,9
765,797	65,81
766,225	65,89
766,654	65,57
767,082	65,56
767,51	65,37
767,938	65,34
768,367	65,42
768,795	65,6
769,222	65,52
769,65	65,42
770,078	65,45
770,505	65,76
770,933	65,35
771,36	65,2
771,788	65,35
772,215	65,34
772,642	65,48
773,069	65,24
773,496	65,34
773,923	65,51
774,349	65,33
774,776	65,21
775,203	65,15
775,629	65,31
776,055	65,07
776,482	65,38
776,908	64,87
777,334	65,08
777,76	65
778,186	64,6
778,611	65,05
779,037	64,7
779,463	64,93
779,888	64,93
780,314	64,7
780,739	64,98
781,164	64,9
781,589	64,86
782,014	64,66
782,439	65,09
782,864	64,81
783,289	65,05
783,713	64,69
784,138	64,72
784,562	64,65
784,987	64,3
785,411	64,61
785,835	64,79
786,259	64,61
786,683	64,57
787,107	64,55
787,531	64,79
787,954	64,95
788,378	64,8
788,802	64,62
789,225	64,51
789,648	65,12
790,071	64,65
790,495	64,66
790,918	64,79
791,34	64,55
791,763	64,55
792,186	64,21
792,609	64,82
793,031	64,48
793,454	64,55
793,876	64,94
794,298	64,89
794,721	64,38
795,143	64,77
795,565	64,75
795,986	64,6
796,408	64,56
796,83	64,3
797,252	64,58
797,673	64,55
798,094	64,45
798,516	64,88
798,937	64,57
799,358	64,72
799,779	64,32
800,2	64,5
800,621	64,59
801,042	64,38
801,462	64,73
801,883	64,89
802,303	64,49
802,724	64,31
803,144	64,61
803,564	64,61
803,984	64,48
804,404	64,56
804,824	64,37
805,244	64,67
805,664	64,39
806,084	64,32
806,503	64,16
806,923	64,26
807,342	64,33
807,761	64,48
808,18	64,48
808,599	64,28
809,018	64,31
809,437	64,29
809,856	64,06
810,275	64,32
810,693	64,18
811,112	64,77
811,53	64,33
811,949	64,58
812,367	64,02
812,785	64,15
813,203	64,14
813,621	64,36
814,039	64,21
814,457	64,38
814,874	63,89
815,292	64,47
815,709	64,44
816,127	64,37
816,544	63,98
816,961	64,23
817,378	64,21
817,795	64,44
818,212	64,22
818,629	64,33
819,046	64,04
819,462	63,94
819,879	64,06
820,295	64,45
820,712	64,37
821,128	64,28
821,544	63,66
821,96	64,06
822,376	64,15
822,792	64,38
823,208	64,33
823,624	64,2
824,039	64,28
824,455	64,16
824,87	64,13
825,286	64
825,701	64,01
826,116	64,17
826,531	63,84
826,946	64,15
827,361	64,28
827,776	63,94
828,19	64,34
828,605	64,2
829,02	63,95
829,434	64,08
829,848	63,81
830,263	64,01
830,677	64,29
831,091	64,48
831,505	63,54
831,919	63,98
832,332	63,95
832,746	64,04
833,16	64,14
833,573	64,24
833,987	64,01
834,4	63,81
834,813	64,4
835,226	63,75
835,639	64,29
836,052	64,12
836,465	64,04
836,878	63,89
837,29	63,95
837,703	63,95
838,116	63,97
838,528	64,11
838,94	63,88
839,352	64,29
839,765	64,02
840,177	63,81
840,589	63,71
841	63,75
841,412	64,06
841,824	63,98
842,235	64,01
842,647	63,34
843,058	63,8
843,47	63,81
843,881	63,62
844,292	63,99
844,703	63,77
