Data from D5__Relative__1__12-28-01-338.txt Node

Date: Fri Feb 02 12:28:01 CET 2024
User: diatiterra
Spectrometer: HDX00911
Trigger mode: 0
Integration Time (sec): 6,000000E-3
Scans to average: 2
Nonlinearity correction enabled: false
Boxcar width: 0
Storing dark spectrum: false
XAxis mode: Wavelengths
Number of Pixels in Spectrum: 2068
>>>>>Begin Spectral Data<<<<<
194,468	140,15
195,025	109,92
195,581	112,9
196,138	118,26
196,694	101,69
197,251	102,02
197,807	87,06
198,363	81,21
198,919	79,09
199,474	86
200,03	80,59
200,586	86,82
201,141	79,87
201,696	79,38
202,251	86,08
202,806	81,06
203,361	92,86
203,916	79,87
204,471	87,74
205,025	83,85
205,58	84,23
206,134	81,85
206,688	77,01
207,242	81,59
207,796	73,24
208,35	74,7
208,904	79,94
209,457	76,09
210,011	75,92
210,564	77,38
211,117	74,77
211,67	84,45
212,223	85,58
212,776	85,5
213,329	74,3
213,881	87,5
214,434	79,32
214,986	81,39
215,538	84,29
216,09	88,57
216,642	80
217,194	79,88
217,746	74,14
218,297	80,25
218,849	81,27
219,4	78,67
219,951	77,04
220,502	83,58
221,053	81,21
221,604	93,02
222,155	88,29
222,705	80,66
223,256	80,12
223,806	93,94
224,356	89,87
224,906	86,41
225,456	82,8
226,006	82,13
226,556	81,79
227,106	81
227,655	78,08
228,204	88,26
228,754	79,82
229,303	86,89
229,852	80,19
230,401	89,8
230,949	92,68
231,498	81,54
232,047	79,62
232,595	83,76
233,143	77,96
233,691	83,23
234,239	83,33
234,787	83,83
235,335	89,84
235,883	85,94
236,43	81,76
236,978	79,2
237,525	82,12
238,072	75,85
238,619	85,06
239,166	80,12
239,713	77,48
240,26	85,62
240,806	91,67
241,353	82,94
241,899	82,52
242,445	93,06
242,991	79,68
243,537	84,69
244,083	82,24
244,629	88,16
245,174	85,57
245,72	84,67
246,265	75
246,81	86,56
247,355	84,81
247,9	78,55
248,445	85,67
248,99	90,82
249,534	78,75
250,079	85,62
250,623	85,57
251,168	78,96
251,712	83,33
252,256	78,82
252,8	82,86
253,343	79,8
253,887	79,62
254,43	82,58
254,974	82,29
255,517	84,86
256,06	79,48
256,603	76,88
257,146	72,73
257,689	80,48
258,232	83,73
258,774	82,84
259,317	85,35
259,859	83,28
260,401	75,87
260,943	84,36
261,485	72,14
262,027	81,27
262,569	79,94
263,11	84,69
263,652	86,11
264,193	80,46
264,734	75,41
265,275	76,81
265,816	73,29
266,357	82,23
266,898	83,33
267,438	83,93
267,979	78,77
268,519	81,54
269,059	71,87
269,6	76,23
270,14	84,9
270,68	80,71
271,219	84,84
271,759	78,64
272,298	81,52
272,838	68,84
273,377	81,16
273,916	80,27
274,455	73,41
274,994	76,8
275,533	84,67
276,072	80,86
276,61	79,5
277,149	82,39
277,687	77,26
278,225	82,86
278,763	83,61
279,301	86,51
279,839	73,44
280,377	90,37
280,914	84,72
281,452	73,63
281,989	85,17
282,526	77,02
283,064	77,88
283,601	73,46
284,137	88,64
284,674	74,74
285,211	81,33
285,747	81,14
286,284	73,67
286,82	84,62
287,356	73,49
287,892	100,39
288,428	80,13
288,964	78,95
289,5	79,06
290,035	82,01
290,571	83,99
291,106	78,34
291,641	82,27
292,176	76,49
292,711	77,17
293,246	90,97
293,781	75,65
294,315	80,21
294,85	77,85
295,384	76,43
295,918	85,67
296,453	84,8
296,987	79,25
297,52	81,9
298,054	79,65
298,588	80,57
299,121	76,09
299,655	80,78
300,188	90,49
300,721	79,29
301,254	74,77
301,787	75,49
302,32	72,61
302,853	83,99
303,385	71,62
303,918	75,68
304,45	81,17
304,982	74,01
305,514	78,03
306,046	82,29
306,578	86,18
307,11	80,91
307,641	80,94
308,173	80,67
308,704	77,67
309,236	76,82
309,767	80,55
310,298	76,85
310,829	81,08
311,359	82,92
311,89	73,95
312,421	86,39
312,951	67,21
313,481	71,3
314,012	85,76
314,542	76,27
315,072	84,29
315,601	88,81
316,131	80
316,661	79,93
317,19	72,61
317,72	73,33
318,249	77,21
318,778	79,68
319,307	72,85
319,836	68,89
320,365	87,58
320,893	79,39
321,422	80,33
321,95	76,14
322,479	79,12
323,007	81,58
323,535	86,94
324,063	76,25
324,591	71,6
325,118	77,74
325,646	84,97
326,173	73,31
326,701	78,67
327,228	79
327,755	74,92
328,282	79,47
328,809	71,9
329,336	84,97
329,862	77,1
330,389	78,14
330,915	76,7
331,441	72,2
331,968	72,29
332,494	71,12
333,02	74,77
333,545	62,46
334,071	73,52
334,597	73,6
335,122	70,12
335,648	74,92
336,173	77,67
336,698	71,02
337,223	71,92
337,748	71,6
338,272	67,07
338,797	62,78
339,322	71,58
339,846	68,92
340,37	62,31
340,894	62,97
341,419	63,44
341,942	70,03
342,466	63,56
342,99	69,19
343,514	66,57
344,037	75,44
344,56	69,03
345,084	62,79
345,607	65,57
346,13	58,56
346,653	67,49
347,175	66,4
347,698	60,11
348,221	57,48
348,743	54,59
349,265	56,76
349,787	56,46
350,309	57,03
350,831	56,03
351,353	53,67
351,875	64,66
352,397	58,38
352,918	56,38
353,439	53,77
353,961	57,08
354,482	57,25
355,003	56,12
355,524	54,1
356,044	55,02
356,565	55,56
357,086	48,31
357,606	53,35
358,126	51,1
358,646	51,99
359,167	49,78
359,687	48,59
360,206	50,11
360,726	52,01
361,246	47,25
361,765	47,81
362,285	47,35
362,804	45,47
363,323	46,84
363,842	45,29
364,361	44,42
364,88	42,27
365,398	47,62
365,917	44,03
366,435	42,25
366,954	41,91
367,472	41,59
367,99	45,59
368,508	45,29
369,026	47,53
369,544	41,81
370,061	40,94
370,579	40,75
371,096	41,13
371,613	38,26
372,131	36,03
372,648	44,9
373,165	38
373,681	39,62
374,198	40,1
374,715	37,44
375,231	37,01
375,747	36,07
376,264	32,47
376,78	35,92
377,296	36,93
377,812	35,77
378,327	36,75
378,843	31,82
379,359	35,41
379,874	33,29
380,389	29,99
380,905	29,4
381,42	31,7
381,935	33,59
382,449	30,94
382,964	32,18
383,479	29,01
383,993	32,24
384,508	26,87
385,022	25,5
385,536	26,47
386,05	25,15
386,564	24,57
387,078	26,24
387,592	26,57
388,105	25,6
388,619	23,7
389,132	27,32
389,645	27,07
390,158	23,24
390,671	22,08
391,184	24,02
391,697	21,97
392,21	24,28
392,722	23,6
393,235	23,28
393,747	20,89
394,259	22
394,771	21,65
395,283	22,02
395,795	21,43
396,307	21,27
396,818	20,31
397,33	20,49
397,841	19,91
398,353	21,25
398,864	19,45
399,375	19,35
399,886	18,1
400,397	16,27
400,907	16,98
401,418	17,69
401,928	16,86
402,439	15,05
402,949	18,43
403,459	15,52
403,969	16,04
404,479	16,34
404,989	14,45
405,498	15,13
406,008	13,68
406,517	14,85
407,027	14,41
407,536	12,73
408,045	12,52
408,554	11,85
409,063	11,22
409,572	11,76
410,08	10,24
410,589	10,32
411,097	9,96
411,606	9,55
412,114	9,61
412,622	9,14
413,13	9,43
413,638	8,42
414,145	8,05
414,653	7,9
415,16	8,25
415,668	7,42
416,175	7,67
416,682	7,22
417,189	6,63
417,696	6,85
418,203	7,2
418,71	7,09
419,216	6,73
419,723	6,92
420,229	6,06
420,735	6,66
421,242	6,63
421,748	6,26
422,254	6,28
422,759	6,17
423,265	6,07
423,771	6,05
424,276	5,87
424,781	6,05
425,287	5,56
425,792	5,72
426,297	5,83
426,802	5,43
427,306	5,63
427,811	5,56
428,316	5,51
428,82	5,27
429,324	5,07
429,829	5,1
430,333	5,44
430,837	5,19
431,34	5,35
431,844	5,1
432,348	5,16
432,851	4,95
433,355	4,61
433,858	5,03
434,361	5,16
434,864	5,11
435,367	5,05
435,87	4,76
436,373	5,2
436,876	4,93
437,378	4,68
437,88	4,94
438,383	5,05
438,885	4,64
439,387	4,53
439,889	4,71
440,391	4,79
440,892	4,75
441,394	4,52
441,896	4,67
442,397	4,96
442,898	4,65
443,399	4,43
443,9	4,55
444,401	4,34
444,902	4,4
445,403	4,77
445,903	4,46
446,404	4,55
446,904	4,45
447,405	4,51
447,905	4,72
448,405	4,38
448,905	4,45
449,404	4,33
449,904	4,46
450,404	4,38
450,903	4,5
451,403	4,6
451,902	4,35
452,401	4,39
452,9	4,31
453,399	4,37
453,898	4,39
454,396	4,52
454,895	4,31
455,393	4,39
455,892	4,4
456,39	4,52
456,888	4,15
457,386	4,46
457,884	4,46
458,382	4,47
458,879	4,37
459,377	4,14
459,874	4,53
460,372	4,49
460,869	4,08
461,366	4,19
461,863	4,35
462,36	4,47
462,857	4,18
463,353	4,39
463,85	4,16
464,346	4,36
464,843	4,15
465,339	4,11
465,835	4,34
466,331	4,1
466,827	4,02
467,323	4,13
467,818	4,23
468,314	4,19
468,809	4,2
469,305	4,22
469,8	4,42
470,295	4,01
470,79	4,17
471,285	3,9
471,78	4,21
472,274	4
472,769	4,21
473,263	4,34
473,758	3,94
474,252	4,04
474,746	4,02
475,24	4,13
475,734	4,07
476,228	4,17
476,721	4,09
477,215	4,13
477,708	4,05
478,202	4,1
478,695	3,97
479,188	4
479,681	4,02
480,174	4,02
480,667	4,21
481,159	4,11
481,652	4
482,144	4,27
482,637	4,12
483,129	4,03
483,621	4,22
484,113	3,98
484,605	4,07
485,097	4,04
485,588	3,93
486,08	3,92
486,571	4,2
487,063	4,04
487,554	4,1
488,045	4,08
488,536	4,17
489,027	4,06
489,518	4,17
490,008	3,91
490,499	4,18
490,989	3,97
491,48	4,18
491,97	4,18
492,46	4,11
492,95	3,92
493,44	4,09
493,93	4,3
494,419	4,15
494,909	4,27
495,398	4,1
495,888	4,25
496,377	4,13
496,866	4,19
497,355	4,11
497,844	4,2
498,333	4,36
498,821	4,3
499,31	4,34
499,798	4,44
500,287	4,3
500,775	4,25
501,263	4,4
501,751	4,46
502,239	4,47
502,727	4,49
503,215	4,61
503,702	4,39
504,19	4,42
504,677	4,34
505,164	4,72
505,651	4,84
506,139	4,61
506,625	4,71
507,112	4,83
507,599	4,76
508,086	4,91
508,572	5,02
509,058	4,96
509,545	5,01
510,031	5,07
510,517	5,29
511,003	5,4
511,489	5,36
511,974	5,42
512,46	5,4
512,946	5,56
513,431	5,68
513,916	5,82
514,401	5,86
514,887	5,76
515,371	6,08
515,856	6,28
516,341	6,46
516,826	6,48
517,31	6,46
517,795	6,82
518,279	6,87
518,763	6,97
519,247	7,06
519,731	7,24
520,215	7,51
520,699	7,69
521,182	7,62
521,666	8,04
522,149	8,08
522,633	8,3
523,116	8,42
523,599	8,7
524,082	8,75
524,565	9,08
525,048	9,34
525,53	9,44
526,013	9,59
526,495	9,71
526,978	9,84
527,46	10,14
527,942	10,16
528,424	10,35
528,906	10,59
529,388	10,8
529,87	11,01
530,351	10,81
530,833	11,31
531,314	11,24
531,795	11,57
532,277	11,47
532,758	11,52
533,238	11,57
533,719	12,26
534,2	11,94
534,681	12,11
535,161	12,15
535,642	12,14
536,122	12,29
536,602	12,43
537,082	12,5
537,562	12,45
538,042	12,38
538,522	12,56
539,001	12,46
539,481	12,7
539,96	12,47
540,44	12,79
540,919	12,73
541,398	12,88
541,877	12,87
542,356	12,96
542,835	13,12
543,313	12,99
543,792	12,97
544,27	12,94
544,749	12,98
545,227	13
545,705	12,98
546,183	13,19
546,661	13,24
547,139	13,18
547,616	13,29
548,094	13,3
548,571	13,37
549,049	13,36
549,526	13,42
550,003	13,48
550,48	13,57
550,957	13,63
551,434	13,36
551,911	13,45
552,387	13,44
552,864	13,46
553,34	13,76
553,817	13,59
554,293	13,67
554,769	13,51
555,245	13,54
555,721	13,53
556,197	13,2
556,672	13,41
557,148	13,52
557,623	13,29
558,099	13,28
558,574	13,24
559,049	13,19
559,524	13,5
559,999	13,04
560,474	13,2
560,948	13,07
561,423	12,94
561,897	12,89
562,372	12,84
562,846	12,66
563,32	12,59
563,794	12,48
564,268	12,48
564,742	12,24
565,216	12,24
565,69	12,18
566,163	12,21
566,636	12
567,11	11,95
567,583	11,58
568,056	11,54
568,529	11,45
569,002	11,33
569,475	11,3
569,947	10,88
570,42	10,65
570,892	10,73
571,365	10,82
571,837	10,44
572,309	10,36
572,781	10,17
573,253	10,12
573,725	10,24
574,197	9,91
574,668	9,81
575,14	9,74
575,611	9,54
576,082	9,62
576,554	9,41
577,025	9,28
577,496	9,39
577,967	9,26
578,437	8,95
578,908	9,01
579,379	8,91
579,849	8,83
580,319	8,92
580,79	8,88
581,26	8,64
581,73	8,66
582,2	8,69
582,669	8,57
583,139	8,38
583,609	8,55
584,078	8,22
584,548	8,21
585,017	8,23
585,486	8,22
585,955	8,14
586,424	8
586,893	8,02
587,362	7,95
587,83	7,8
588,299	7,77
588,767	7,74
589,236	7,81
589,704	7,51
590,172	7,56
590,64	7,41
591,108	7,44
591,576	7,49
592,043	7,5
592,511	7,46
592,978	7,46
593,446	7,33
593,913	7,29
594,38	7,38
594,847	7,41
595,314	7,08
595,781	7,28
596,248	7,12
596,715	7,19
597,181	7,11
597,647	7,22
598,114	7,03
598,58	7,15
599,046	7,12
599,512	7,06
599,978	7,14
600,444	7,13
600,91	7,13
601,375	6,92
601,841	7,02
602,306	6,91
602,771	7
603,236	6,95
603,702	7,01
604,167	6,85
604,631	6,82
605,096	6,7
605,561	6,7
606,025	6,66
606,49	6,62
606,954	6,73
607,418	6,5
607,882	6,52
608,347	6,6
608,81	6,56
609,274	6,39
609,738	6,54
610,202	6,4
610,665	6,31
611,128	6,23
611,592	6,28
612,055	6,39
612,518	6,11
612,981	6,23
613,444	6,16
613,907	6,03
614,369	6
614,832	5,93
615,294	5,92
615,757	5,89
616,219	5,83
616,681	5,79
617,143	5,82
617,605	5,68
618,067	5,69
618,529	5,71
618,99	5,73
619,452	5,59
619,913	5,62
620,375	5,55
620,836	5,61
621,297	5,66
621,758	5,46
622,219	5,57
622,68	5,48
623,14	5,48
623,601	5,42
624,061	5,4
624,522	5,49
624,982	5,53
625,442	5,42
625,902	5,35
626,362	5,41
626,822	5,41
627,282	5,38
627,742	5,39
628,201	5,39
628,661	5,33
629,12	5,32
629,579	5,44
630,038	5,39
630,497	5,31
630,956	5,33
631,415	5,34
631,874	5,33
632,332	5,19
632,791	5,2
633,249	5,31
633,708	5,21
634,166	5,13
634,624	5,14
635,082	5,07
635,54	5,19
635,998	5,1
636,455	4,98
636,913	4,96
637,37	4,97
637,828	4,97
638,285	4,92
638,742	4,84
639,199	4,81
639,656	4,77
640,113	4,67
640,57	4,73
641,027	4,67
641,483	4,56
641,94	4,63
642,396	4,58
642,852	4,56
643,309	4,43
643,765	4,41
644,221	4,36
644,676	4,38
645,132	4,32
645,588	4,3
646,043	4,27
646,499	4,23
646,954	4,22
647,409	4,22
647,864	4,19
648,319	4,08
648,774	4,12
649,229	4,12
649,684	4,05
650,139	4,09
650,593	4,08
651,047	3,99
651,502	4,03
651,956	3,91
652,41	4,04
652,864	4,02
653,318	4,01
653,772	4,04
654,225	3,92
654,679	4,04
655,133	3,89
655,586	3,94
656,039	3,96
656,492	3,97
656,946	3,9
657,399	3,91
657,851	3,86
658,304	3,92
658,757	3,83
659,209	3,89
659,662	3,79
660,114	3,9
660,567	3,82
661,019	3,79
661,471	3,8
661,923	3,86
662,375	3,85
662,826	3,84
663,278	3,81
663,73	3,83
664,181	3,8
664,632	3,83
665,084	3,8
665,535	3,79
665,986	3,85
666,437	3,83
666,888	3,8
667,338	3,78
667,789	3,92
668,24	3,94
668,69	3,96
669,14	3,86
669,591	3,95
670,041	3,99
670,491	3,99
670,941	4,01
671,391	4,06
671,84	4,15
672,29	4,22
672,74	4,26
673,189	4,24
673,638	4,27
674,088	4,25
674,537	4,4
674,986	4,31
675,435	4,46
675,883	4,45
676,332	4,57
676,781	4,54
677,229	4,56
677,678	4,68
678,126	4,79
678,574	4,82
679,022	4,95
679,47	4,94
679,918	5
680,366	5,14
680,814	5,13
681,261	5,21
681,709	5,26
682,156	5,24
682,604	5,39
683,051	5,44
683,498	5,49
683,945	5,56
684,392	5,59
684,839	5,57
685,286	5,79
685,732	5,68
686,179	5,78
686,625	5,69
687,071	5,78
687,518	5,74
687,964	5,82
688,41	5,9
688,856	5,92
689,301	5,93
689,747	6,04
690,193	6,02
690,638	6,14
691,084	6,17
691,529	6,32
691,974	6,37
692,419	6,62
692,864	6,8
693,309	7
693,754	7,19
694,199	7,33
694,643	7,59
695,088	7,85
695,532	8,15
695,977	8,49
696,421	8,74
696,865	9,06
697,309	9,5
697,753	9,86
698,197	10,29
698,64	10,7
699,084	11,14
699,527	11,47
699,971	12,05
700,414	12,43
700,857	12,91
701,3	13,4
701,743	13,92
702,186	14,5
702,629	15,09
703,072	15,57
703,515	16,08
703,957	16,69
704,399	17,28
704,842	17,74
705,284	18,21
705,726	19,06
706,168	19,55
706,61	19,98
707,052	20,91
707,494	21,25
707,935	21,98
708,377	22,78
708,818	23,25
709,26	24,04
709,701	24,65
710,142	25,31
710,583	25,76
711,024	26,54
711,465	27,15
711,905	28,05
712,346	28,64
712,787	29,28
713,227	29,99
713,667	30,71
714,108	31,5
714,548	32,09
714,988	32,72
715,428	33,31
715,868	34,49
716,307	35,14
716,747	35,7
717,186	36,46
717,626	37,13
718,065	37,96
718,504	38,62
718,944	39,41
719,383	40,17
719,822	40,93
720,261	41,42
720,699	42,41
721,138	42,84
721,576	43,89
722,015	44,58
722,453	45,13
722,892	45,78
723,33	46,77
723,768	47,45
724,206	47,94
724,644	48,98
725,081	49,21
725,519	49,82
725,957	50,39
726,394	51,13
726,832	52,01
727,269	52,89
727,706	52,95
728,143	53,76
728,58	54,18
729,017	54,79
729,454	55,68
729,89	56,22
730,327	56,45
730,764	57,12
731,2	57,47
731,636	58,12
732,072	58,91
732,509	59,21
732,945	59,6
733,38	60,07
733,816	60,58
734,252	61,12
734,688	61,29
735,123	61,5
735,559	62,36
735,994	62,54
736,429	62,97
736,864	63,36
737,299	63,89
737,734	63,98
738,169	64,31
738,604	64,42
739,038	64,95
739,473	64,95
739,907	65,42
740,342	65,65
740,776	66,41
741,21	66,26
741,644	66,62
742,078	66,99
742,512	66,86
742,946	67,39
743,379	67,16
743,813	67,84
744,246	67,91
744,68	67,78
745,113	68,4
745,546	68,38
745,979	68,25
746,412	68,45
746,845	68,47
747,278	68,85
747,711	69,02
748,143	68,94
748,576	69,46
749,008	69,55
749,441	69,25
749,873	69,29
750,305	69,21
750,737	69,75
751,169	69,3
751,601	69,74
752,032	69,54
752,464	69,76
752,896	69,82
753,327	69,91
753,758	70,01
754,19	70,17
754,621	70,14
755,052	69,97
755,483	70,61
755,914	70,24
756,344	69,91
756,775	70,46
757,206	70,14
757,636	69,92
758,066	70,14
758,497	70,27
758,927	70,5
759,357	70,55
759,787	70,33
760,217	70,4
760,647	70,19
761,076	70,37
761,506	70,36
761,935	70,42
762,365	70,1
762,794	70,41
763,223	70,27
763,653	70,26
764,082	70,52
764,51	70,06
764,939	70,32
765,368	70,39
765,797	70,39
766,225	70,22
766,654	70,3
767,082	70,23
767,51	70
767,938	70,27
768,367	70,1
768,795	70,16
769,222	70,19
769,65	70,25
770,078	70,16
770,505	70,51
770,933	70,26
771,36	70,15
771,788	70,54
772,215	70,18
772,642	70,24
773,069	69,91
773,496	70
773,923	70,36
774,349	70,17
774,776	70,24
775,203	70,12
775,629	70,01
776,055	70,3
776,482	70,48
776,908	69,67
777,334	70,23
777,76	70,26
778,186	70,07
778,611	70,03
779,037	69,94
779,463	70
779,888	69,87
780,314	70
780,739	70,05
781,164	69,94
781,589	70,07
782,014	70,08
782,439	70,35
782,864	70
783,289	69,9
783,713	69,9
784,138	69,94
784,562	69,76
784,987	69,96
785,411	70,34
785,835	70,08
786,259	69,67
786,683	69,85
787,107	70,21
787,531	69,72
787,954	69,9
788,378	69,87
788,802	69,96
789,225	69,65
789,648	69,98
790,071	70,09
790,495	70,09
790,918	69,96
791,34	70,02
791,763	70,13
792,186	69,73
792,609	70,12
793,031	69,96
793,454	69,71
793,876	70,09
794,298	69,78
794,721	69,69
795,143	70,11
795,565	69,85
795,986	69,87
796,408	69,77
796,83	69,8
797,252	70,05
797,673	70,02
798,094	70,07
798,516	69,57
798,937	69,99
799,358	70,01
799,779	69,89
800,2	70,09
800,621	69,71
801,042	70,22
801,462	70,13
801,883	70,04
802,303	69,87
802,724	69,78
803,144	69,98
803,564	69,89
803,984	70,04
804,404	70,16
804,824	70,05
805,244	70,22
805,664	69,95
806,084	69,87
806,503	69,51
806,923	69,71
807,342	69,84
807,761	69,98
808,18	69,71
808,599	69,73
809,018	69,91
809,437	70,15
809,856	69,81
810,275	70,16
810,693	70,01
811,112	70,34
811,53	69,77
811,949	69,72
812,367	69,67
812,785	70,07
813,203	69,63
813,621	69,74
814,039	69,79
814,457	70,16
814,874	70,34
815,292	70
815,709	70,12
816,127	69,88
816,544	69,81
816,961	69,99
817,378	69,84
817,795	69,97
818,212	69,79
818,629	69,83
819,046	69,9
819,462	69,85
819,879	69,88
820,295	69,6
820,712	69,59
821,128	69,81
821,544	69,69
821,96	69,44
822,376	69,95
822,792	69,83
823,208	69,71
823,624	69,93
824,039	70
824,455	70,06
824,87	69,93
825,286	69,84
825,701	69,91
826,116	70,17
826,531	69,45
826,946	69,84
827,361	69,88
827,776	69,88
828,19	70,35
828,605	69,89
829,02	69,34
829,434	70,11
829,848	69,36
830,263	69,81
830,677	69,71
831,091	70
831,505	69,45
831,919	69,75
832,332	69,83
832,746	69,74
833,16	69,75
833,573	69,86
833,987	69,93
834,4	69,54
834,813	70,07
835,226	69,37
835,639	69,46
836,052	69,92
836,465	69,83
836,878	70,04
837,29	69,8
837,703	70,2
838,116	70,22
838,528	69,47
838,94	70,13
839,352	69,64
839,765	69,72
840,177	69,66
840,589	69,48
841	69,76
841,412	69,34
841,824	69,65
842,235	69,68
842,647	69,21
843,058	69,86
843,47	69,8
843,881	69,85
844,292	69,95
844,703	69,53
845,114	69,77
845,525	69,47
845,935	69,72
846,346	69,67
846,757	69,59
847,167	69,53
847,577	69,92
847,988	69,59
848,398	69,88
