Data from E6__Relative__0__00008.txt Node

Date: Fri Feb 02 12:32:40 CET 2024
User: diatiterra
Spectrometer: HDX00911
Trigger mode: 0
Integration Time (sec): 6,000000E-3
Scans to average: 2
Nonlinearity correction enabled: false
Boxcar width: 0
Storing dark spectrum: false
XAxis mode: Wavelengths
Number of Pixels in Spectrum: 2068
>>>>>Begin Spectral Data<<<<<
194,468	100
195,025	66,9
195,581	78,3
196,138	76,52
196,694	71,86
197,251	79,51
197,807	74,17
198,363	70,94
198,919	62,66
199,474	66,77
200,03	59,11
200,586	64,67
201,141	60
201,696	68,01
202,251	71,47
202,806	58,79
203,361	63,44
203,916	62,72
204,471	72,67
205,025	60,95
205,58	62,24
206,134	66,46
206,688	71,67
207,242	58,64
207,796	72,64
208,35	65,96
208,904	65,44
209,457	60,06
210,011	65,58
210,564	63,75
211,117	69,59
211,67	68,26
212,223	70,97
212,776	68,97
213,329	66,88
213,881	73,15
214,434	66,47
214,986	62,3
215,538	63,52
216,09	66,67
216,642	64,24
217,194	64,94
217,746	72,85
218,297	72,01
218,849	61,97
219,4	65,36
219,951	73,87
220,502	70,71
221,053	77,86
221,604	76,19
222,155	66,13
222,705	62,34
223,256	68,17
223,806	71,34
224,356	79,65
224,906	59,81
225,456	70,76
226,006	66,77
226,556	68,59
227,106	57,89
227,655	64,51
228,204	64,79
228,754	64,04
229,303	65,67
229,852	78,06
230,401	72,24
230,949	69,16
231,498	73,36
232,047	64,19
232,595	59,41
233,143	62,57
233,691	66,67
234,239	59,27
234,787	69,07
235,335	56,86
235,883	65,05
236,43	63,73
236,978	66,45
237,525	64,47
238,072	59,75
238,619	69,06
239,166	71,2
239,713	74,65
240,26	58,7
240,806	53,38
241,353	72,94
241,899	64,42
242,445	73,97
242,991	66,88
243,537	63,86
244,083	66,24
244,629	66,25
245,174	72,76
245,72	62,21
246,265	64,77
246,81	68,32
247,355	64,65
247,9	61,64
248,445	63,23
248,99	67,65
249,534	73,97
250,079	65,46
250,623	67,34
251,168	62,59
251,712	69,81
252,256	72,82
252,8	58,75
253,343	68,45
253,887	61,2
254,43	61,92
254,974	69,74
255,517	62,67
256,06	72
256,603	61,82
257,146	70,59
257,689	64,41
258,232	78,57
258,774	76,03
259,317	60,71
259,859	74
260,401	67,76
260,943	66,21
261,485	72,95
262,027	66,45
262,569	67,33
263,11	60,06
263,652	66,21
264,193	63,48
264,734	68,53
265,275	71,63
265,816	68,92
266,357	67,47
266,898	74,5
267,438	66,09
267,979	68,18
268,519	66,88
269,059	61,59
269,6	74,67
270,14	68,94
270,68	69,72
271,219	64,77
271,759	68,11
272,298	64,54
272,838	67,52
273,377	69,26
273,916	72,35
274,455	71,08
274,994	70,37
275,533	70,67
276,072	75,89
276,61	72,46
277,149	74,56
277,687	64,45
278,225	71,43
278,763	70,93
279,301	68,71
279,839	61
280,377	66,09
280,914	69,61
281,452	64,53
281,989	69,2
282,526	66,67
283,064	77,06
283,601	63,98
284,137	69,18
284,674	59,74
285,211	59,27
285,747	61,51
286,284	68,15
286,82	67,58
287,356	65,12
287,892	68
288,428	64,79
288,964	68,95
289,5	66,32
290,035	55,41
290,571	68,84
291,106	63,55
291,641	70,75
292,176	61,86
292,711	63,09
293,246	57,64
293,781	59,01
294,315	74,33
294,85	58,03
295,384	71,68
295,918	69,26
296,453	61,81
296,987	61,33
297,52	64,23
298,054	63,25
298,588	57,19
299,121	64,44
299,655	65,47
300,188	61,79
300,721	65,66
301,254	74,1
301,787	63,54
302,32	67,7
302,853	67,57
303,385	71,22
303,918	66,08
304,45	68,49
304,982	67,73
305,514	69,2
306,046	61,54
306,578	58,3
307,11	70,11
307,641	58,16
308,173	70,07
308,704	72,88
309,236	68,6
309,767	65,07
310,298	60
310,829	66,06
311,359	65,03
311,89	59,66
312,421	61,41
312,951	62,46
313,481	70,79
314,012	64,73
314,542	70,69
315,072	63,74
315,601	55,45
316,131	58,08
316,661	62,75
317,19	65,46
317,72	57,52
318,249	69,44
318,778	65,72
319,307	62,62
319,836	71,38
320,365	65,2
320,893	65,02
321,422	66,33
321,95	63,79
322,479	60,28
323,007	64,93
323,535	63,43
324,063	54,31
324,591	68,18
325,118	59,81
325,646	64,75
326,173	63,21
326,701	66,2
327,228	64,9
327,755	66,89
328,282	62,3
328,809	57,29
329,336	63,89
329,862	58,31
330,389	58,55
330,915	60,07
331,441	65,86
331,968	54,36
332,494	58,36
333,02	59,18
333,545	63
334,071	50,94
334,597	54,81
335,122	50,95
335,648	58,77
336,173	56,03
336,698	49,84
337,223	53,23
337,748	57,37
338,272	54,06
338,797	59,15
339,322	50,46
339,846	53,21
340,37	55,72
340,894	52,2
341,419	55,73
341,942	47,13
342,466	51,84
342,99	50,3
343,514	49,72
344,037	47,75
344,56	47,37
345,084	49,16
345,607	49,47
346,13	45,19
346,653	43,97
347,175	48,35
347,698	49,02
348,221	43,58
348,743	44,35
349,265	45,87
349,787	43,94
350,309	44,38
350,831	45,79
351,353	43,88
351,875	45,97
352,397	43,04
352,918	40,98
353,439	42,22
353,961	45,43
354,482	44,64
355,003	44,81
355,524	44,76
356,044	39,95
356,565	43,78
357,086	42,32
357,606	38,8
358,126	40,85
358,646	42,14
359,167	39,31
359,687	40,84
360,206	36,14
360,726	37,77
361,246	39,66
361,765	43,22
362,285	37,45
362,804	42,3
363,323	40
363,842	36,78
364,361	40,13
364,88	36,07
365,398	36,55
365,917	36,69
366,435	36,04
366,954	33,27
367,472	37,85
367,99	39,63
368,508	37,95
369,026	39,74
369,544	36,8
370,061	35,05
370,579	33,91
371,096	35,23
371,613	35,21
372,131	35,42
372,648	31,6
373,165	37,4
373,681	32,1
374,198	36,64
374,715	32,82
375,231	33,7
375,747	35,49
376,264	32,82
376,78	34,37
377,296	31,65
377,812	30,83
378,327	33,38
378,843	30,61
379,359	30,76
379,874	29,58
380,389	30,76
380,905	30,25
381,42	28,48
381,935	28,86
382,449	29,54
382,964	30,34
383,479	30,84
383,993	27,22
384,508	26,66
385,022	27,42
385,536	29,06
386,05	25,31
386,564	26,91
387,078	25,66
387,592	26,75
388,105	26,93
388,619	26,25
389,132	24,32
389,645	24,74
390,158	22,78
390,671	24,85
391,184	23,86
391,697	24,92
392,21	23,93
392,722	24,26
393,235	21,83
393,747	23,18
394,259	23,47
394,771	22,27
395,283	22,25
395,795	23,94
396,307	21,39
396,818	21,76
397,33	21,58
397,841	21,31
398,353	20,38
398,864	20,64
399,375	19,17
399,886	17,2
400,397	18,62
400,907	19,13
401,418	18,25
401,928	19
402,439	18,36
402,949	17
403,459	17,81
403,969	16,07
404,479	16,65
404,989	16,44
405,498	15,93
406,008	15,46
406,517	15,29
407,027	14,58
407,536	14,14
408,045	13,87
408,554	14,25
409,063	12,21
409,572	12,63
410,08	12,03
410,589	11,86
411,097	11,41
411,606	11,34
412,114	11,44
412,622	9,38
413,13	9,76
413,638	10,04
414,145	9,02
414,653	9,13
415,16	8,78
415,668	9,08
416,175	8,86
416,682	8,05
417,189	8,26
417,696	8,12
418,203	8,09
418,71	8,01
419,216	7,82
419,723	7,11
420,229	7,34
420,735	7,33
421,242	7,39
421,748	7,65
422,254	6,84
422,759	6,98
423,265	7,34
423,771	7,24
424,276	6,85
424,781	7,04
425,287	7,2
425,792	6,99
426,297	6,65
426,802	6,42
427,306	6,73
427,811	6,41
428,316	6,59
428,82	6,32
429,324	6,65
429,829	6,38
430,333	6,43
430,837	6,11
431,34	6,32
431,844	6,52
432,348	6,18
432,851	6,11
433,355	6,17
433,858	6,12
434,361	6,24
434,864	6,14
435,367	5,89
435,87	5,98
436,373	5,95
436,876	5,89
437,378	6,12
437,88	5,79
438,383	5,99
438,885	5,56
439,387	6,01
439,889	5,65
440,391	6,04
440,892	5,7
441,394	5,92
441,896	6,03
442,397	5,67
442,898	5,7
443,399	5,87
443,9	5,96
444,401	6
444,902	5,51
445,403	5,63
445,903	5,84
446,404	5,91
446,904	5,84
447,405	5,86
447,905	6,08
448,405	5,82
448,905	5,9
449,404	6
449,904	5,75
450,404	6,03
450,903	6,22
451,403	6,2
451,902	6,17
452,401	5,99
452,9	5,97
453,399	6,17
453,898	6,1
454,396	6,14
454,895	6,48
455,393	6,47
455,892	6,51
456,39	6,17
456,888	6,37
457,386	6,18
457,884	6,06
458,382	6,16
458,879	6,32
459,377	6,34
459,874	6,33
460,372	5,97
460,869	6,47
461,366	6,17
461,863	6,32
462,36	6,45
462,857	6,24
463,353	6,16
463,85	6,43
464,346	6,26
464,843	6,39
465,339	6,3
465,835	6,26
466,331	6,33
466,827	6,27
467,323	6,36
467,818	6,4
468,314	6,5
468,809	6,22
469,305	6,14
469,8	6,2
470,295	6,2
470,79	6,22
471,285	6,29
471,78	6,27
472,274	6,45
472,769	6
473,263	6,09
473,758	6,16
474,252	6,2
474,746	6,22
475,24	6,21
475,734	6,15
476,228	6,26
476,721	6,14
477,215	5,98
477,708	6,29
478,202	6,08
478,695	6,5
479,188	6,15
479,681	6,44
480,174	5,99
480,667	6,45
481,159	6,32
481,652	6,21
482,144	6,16
482,637	6,4
483,129	6,23
483,621	6,52
484,113	6,34
484,605	6,3
485,097	6,37
485,588	6,35
486,08	6,65
486,571	6,61
487,063	6,26
487,554	6,28
488,045	6,45
488,536	6,62
489,027	6,54
489,518	6,34
490,008	6,89
490,499	6,67
490,989	6,62
491,48	6,87
491,97	6,97
492,46	6,93
492,95	6,81
493,44	7,08
493,93	7,08
494,419	7,18
494,909	7,22
495,398	7,38
495,888	7,55
496,377	7,49
496,866	7,46
497,355	7,75
497,844	7,57
498,333	7,96
498,821	7,83
499,31	7,92
499,798	8,04
500,287	8,4
500,775	8,44
501,263	8,66
501,751	8,47
502,239	8,92
502,727	9
503,215	9,12
503,702	9,07
504,19	9,08
504,677	9,38
505,164	9,65
505,651	9,85
506,139	10,03
506,625	10,17
507,112	10,32
507,599	10,63
508,086	10,86
508,572	11,13
509,058	10,93
509,545	11,44
510,031	11,67
510,517	11,86
511,003	12,15
511,489	12,19
511,974	12,75
512,46	12,77
512,946	13,72
513,431	13,12
513,916	14,11
514,401	13,83
514,887	14,49
515,371	14,72
515,856	15,14
516,341	15,11
516,826	15,7
517,31	15,97
517,795	16,11
518,279	16,66
518,763	16,95
519,247	17,36
519,731	17,41
520,215	17,78
520,699	18,57
521,182	18,79
521,666	19,01
522,149	19,26
522,633	19,68
523,116	20
523,599	20,25
524,082	20,61
524,565	20,68
525,048	21,32
525,53	21,36
526,013	21,84
526,495	22,15
526,978	22,29
527,46	22,32
527,942	22,84
528,424	23,09
528,906	23,19
529,388	23,73
529,87	24,12
530,351	24,08
530,833	24,48
531,314	24,48
531,795	24,55
532,277	24,98
532,758	25,14
533,238	25,66
533,719	25,53
534,2	25,3
534,681	25,4
535,161	25,86
535,642	25,5
536,122	26,06
536,602	26,36
537,082	26,28
537,562	26,48
538,042	26,32
538,522	26,46
539,001	26,6
539,481	26,57
539,96	26,69
540,44	26,79
540,919	26,99
541,398	26,61
541,877	26,87
542,356	26,86
542,835	27,21
543,313	27,05
543,792	27,18
544,27	27,03
544,749	27,15
545,227	27,28
545,705	27,47
546,183	27,22
546,661	27,45
547,139	27,74
547,616	27,37
548,094	27,6
548,571	27,38
549,049	27,84
549,526	28,24
550,003	27,89
550,48	27,92
550,957	28,24
551,434	27,87
551,911	28,21
552,387	28,4
552,864	28,28
553,34	28,21
553,817	28,19
554,293	28,39
554,769	28,15
555,245	28,5
555,721	28,13
556,197	28,03
556,672	28,42
557,148	28,07
557,623	28,56
558,099	27,99
558,574	28,07
559,049	28,13
559,524	28,07
559,999	28,12
560,474	27,9
560,948	27,83
561,423	27,72
561,897	27,82
562,372	27,37
562,846	27,55
563,32	27,63
563,794	27,24
564,268	27,17
564,742	26,95
565,216	27,01
565,69	26,58
566,163	26,68
566,636	26,27
567,11	26,17
567,583	26,04
568,056	25,84
568,529	26,03
569,002	25,42
569,475	25,54
569,947	25,31
570,42	25,21
570,892	24,98
571,365	24,73
571,837	24,27
572,309	24,51
572,781	24,42
573,253	23,96
573,725	23,64
574,197	23,71
574,668	23,47
575,14	23,44
575,611	23,27
576,082	23,05
576,554	22,79
577,025	22,75
577,496	22,42
577,967	22,46
578,437	22,38
578,908	22,24
579,379	22,06
579,849	22,02
580,319	21,86
580,79	21,51
581,26	21,45
581,73	21,44
582,2	20,99
582,669	21,05
583,139	20,72
583,609	20,89
584,078	20,81
584,548	20,73
585,017	20,48
585,486	20,67
585,955	20,48
586,424	20,12
586,893	19,77
587,362	20,06
587,83	19,9
588,299	19,59
588,767	19,84
589,236	19,71
589,704	19,51
590,172	19,41
590,64	19,58
591,108	19,31
591,576	19,29
592,043	19,29
592,511	19,08
592,978	19,16
593,446	18,9
593,913	18,81
594,38	18,87
594,847	18,84
595,314	18,98
595,781	18,85
596,248	18,56
596,715	18,72
597,181	18,61
597,647	18,65
598,114	18,63
598,58	18,6
599,046	18,49
599,512	18,75
599,978	18,57
600,444	18,32
600,91	18,3
601,375	18,33
601,841	18,27
602,306	18,33
602,771	18,11
603,236	17,81
603,702	17,99
604,167	17,85
604,631	18,12
605,096	17,78
605,561	17,73
606,025	17,64
606,49	17,5
606,954	17,56
607,418	17,49
607,882	17,45
608,347	17,31
608,81	17,23
609,274	17,26
609,738	17,02
610,202	17,09
610,665	16,78
611,128	17,02
611,592	16,62
612,055	16,71
612,518	16,58
612,981	16,33
613,444	16,4
613,907	16,28
614,369	16,06
614,832	16,05
615,294	15,87
615,757	15,86
616,219	15,93
616,681	15,79
617,143	15,64
617,605	15,61
618,067	15,43
618,529	15,38
618,99	15,54
619,452	15,1
619,913	15,34
620,375	15,16
620,836	15,14
621,297	15,04
621,758	14,91
622,219	15,02
622,68	14,93
623,14	14,86
623,601	14,7
624,061	14,71
624,522	14,72
624,982	14,53
625,442	14,52
625,902	14,65
626,362	14,42
626,822	14,4
627,282	14,55
627,742	14,45
628,201	14,2
628,661	14,42
629,12	14,53
629,579	14,29
630,038	14,4
630,497	14,37
630,956	14,34
631,415	14,17
631,874	14,22
632,332	14,11
632,791	14,13
633,249	14,12
633,708	13,97
634,166	13,94
634,624	13,96
635,082	13,86
635,54	13,72
635,998	13,73
636,455	13,53
636,913	13,38
637,37	13,32
637,828	13,21
638,285	13
638,742	12,81
639,199	12,82
639,656	12,63
640,113	12,57
640,57	12,42
641,027	12,24
641,483	12,22
641,94	11,96
642,396	11,83
642,852	11,87
643,309	11,58
643,765	11,26
644,221	11,12
644,676	11,37
645,132	10,98
645,588	10,8
646,043	10,79
646,499	10,49
646,954	10,5
647,409	10,29
647,864	10,31
648,319	10,13
648,774	9,91
649,229	10,01
649,684	9,89
650,139	9,69
650,593	9,66
651,047	9,64
651,502	9,49
651,956	9,5
652,41	9,48
652,864	9,44
653,318	9,45
653,772	9,4
654,225	9,34
654,679	9,26
655,133	9,08
655,586	9,22
656,039	9,1
656,492	8,97
656,946	9
657,399	8,97
657,851	8,97
658,304	8,69
658,757	8,7
659,209	8,57
659,662	8,52
660,114	8,36
660,567	8,35
661,019	8,24
661,471	8,14
661,923	8,1
662,375	8,02
662,826	7,92
663,278	7,87
663,73	7,61
664,181	7,68
664,632	7,52
665,084	7,46
665,535	7,4
665,986	7,43
666,437	7,3
666,888	7,28
667,338	7,17
667,789	7,18
668,24	7
668,69	7,14
669,14	6,99
669,591	6,98
670,041	7
670,491	7,06
670,941	7,06
671,391	7,02
671,84	6,98
672,29	7,04
672,74	7,07
673,189	7,2
673,638	7,23
674,088	7,31
674,537	7,21
674,986	7,37
675,435	7,37
675,883	7,35
676,332	7,48
676,781	7,52
677,229	7,64
677,678	7,66
678,126	7,74
678,574	7,78
679,022	7,99
679,47	8,05
679,918	8,17
680,366	8,19
680,814	8,36
681,261	8,46
681,709	8,6
682,156	8,76
682,604	8,78
683,051	9,05
683,498	9,12
683,945	9,26
684,392	9,41
684,839	9,62
685,286	9,78
685,732	9,94
686,179	10,16
686,625	10,47
687,071	10,63
687,518	10,94
687,964	11,11
688,41	11,51
688,856	11,84
689,301	12,06
689,747	12,59
690,193	12,86
690,638	13,25
691,084	13,56
691,529	14,17
691,974	14,66
692,419	15,07
692,864	15,69
693,309	16,31
693,754	16,75
694,199	17,34
694,643	17,93
695,088	18,6
695,532	19,12
695,977	19,89
696,421	20,3
696,865	21,04
697,309	21,85
697,753	22,37
698,197	23,29
698,64	23,84
699,084	24,3
699,527	25,07
699,971	25,91
700,414	26,56
700,857	27,13
701,3	27,78
701,743	28,74
702,186	29,29
702,629	29,8
703,072	30,48
703,515	31,12
703,957	31,79
704,399	32,51
704,842	33,27
705,284	33,51
705,726	34,48
706,168	34,87
706,61	35,43
707,052	36,12
707,494	36,75
707,935	37,36
708,377	37,73
708,818	38,24
709,26	38,98
709,701	39,67
710,142	40,38
710,583	40,9
711,024	41,2
711,465	41,88
711,905	42,23
712,346	42,76
712,787	43,54
713,227	44,08
713,667	44,49
714,108	45,21
714,548	45,62
714,988	46,26
715,428	46,91
715,868	47,11
716,307	47,59
716,747	48,25
717,186	48,77
717,626	49,1
718,065	49,67
718,504	50,44
718,944	50,67
719,383	51,13
719,822	51,79
720,261	52,31
720,699	52,4
721,138	53,14
721,576	53,31
722,015	53,6
722,453	54,3
722,892	54,85
723,33	55,08
723,768	55,29
724,206	55,6
724,644	56,39
725,081	56,75
725,519	56,98
725,957	57,34
726,394	57,73
726,832	58,12
727,269	58,59
727,706	58,95
728,143	59,45
728,58	59,42
729,017	59,74
729,454	59,9
729,89	60,4
730,327	60,93
730,764	61,01
731,2	61,45
731,636	61,88
732,072	61,63
732,509	62,19
732,945	62,47
733,38	62,54
733,816	62,27
734,252	63,02
734,688	63
735,123	63,83
735,559	63,62
735,994	64,06
736,429	63,78
736,864	64,25
737,299	64,43
737,734	64,68
738,169	64,95
738,604	65,01
739,038	65,33
739,473	65,66
739,907	65,74
740,342	65,68
740,776	65,78
741,21	65,54
741,644	65,92
742,078	65,57
742,512	66,05
742,946	65,92
743,379	66,7
743,813	66,23
744,246	66,25
744,68	66,64
745,113	66,51
745,546	66,73
745,979	67,03
746,412	66,73
746,845	67,38
747,278	66,95
747,711	66,92
748,143	67,11
748,576	67,1
749,008	67,5
749,441	67,4
749,873	67,59
750,305	67,17
750,737	67,25
751,169	67,08
751,601	67,62
752,032	67,21
752,464	67,4
752,896	67,46
753,327	67,54
753,758	67,58
754,19	67,74
754,621	67,62
755,052	67,79
755,483	67,7
755,914	67,72
756,344	67,55
756,775	68,21
757,206	67,83
757,636	67,91
758,066	67,6
758,497	67,52
758,927	67,98
759,357	67,99
759,787	67,75
760,217	67,6
760,647	67,93
761,076	67,54
761,506	67,74
761,935	67,73
762,365	67,45
762,794	67,77
763,223	67,73
763,653	67,75
764,082	67,81
764,51	67,73
764,939	67,57
765,368	67,78
765,797	68,14
766,225	67,87
766,654	67,88
767,082	67,94
767,51	68,03
767,938	67,49
768,367	67,93
768,795	67,68
769,222	68,01
769,65	67,81
770,078	68,24
770,505	67,77
770,933	67,69
771,36	67,86
771,788	68,1
772,215	67,86
772,642	68,01
773,069	67,64
773,496	67,87
773,923	67,8
774,349	68,22
774,776	68,18
775,203	67,72
775,629	67,97
776,055	68,14
776,482	68,21
776,908	67,54
777,334	68,02
777,76	68,06
778,186	68,09
778,611	68,11
779,037	68,41
779,463	67,86
779,888	67,88
780,314	67,89
780,739	67,86
781,164	68,16
781,589	67,88
782,014	67,93
782,439	68
782,864	67,92
783,289	67,92
783,713	68,54
784,138	67,85
784,562	68,11
784,987	68
785,411	68,12
785,835	68,3
786,259	67,82
786,683	68,34
787,107	68,31
787,531	68,35
787,954	68,38
788,378	68,17
788,802	68,33
789,225	67,89
789,648	68,24
790,071	68,48
790,495	68,74
790,918	68,32
791,34	68,55
791,763	68,2
792,186	68,77
792,609	68,36
793,031	68,62
793,454	68,3
793,876	68,39
794,298	68,76
794,721	68,57
795,143	68,53
795,565	68,52
795,986	68,72
796,408	68,42
796,83	68,74
797,252	68,53
797,673	68,54
798,094	68,81
798,516	68,44
798,937	68,87
799,358	68,73
799,779	68,58
800,2	68,33
800,621	68,87
801,042	68,67
801,462	68,56
801,883	68,62
802,303	68,68
802,724	68,4
803,144	68,93
803,564	68,7
803,984	69,01
804,404	68,81
804,824	68,74
805,244	69,11
805,664	68,77
806,084	69,02
806,503	68,81
806,923	68,94
807,342	68,57
807,761	68,67
808,18	69,29
808,599	68,92
809,018	68,63
809,437	69,17
809,856	68,7
810,275	68,66
810,693	69,1
811,112	68,66
811,53	69,35
811,949	69,17
812,367	68,99
812,785	69,44
813,203	69,24
813,621	69,03
814,039	69,17
814,457	69,44
814,874	69,33
815,292	69,34
815,709	69,18
816,127	69,06
816,544	69,02
816,961	69,08
817,378	68,98
817,795	69,38
818,212	69,4
818,629	69,38
819,046	69,4
819,462	69,16
819,879	69,46
820,295	69,2
820,712	69,58
821,128	69,26
821,544	69,18
821,96	69,63
822,376	69,66
822,792	69,27
823,208	69,29
823,624	69,68
824,039	69,68
824,455	69,81
824,87	69,75
825,286	69,69
825,701	69,73
826,116	69,49
826,531	69,29
826,946	69,39
827,361	69,69
827,776	69,89
828,19	69,72
828,605	69,47
829,02	69,58
829,434	69,66
829,848	69,93
830,263	69,75
830,677	69,49
831,091	69,58
831,505	69,64
831,919	69,69
832,332	70,14
832,746	69,61
833,16	69,64
833,573	69,58
833,987	69,6
834,4	69,52
834,813	70,09
835,226	69,64
835,639	70,07
836,052	69,49
836,465	69,96
836,878	69,94
837,29	69,41
837,703	70,38
838,116	69,94
838,528	69,63
838,94	69,67
839,352	70,02
839,765	69,74
840,177	70,37
840,589	69,91
841	69,4
841,412	70,21
841,824	69,8
