Data from F5__Relative__0__00012.txt Node

Date: Fri Feb 02 12:33:34 CET 2024
User: diatiterra
Spectrometer: HDX00911
Trigger mode: 0
Integration Time (sec): 6,000000E-3
Scans to average: 2
Nonlinearity correction enabled: false
Boxcar width: 0
Storing dark spectrum: false
XAxis mode: Wavelengths
Number of Pixels in Spectrum: 2068
>>>>>Begin Spectral Data<<<<<
194,468	96,83
195,025	66,9
195,581	98,11
196,138	78,79
196,694	93,97
197,251	86,89
197,807	88,93
198,363	69,38
198,919	65,19
199,474	74,44
200,03	66,77
200,586	63,41
201,141	65,71
201,696	77,95
202,251	68,97
202,806	59,37
203,361	73,12
203,916	69,23
204,471	72,67
205,025	68,64
205,58	67,07
206,134	64,94
206,688	66,55
207,242	72,84
207,796	79,39
208,35	65,35
208,904	76,15
209,457	64,61
210,011	69,48
210,564	69,26
211,117	67,71
211,67	74,25
212,223	70,32
212,776	69,91
213,329	70,42
213,881	73,49
214,434	68,56
214,986	74,44
215,538	78,18
216,09	69,42
216,642	63,58
217,194	68,6
217,746	72,85
218,297	84,98
218,849	69,84
219,4	76,43
219,951	74,17
220,502	77,78
221,053	80,36
221,604	83,88
222,155	73,87
222,705	72,78
223,256	85,12
223,806	71,34
224,356	80,7
224,906	69,62
225,456	70,76
226,006	69,3
226,556	71,15
227,106	70,9
227,655	74,07
228,204	68,34
228,754	74,76
229,303	67,67
229,852	79,86
230,401	75,39
230,949	76,95
231,498	75,78
232,047	77,03
232,595	69,97
233,143	71,86
233,691	74,04
234,239	75,99
234,787	81,44
235,335	67,32
235,883	80,28
236,43	63,4
236,978	75,33
237,525	65,41
238,072	67,49
238,619	65,94
239,166	66,67
239,713	83,33
240,26	65,53
240,806	71,06
241,353	68,65
241,899	68,91
242,445	68,49
242,991	76,95
243,537	75,44
244,083	67,52
244,629	64,69
245,174	76,92
245,72	77,52
246,265	72,15
246,81	70,96
247,355	65,66
247,9	67,54
248,445	78,39
248,99	78,1
249,534	84,59
250,079	69,08
250,623	71,38
251,168	71,09
251,712	70,78
252,256	69,8
252,8	69,38
253,343	67,19
253,887	65,62
254,43	72,52
254,974	73,36
255,517	70,33
256,06	76,67
256,603	71,96
257,146	71,24
257,689	66,44
258,232	82,94
258,774	76,71
259,317	77,27
259,859	77,67
260,401	71,71
260,943	67,92
261,485	75,8
262,027	69,35
262,569	76,24
263,11	65,26
263,652	69,97
264,193	80,2
264,734	75,52
265,275	72,32
265,816	79,73
266,357	68,84
266,898	76,51
267,438	62,98
267,979	79,37
268,519	76,62
269,059	70,59
269,6	73
270,14	73,38
270,68	70,77
271,219	66,44
271,759	65,78
272,298	70,93
272,838	79,1
273,377	65,88
273,916	71,67
274,455	77,7
274,994	76,67
275,533	74,56
276,072	72,33
276,61	73,91
277,149	68,9
277,687	65,12
278,225	72,13
278,763	69,9
279,301	70,14
279,839	65,67
280,377	71,28
280,914	71,02
281,452	69,26
281,989	72,62
282,526	66,67
283,064	78,14
283,601	72,67
284,137	67,12
284,674	65,26
285,211	67,48
285,747	77,66
286,284	69,18
286,82	62,46
287,356	70,11
287,892	69,82
288,428	73,24
288,964	69,31
289,5	68,4
290,035	64,86
290,571	71,23
291,106	68,23
291,641	69,05
292,176	69,42
292,711	71,81
293,246	68,47
293,781	65,02
294,315	77,78
294,85	63,61
295,384	64,52
295,918	67,91
296,453	71,18
296,987	61,67
297,52	65,33
298,054	75,97
298,588	67,81
299,121	72,89
299,655	64,17
300,188	73,93
300,721	71,04
301,254	81,27
301,787	73,96
302,32	71,82
302,853	72,3
303,385	74,82
303,918	69,23
304,45	65,27
304,982	68,09
305,514	74,14
306,046	61,54
306,578	71,02
307,11	69
307,641	72,79
308,173	74,09
308,704	77,29
309,236	66,89
309,767	60,27
310,298	59,68
310,829	69,68
311,359	68,3
311,89	69,66
312,421	69,8
312,951	70,98
313,481	72,28
314,012	72,73
314,542	66,55
315,072	70,47
315,601	61,86
316,131	72,85
316,661	69,8
317,19	71,05
317,72	65,03
318,249	70,49
318,778	69,61
319,307	62,93
319,836	68,84
320,365	71,79
320,893	60,78
321,422	69,67
321,95	68,62
322,479	68,64
323,007	69,1
323,535	66,67
324,063	66,77
324,591	76,92
325,118	66,88
325,646	76,26
326,173	74,58
326,701	75
327,228	69,87
327,755	67,21
328,282	58,03
328,809	64,93
329,336	70,14
329,862	63,32
330,389	63,16
330,915	68,12
331,441	69,66
331,968	62,42
332,494	66,23
333,02	67,01
333,545	65,44
334,071	66,67
334,597	63,14
335,122	56,33
335,648	67,21
336,173	62,21
336,698	60,32
337,223	62,58
337,748	64,42
338,272	60,62
338,797	61,11
339,322	51,07
339,846	54,29
340,37	61,99
340,894	56,92
341,419	64,65
341,942	62,74
342,466	59,82
342,99	56,4
343,514	58,06
344,037	52,25
344,56	60,23
345,084	52,51
345,607	57,89
346,13	57,43
346,653	58,62
347,175	56,87
347,698	53,5
348,221	56,7
348,743	50,81
349,265	55,2
349,787	49,86
350,309	51,69
350,831	49,75
351,353	49,74
351,875	51,95
352,397	53,42
352,918	46,84
353,439	47,9
353,961	50,37
354,482	51,28
355,003	49,37
355,524	49,87
356,044	46,73
356,565	43,03
357,086	45,88
357,606	45,5
358,126	48,59
358,646	54,29
359,167	42,33
359,687	40,84
360,206	42,95
360,726	44,76
361,246	47,05
361,765	48,09
362,285	43,62
362,804	42,76
363,323	43,92
363,842	40,08
364,361	41,87
364,88	39,14
365,398	38,4
365,917	41,81
366,435	38,26
366,954	37,82
367,472	38,61
367,99	36,85
368,508	37
369,026	32,77
369,544	37,32
370,061	33,81
370,579	29,26
371,096	34,72
371,613	33,88
372,131	36,67
372,648	34,79
373,165	35,39
373,681	33,23
374,198	31,92
374,715	31,29
375,231	31,18
375,747	35,98
376,264	30,69
376,78	32,01
377,296	27,6
377,812	27,78
378,327	31,63
378,843	28,44
379,359	29,21
379,874	27,06
380,389	31,27
380,905	28,01
381,42	27,34
381,935	26,96
382,449	26,44
382,964	25,86
383,479	27,4
383,993	23
384,508	24,89
385,022	23,18
385,536	23,65
386,05	19,67
386,564	23,65
387,078	23,23
387,592	23,35
388,105	23,27
388,619	22,97
389,132	20,11
389,645	19,01
390,158	22,52
390,671	20,09
391,184	21,2
391,697	21,37
392,21	18,75
392,722	20,35
393,235	17,82
393,747	18,43
394,259	19,71
394,771	19,01
395,283	18
395,795	18,69
396,307	19
396,818	16,63
397,33	18,06
397,841	18,49
398,353	18,15
398,864	16,72
399,375	15,58
399,886	16,09
400,397	14,52
400,907	15,49
401,418	13,78
401,928	13,98
402,439	15,25
402,949	14,48
403,459	14,46
403,969	13,86
404,479	13,1
404,989	13,22
405,498	12,18
406,008	12,7
406,517	12,74
407,027	11,85
407,536	11,49
408,045	12,11
408,554	11,77
409,063	9,59
409,572	10,33
410,08	10,34
410,589	9,52
411,097	9,44
411,606	9,12
412,114	8,77
412,622	7,84
413,13	8,19
413,638	8,23
414,145	6,92
414,653	7,31
415,16	6,88
415,668	6,9
416,175	6,96
416,682	6,54
417,189	6,45
417,696	7
418,203	5,95
418,71	6,15
419,216	6,49
419,723	6,03
420,229	6,08
420,735	6,02
421,242	5,79
421,748	6,13
422,254	5,53
422,759	5,72
423,265	5,66
423,771	5,83
424,276	5,62
424,781	5,68
425,287	5,5
425,792	5,29
426,297	5,14
426,802	5,07
427,306	5,15
427,811	5,13
428,316	5,04
428,82	4,96
429,324	5,08
429,829	5,11
430,333	4,77
430,837	4,79
431,34	4,84
431,844	5
432,348	4,7
432,851	4,87
433,355	4,74
433,858	4,43
434,361	4,56
434,864	4,87
435,367	4,64
435,87	4,74
436,373	4,46
436,876	4,69
437,378	4,34
437,88	4,48
438,383	4,37
438,885	4,39
439,387	4,26
439,889	4,3
440,391	4,46
440,892	4,09
441,394	4,21
441,896	4,46
442,397	4,21
442,898	4,25
443,399	4,52
443,9	4,13
444,401	4,29
444,902	4,53
445,403	4,11
445,903	4,51
446,404	4,43
446,904	4,3
447,405	3,93
447,905	4,46
448,405	4,21
448,905	4
449,404	4,34
449,904	4,39
450,404	4,42
450,903	4,09
451,403	4,47
451,902	4,24
452,401	4,22
452,9	4,44
453,399	4,48
453,898	4,19
454,396	4,53
454,895	4,47
455,393	4,34
455,892	4,62
456,39	4,21
456,888	4,47
457,386	4,45
457,884	4,4
458,382	4,58
458,879	4,19
459,377	4,54
459,874	4,42
460,372	4,32
460,869	4,26
461,366	4,51
461,863	4,14
462,36	4,58
462,857	4,47
463,353	4,2
463,85	4,22
464,346	4,18
464,843	4,14
465,339	4,26
465,835	4,27
466,331	4,45
466,827	4,26
467,323	4,47
467,818	4,06
468,314	4,48
468,809	4,24
469,305	4,11
469,8	4,49
470,295	4,24
470,79	4,31
471,285	4,28
471,78	4,34
472,274	4,28
472,769	4,23
473,263	4,17
473,758	4,26
474,252	4,24
474,746	4,05
475,24	4,25
475,734	4,27
476,228	4,28
476,721	4,22
477,215	4,18
477,708	4,17
478,202	4,08
478,695	4,37
479,188	4,06
479,681	4,2
480,174	3,93
480,667	4,29
481,159	4,34
481,652	4,3
482,144	4,49
482,637	4,42
483,129	4,38
483,621	4,35
484,113	4,33
484,605	4,4
485,097	4,3
485,588	4,32
486,08	4,3
486,571	4,47
487,063	4,25
487,554	4,34
488,045	4,25
488,536	4,41
489,027	4,42
489,518	4,33
490,008	4,17
490,499	4,53
490,989	4,35
491,48	4,45
491,97	4,48
492,46	4,7
492,95	4,51
493,44	4,57
493,93	4,45
494,419	4,62
494,909	4,65
495,398	4,56
495,888	4,73
496,377	4,7
496,866	4,67
497,355	4,75
497,844	5
498,333	4,94
498,821	5,04
499,31	4,91
499,798	4,98
500,287	5,14
500,775	5,13
501,263	5,41
501,751	5,36
502,239	5,25
502,727	5,62
503,215	5,84
503,702	5,6
504,19	5,78
504,677	5,66
505,164	6,06
505,651	6,08
506,139	6,08
506,625	6,26
507,112	6,33
507,599	6,54
508,086	6,67
508,572	6,83
509,058	6,92
509,545	7,14
510,031	7,14
510,517	7,6
511,003	7,63
511,489	7,66
511,974	7,86
512,46	8,28
512,946	8,61
513,431	8,46
513,916	8,93
514,401	9,13
514,887	9,04
515,371	9,47
515,856	9,89
516,341	9,88
516,826	10,35
517,31	10,49
517,795	10,56
518,279	11,11
518,763	11,31
519,247	11,68
519,731	12
520,215	12,31
520,699	12,56
521,182	12,99
521,666	13,01
522,149	13,45
522,633	13,81
523,116	14,45
523,599	14,6
524,082	14,64
524,565	14,88
525,048	14,96
525,53	15,78
526,013	15,9
526,495	16,44
526,978	16,6
527,46	16,66
527,942	17,42
528,424	17,13
528,906	17,53
529,388	17,68
529,87	18,37
530,351	18,03
530,833	18,22
531,314	18,77
531,795	18,94
532,277	19,21
532,758	19,48
533,238	19,43
533,719	19,27
534,2	19,72
534,681	19,67
535,161	19,75
535,642	20,16
536,122	20,17
536,602	20,27
537,082	20,43
537,562	20,48
538,042	20,46
538,522	20,77
539,001	20,9
539,481	20,34
539,96	20,94
540,44	21
540,919	20,94
541,398	21,01
541,877	21,33
542,356	21,26
542,835	21,42
543,313	21,22
543,792	21,68
544,27	21,12
544,749	21,49
545,227	21,66
545,705	21,75
546,183	21,55
546,661	21,87
547,139	22,11
547,616	22,28
548,094	21,99
548,571	22,05
549,049	22,11
549,526	22,09
550,003	22,01
550,48	22,22
550,957	22,12
551,434	22,18
551,911	22,05
552,387	22,08
552,864	22,19
553,34	22,29
553,817	22,1
554,293	21,99
554,769	22,41
555,245	22,08
555,721	22,11
556,197	21,93
556,672	21,89
557,148	21,97
557,623	22,03
558,099	22,01
558,574	21,67
559,049	21,64
559,524	21,64
559,999	21,86
560,474	21,47
560,948	21,28
561,423	21,24
561,897	21,14
562,372	21,28
562,846	21,06
563,32	20,68
563,794	20,72
564,268	20,56
564,742	20,19
565,216	20,29
565,69	19,68
566,163	19,87
566,636	19,34
567,11	19,54
567,583	18,96
568,056	18,89
568,529	18,69
569,002	18,72
569,475	18,2
569,947	17,95
570,42	18,01
570,892	17,58
571,365	17,55
571,837	17,48
572,309	17,24
572,781	17,06
573,253	16,54
573,725	16,67
574,197	16,3
574,668	16,05
575,14	16,31
575,611	15,7
576,082	16,01
576,554	15,49
577,025	15,36
577,496	15,28
577,967	15,07
578,437	15,05
578,908	14,93
579,379	14,77
579,849	14,74
580,319	14,47
580,79	14,34
581,26	14,16
581,73	13,99
582,2	13,82
582,669	13,91
583,139	13,91
583,609	13,66
584,078	13,56
584,548	13,61
585,017	13,54
585,486	13,41
585,955	13,27
586,424	13,27
586,893	12,86
587,362	12,87
587,83	12,88
588,299	12,67
588,767	12,67
589,236	12,54
589,704	12,73
590,172	12,6
590,64	12,54
591,108	12,29
591,576	12,08
592,043	12,35
592,511	11,93
592,978	11,86
593,446	12
593,913	12,09
594,38	12,02
594,847	12
595,314	11,87
595,781	11,93
596,248	11,71
596,715	11,59
597,181	11,6
597,647	11,7
598,114	11,74
598,58	11,61
599,046	11,51
599,512	11,43
599,978	11,5
600,444	11,43
600,91	11,52
601,375	11,32
601,841	11,22
602,306	11,54
602,771	11,3
603,236	11,16
603,702	11,22
604,167	11,16
604,631	11,07
605,096	10,96
605,561	10,94
606,025	10,77
606,49	10,75
606,954	10,77
607,418	10,76
607,882	10,45
608,347	10,58
608,81	10,52
609,274	10,41
609,738	10,55
610,202	10,23
610,665	10,11
611,128	10,06
611,592	9,96
612,055	10,05
612,518	9,84
612,981	9,79
613,444	9,55
613,907	9,63
614,369	9,59
614,832	9,6
615,294	9,33
615,757	9,54
616,219	9,27
616,681	9,21
617,143	9,21
617,605	9,13
618,067	9
618,529	8,96
618,99	8,9
619,452	8,81
619,913	8,87
620,375	8,65
620,836	8,75
621,297	8,77
621,758	8,64
622,219	8,64
622,68	8,47
623,14	8,47
623,601	8,42
624,061	8,44
624,522	8,45
624,982	8,41
625,442	8,27
625,902	8,46
626,362	8,45
626,822	8,32
627,282	8,29
627,742	8,32
628,201	8,25
628,661	8,3
629,12	8,28
629,579	8,33
630,038	8,23
630,497	8,23
630,956	8,18
631,415	8,21
631,874	8,14
632,332	8,19
632,791	8,11
633,249	8,02
633,708	8,07
634,166	8,02
634,624	7,93
635,082	7,72
635,54	7,74
635,998	7,66
636,455	7,69
636,913	7,65
637,37	7,58
637,828	7,56
638,285	7,29
638,742	7,14
639,199	7,29
639,656	7,1
640,113	7,06
640,57	6,91
641,027	6,95
641,483	6,74
641,94	6,66
642,396	6,53
642,852	6,52
643,309	6,36
643,765	6,14
644,221	6,19
644,676	6
645,132	6,07
645,588	5,93
646,043	5,84
646,499	5,75
646,954	5,69
647,409	5,69
647,864	5,59
648,319	5,42
648,774	5,37
649,229	5,41
649,684	5,43
650,139	5,26
650,593	5,31
651,047	5,32
651,502	5,26
651,956	5,23
652,41	5,14
652,864	5,18
653,318	5,08
653,772	5,16
654,225	5,16
654,679	5,08
655,133	5,01
655,586	5,05
656,039	5,08
656,492	5,02
656,946	5,03
657,399	5,01
657,851	4,89
658,304	4,94
658,757	4,86
659,209	4,88
659,662	4,76
660,114	4,76
660,567	4,69
661,019	4,73
661,471	4,65
661,923	4,73
662,375	4,66
662,826	4,68
663,278	4,5
663,73	4,53
664,181	4,62
664,632	4,62
665,084	4,57
665,535	4,56
665,986	4,47
666,437	4,55
666,888	4,56
667,338	4,45
667,789	4,52
668,24	4,59
668,69	4,56
669,14	4,63
669,591	4,62
670,041	4,69
670,491	4,73
670,941	4,79
671,391	4,77
671,84	4,78
672,29	4,86
672,74	4,92
673,189	4,98
673,638	5,05
674,088	5,06
674,537	5,12
674,986	5,17
675,435	5,23
675,883	5,29
676,332	5,52
676,781	5,51
677,229	5,57
677,678	5,66
678,126	5,71
678,574	5,71
679,022	5,94
679,47	6,04
679,918	6,16
680,366	6,2
680,814	6,36
681,261	6,36
681,709	6,52
682,156	6,6
682,604	6,72
683,051	6,66
683,498	6,8
683,945	6,97
684,392	6,95
684,839	7,02
685,286	7,29
685,732	7,27
686,179	7,34
686,625	7,49
687,071	7,58
687,518	7,66
687,964	7,7
688,41	7,92
688,856	8,1
689,301	8,16
689,747	8,4
690,193	8,7
690,638	8,89
691,084	9,12
691,529	9,56
691,974	9,92
692,419	10,41
692,864	10,75
693,309	11,22
693,754	11,54
694,199	12,16
694,643	12,72
695,088	13,25
695,532	13,86
695,977	14,39
696,421	15,04
696,865	15,82
697,309	16,3
697,753	17,04
698,197	17,99
698,64	18,61
699,084	19,13
699,527	19,87
699,971	20,68
700,414	21,41
700,857	22,17
701,3	23,04
701,743	23,62
702,186	24,49
702,629	25,4
703,072	25,93
703,515	26,97
703,957	27,49
704,399	28,42
704,842	29,33
705,284	29,91
705,726	30,91
706,168	31,63
706,61	32,12
707,052	33,04
707,494	33,73
707,935	34,59
708,377	35,24
708,818	36,43
709,26	37,03
709,701	37,88
710,142	38,69
710,583	39,16
711,024	39,93
711,465	40,81
711,905	41,68
712,346	42,45
712,787	42,99
713,227	43,89
713,667	44,71
714,108	45,57
714,548	46,05
714,988	47,06
715,428	47,67
715,868	48,23
716,307	49,08
716,747	49,97
717,186	50,63
717,626	51,45
718,065	51,85
718,504	52,91
718,944	53,46
719,383	54,33
719,822	54,79
720,261	55,73
720,699	55,85
721,138	56,81
721,576	57,24
722,015	58,04
722,453	58,54
722,892	58,9
723,33	59,91
723,768	60,49
724,206	61,01
724,644	61,74
725,081	62,35
725,519	62,37
725,957	63,08
726,394	63,96
726,832	64,67
727,269	64,94
727,706	65,37
728,143	66,06
728,58	66,45
729,017	66,9
729,454	67,29
729,89	67,56
730,327	68,39
730,764	68,37
731,2	69,04
731,636	69,48
732,072	69,54
732,509	69,75
732,945	70,43
733,38	70,42
733,816	70,51
734,252	71,17
734,688	71,51
735,123	71,81
735,559	72,37
735,994	72,65
736,429	72,86
736,864	73,09
737,299	73,39
737,734	73,29
738,169	73,57
738,604	74,05
739,038	74,37
739,473	74,51
739,907	74,56
740,342	74,52
740,776	74,9
741,21	74,88
741,644	74,76
742,078	75,11
742,512	75,41
742,946	75,68
743,379	76,16
743,813	75,83
744,246	76,09
744,68	76,21
745,113	76,17
745,546	76,36
745,979	76,23
746,412	76,27
746,845	76,58
747,278	76,76
747,711	76,23
748,143	76,82
748,576	76,58
749,008	76,74
749,441	76,64
749,873	76,71
750,305	76,71
750,737	76,81
751,169	76,29
751,601	76,7
752,032	76,74
752,464	76,97
752,896	76,75
753,327	76,57
753,758	76,74
754,19	77,2
754,621	76,98
755,052	77,18
755,483	77,08
755,914	76,5
756,344	76,75
756,775	76,94
757,206	76,48
757,636	76,82
758,066	77,15
758,497	76,89
758,927	76,86
759,357	77,39
759,787	76,79
760,217	76,73
760,647	76,83
761,076	77,16
761,506	76,81
761,935	76,6
762,365	76,7
762,794	76,8
763,223	76,74
763,653	76,62
764,082	76,5
764,51	76,61
764,939	76,6
765,368	76,45
765,797	76,69
766,225	76,56
766,654	76,38
767,082	76,92
767,51	76,64
767,938	76,5
768,367	76,32
768,795	76,72
769,222	76,46
769,65	76,59
770,078	76,26
770,505	76,03
770,933	76,15
771,36	76,28
771,788	76,77
772,215	76,43
772,642	76,59
773,069	75,99
773,496	76,19
773,923	76,05
774,349	76,07
774,776	76,3
775,203	76,07
775,629	76,09
776,055	76,37
776,482	76,56
776,908	75,88
777,334	76,26
777,76	76,31
778,186	76,18
778,611	76,33
779,037	76,34
779,463	75,71
779,888	76,01
780,314	76,07
780,739	75,91
781,164	75,76
781,589	75,56
782,014	75,87
782,439	75,95
782,864	75,6
783,289	75,61
783,713	75,98
784,138	75,86
784,562	76,04
784,987	75,98
785,411	75,82
785,835	75,77
786,259	75,66
786,683	76
787,107	75,89
787,531	75,54
787,954	75,88
788,378	76,02
788,802	76,08
789,225	75,59
789,648	75,8
790,071	75,89
790,495	75,79
790,918	76,04
791,34	76,06
791,763	75,6
792,186	75,94
792,609	75,39
793,031	75,59
793,454	75,77
793,876	75,61
794,298	76,04
794,721	76,14
795,143	75,24
795,565	75,4
795,986	75,87
796,408	75,74
796,83	75,86
797,252	75,46
797,673	75,97
798,094	75,69
798,516	75,59
798,937	76,1
799,358	75,56
799,779	75,53
800,2	75,25
800,621	76,19
801,042	75,56
801,462	75,47
801,883	75,58
802,303	75,61
802,724	75,62
803,144	75,8
803,564	75,67
803,984	75,86
804,404	75,51
804,824	75,84
805,244	75,63
805,664	75,69
806,084	75,59
806,503	75,78
806,923	75,63
807,342	75,28
807,761	75,26
808,18	75,7
808,599	75,61
809,018	75,47
809,437	75,88
809,856	75,26
810,275	75,5
810,693	75,87
811,112	75,23
811,53	75,97
811,949	75,38
812,367	75,49
812,785	75,71
813,203	75,79
813,621	75,6
814,039	75,44
814,457	75,76
814,874	75,74
815,292	75,7
815,709	75,46
816,127	75,47
816,544	75,74
816,961	75,49
817,378	75,6
817,795	75
818,212	75,46
818,629	75,6
819,046	75,25
819,462	75,23
819,879	75,44
820,295	75,47
820,712	75,72
821,128	75,48
821,544	75,63
821,96	75,39
822,376	75,55
822,792	75,28
823,208	75,32
823,624	75,6
824,039	75,34
824,455	75,73
824,87	75,19
825,286	75,63
825,701	75,37
826,116	75,44
826,531	75,21
826,946	75,39
827,361	75,34
827,776	75,53
828,19	75,89
828,605	75,34
829,02	75,32
829,434	75,33
829,848	75,57
830,263	75,36
830,677	75,45
831,091	75,43
831,505	75,38
831,919	75,13
832,332	75,32
832,746	75,26
833,16	75,25
833,573	75,01
833,987	75,49
834,4	75,54
834,813	75,57
835,226	75,16
835,639	75,71
836,052	75,52
836,465	75,72
836,878	75,3
837,29	75,06
837,703	75,51
838,116	75,55
838,528	75,11
838,94	75,42
839,352	75,46
839,765	75,51
840,177	75,52
840,589	75,24
841	75,14
841,412	75,49
841,824	75,06
842,235	75,46
842,647	75,39
843,058	75,44
843,47	75
843,881	75,49
844,292	75,55
844,703	75
845,114	75,13
