Data from G2__Relative__0__00016.txt Node

Date: Fri Feb 02 12:34:13 CET 2024
User: diatiterra
Spectrometer: HDX00911
Trigger mode: 0
Integration Time (sec): 6,000000E-3
Scans to average: 2
Nonlinearity correction enabled: false
Boxcar width: 0
Storing dark spectrum: false
XAxis mode: Wavelengths
Number of Pixels in Spectrum: 2068
>>>>>Begin Spectral Data<<<<<
194,468	89,68
195,025	82,76
195,581	96,23
196,138	81,06
196,694	88,94
197,251	80,74
197,807	82,66
198,363	67,19
198,919	65,19
199,474	74,76
200,03	69,01
200,586	75,71
201,141	67,62
201,696	70,19
202,251	72,1
202,806	61,96
203,361	74,06
203,916	63,91
204,471	76,85
205,025	61,83
205,58	69,79
206,134	63,41
206,688	70,65
207,242	62,65
207,796	74,66
208,35	64,13
208,904	65,14
209,457	66,23
210,011	74,68
210,564	67,64
211,117	71,16
211,67	68,56
212,223	75,81
212,776	68,97
213,329	64,95
213,881	72,15
214,434	65,87
214,986	71,25
215,538	72,96
216,09	68,73
216,642	64,9
217,194	70,12
217,746	68,54
218,297	80,2
218,849	75,08
219,4	78,57
219,951	69,67
220,502	69,7
221,053	77,5
221,604	76,19
222,155	72,9
222,705	68,67
223,256	80,28
223,806	77,85
224,356	80,7
224,906	65,19
225,456	69,77
226,006	66,46
226,556	79,49
227,106	68,42
227,655	69,44
228,204	70,12
228,754	67,51
229,303	71,67
229,852	88,49
230,401	77,92
230,949	73,83
231,498	77,16
232,047	79,05
232,595	71,62
233,143	69,16
233,691	68,59
234,239	71,73
234,787	74,57
235,335	66,34
235,883	76,12
236,43	76,14
236,978	75
237,525	69,81
238,072	70,9
238,619	70,94
239,166	69,26
239,713	79,17
240,26	68,32
240,806	70,42
241,353	71,95
241,899	67,95
242,445	75,68
242,991	81,82
243,537	71,93
244,083	71,38
244,629	72,19
245,174	80,45
245,72	71,34
246,265	80,87
246,81	75,91
247,355	72,05
247,9	69,84
248,445	72,58
248,99	72,88
249,534	80,82
250,079	73,68
250,623	72,73
251,168	79,59
251,712	77,6
252,256	81,54
252,8	74,38
253,343	69,09
253,887	74,76
254,43	72,19
254,974	72,7
255,517	65
256,06	70,33
256,603	77,36
257,146	71,9
257,689	75,25
258,232	82,94
258,774	78,42
259,317	69,48
259,859	75
260,401	67,76
260,943	72,01
261,485	77,22
262,027	69,35
262,569	77,56
263,11	72,73
263,652	82,94
264,193	74,06
264,734	81,12
265,275	73,01
265,816	73,31
266,357	69,52
266,898	81,88
267,438	70,59
267,979	80,42
268,519	71,43
269,059	71,63
269,6	74
270,14	60,41
270,68	76,41
271,219	71,81
271,759	69,1
272,298	68,05
272,838	73,95
273,377	69,93
273,916	76,11
274,455	74,91
274,994	74,81
275,533	73,5
276,072	79,45
276,61	71,38
277,149	75,27
277,687	76,08
278,225	77,35
278,763	62,28
279,301	70,86
279,839	64
280,377	78,89
280,914	81,63
281,452	70,61
281,989	75,67
282,526	73,4
283,064	78,14
283,601	70,5
284,137	76,71
284,674	70,78
285,211	69,3
285,747	70,1
286,284	73,29
286,82	74,74
287,356	74,38
287,892	80
288,428	65,85
288,964	72,56
289,5	80,21
290,035	66,22
290,571	71,58
291,106	69,57
291,641	76,87
292,176	56,36
292,711	80,2
293,246	71,34
293,781	63,6
294,315	73,18
294,85	71,48
295,384	73,48
295,918	70,27
296,453	63,89
296,987	62,67
297,52	75,18
298,054	63,6
298,588	69,52
299,121	71,48
299,655	64,17
300,188	73,93
300,721	61,95
301,254	74,5
301,787	66,67
302,32	67,35
302,853	69,93
303,385	78,42
303,918	74,48
304,45	71,7
304,982	64,54
305,514	61,98
306,046	68,9
306,578	68,55
307,11	78,6
307,641	65,65
308,173	65,69
308,704	67,46
309,236	57,34
309,767	66,44
310,298	70,48
310,829	78,34
311,359	61,44
311,89	63,1
312,421	62,75
312,951	61,51
313,481	72,66
314,012	66,91
314,542	66,9
315,072	70,18
315,601	67,63
316,131	69,42
316,661	70,13
317,19	73,03
317,72	66,99
318,249	68,4
318,778	77,03
319,307	70,09
319,836	76,81
320,365	64,1
320,893	64,66
321,422	69,67
321,95	70,34
322,479	68,99
323,007	60,76
323,535	71,52
324,063	56,23
324,591	72,03
325,118	69,77
325,646	75,54
326,173	68,23
326,701	71,48
327,228	68,54
327,755	60,98
328,282	72,46
328,809	70,14
329,336	60,76
329,862	65,83
330,389	64,47
330,915	64,43
331,441	65,52
331,968	63,76
332,494	60
333,02	65,65
333,545	65,75
334,071	64,15
334,597	61,86
335,122	60,76
335,648	67,86
336,173	59,93
336,698	58,1
337,223	60
337,748	64,1
338,272	59,38
338,797	69,93
339,322	55,05
339,846	63,21
340,37	62,73
340,894	51,89
341,419	58,6
341,942	57,64
342,466	56,75
342,99	53,96
343,514	54,17
344,037	52,53
344,56	52,34
345,084	57,82
345,607	53,95
346,13	49,56
346,653	50,29
347,175	49,18
347,698	51,54
348,221	51,4
348,743	40,32
349,265	52,27
349,787	42,25
350,309	52,53
350,831	44,55
351,353	47,7
351,875	44,94
352,397	51,14
352,918	41,45
353,439	44,94
353,961	48,15
354,482	48,72
355,003	49,37
355,524	43,22
356,044	46,26
356,565	47,51
357,086	41,87
357,606	39,95
358,126	45,07
358,646	41,19
359,167	42,98
359,687	42,53
360,206	38,64
360,726	44,32
361,246	44,51
361,765	44,7
362,285	42,13
362,804	41,15
363,323	42,27
363,842	39,26
364,361	43,82
364,88	42,01
365,398	43,33
365,917	42,21
366,435	34,57
366,954	34,65
367,472	37,29
367,99	36,3
368,508	36,62
369,026	37,66
369,544	34,15
370,061	34,52
370,579	36,14
371,096	34,72
371,613	36,03
372,131	35,6
372,648	31,43
373,165	33,56
373,681	32,74
374,198	34,43
374,715	32,82
375,231	33,07
375,747	36,63
376,264	28,55
376,78	29,94
377,296	27,46
377,812	29,58
378,327	30,16
378,843	28,03
379,359	27,67
379,874	27,72
380,389	30,25
380,905	29,72
381,42	26,33
381,935	28,27
382,449	27,24
382,964	25,63
383,479	27,16
383,993	25,22
384,508	24,89
385,022	22,2
385,536	25,21
386,05	24,27
386,564	24,36
387,078	24,65
387,592	23,15
388,105	22,57
388,619	22,88
389,132	22,39
389,645	21,83
390,158	21,25
390,671	21,45
391,184	19,45
391,697	20,73
392,21	22,71
392,722	23,06
393,235	18,35
393,747	20,25
394,259	21,78
394,771	22,03
395,283	21,72
395,795	20,06
396,307	17,96
396,818	20,75
397,33	19,93
397,841	18,35
398,353	19,47
398,864	18,18
399,375	17,98
399,886	17,14
400,397	17
400,907	17,26
401,418	16,48
401,928	16,27
402,439	15,75
402,949	15,44
403,459	16,11
403,969	15,57
404,479	15,68
404,989	13,56
405,498	13,75
406,008	14,27
406,517	13,71
407,027	12,54
407,536	13,43
408,045	13,03
408,554	12,76
409,063	11,95
409,572	11,77
410,08	11,55
410,589	10,79
411,097	10,62
411,606	10,23
412,114	10,16
412,622	9,47
413,13	9,78
413,638	9,56
414,145	8,72
414,653	9,3
415,16	8,71
415,668	8,55
416,175	8,35
416,682	7,81
417,189	7,75
417,696	8,12
418,203	7,66
418,71	7,56
419,216	7,59
419,723	7,46
420,229	7,16
420,735	7,02
421,242	6,6
421,748	7,01
422,254	6,25
422,759	7,2
423,265	6,73
423,771	7,03
424,276	6,59
424,781	6,72
425,287	6,6
425,792	6,39
426,297	5,96
426,802	6,33
427,306	6,51
427,811	6,75
428,316	6,41
428,82	6,16
429,324	6,32
429,829	6,3
430,333	5,99
430,837	6,04
431,34	6,05
431,844	6,01
432,348	5,97
432,851	6
433,355	5,87
433,858	6,28
434,361	6,14
434,864	5,7
435,367	5,49
435,87	5,64
436,373	5,62
436,876	5,52
437,378	5,79
437,88	5,72
438,383	5,6
438,885	5,62
439,387	5,43
439,889	5,5
440,391	5,78
440,892	5,03
441,394	5,41
441,896	5,61
442,397	5,26
442,898	5,38
443,399	5,47
443,9	5,42
444,401	5,27
444,902	5,61
445,403	5,43
445,903	5,39
446,404	5,42
446,904	5,32
447,405	5,72
447,905	5,61
448,405	5,22
448,905	5,29
449,404	5,63
449,904	5,44
450,404	5,56
450,903	5,41
451,403	5,68
451,902	5,5
452,401	5,45
452,9	5,38
453,399	5,74
453,898	5,56
454,396	5,65
454,895	5,66
455,393	5,54
455,892	5,74
456,39	5,45
456,888	5,55
457,386	5,41
457,884	5,35
458,382	5,6
458,879	5,17
459,377	5,69
459,874	5,61
460,372	5,59
460,869	5,66
461,366	5,47
461,863	5,57
462,36	5,74
462,857	5,48
463,353	5,48
463,85	5,45
464,346	5,61
464,843	5,42
465,339	5,31
465,835	5,43
466,331	5,34
466,827	5,77
467,323	5,52
467,818	5,43
468,314	5,45
468,809	5,56
469,305	5,35
469,8	5,4
470,295	5,44
470,79	5,47
471,285	5,59
471,78	5,41
472,274	5,59
472,769	5,5
473,263	5,55
473,758	5,55
474,252	5,41
474,746	5,44
475,24	5,29
475,734	5,43
476,228	5,4
476,721	5,41
477,215	5,39
477,708	5,77
478,202	5,3
478,695	5,52
479,188	5,51
479,681	5,31
480,174	5,4
480,667	5,61
481,159	5,62
481,652	5,5
482,144	5,57
482,637	5,55
483,129	5,47
483,621	5,56
484,113	5,45
484,605	5,64
485,097	5,52
485,588	5,56
486,08	5,72
486,571	5,46
487,063	5,56
487,554	5,41
488,045	5,51
488,536	5,61
489,027	5,66
489,518	5,75
490,008	5,49
490,499	5,54
490,989	5,62
491,48	5,77
491,97	5,59
492,46	5,66
492,95	5,59
493,44	5,91
493,93	5,92
494,419	5,8
494,909	5,82
495,398	5,7
495,888	5,82
496,377	5,97
496,866	6
497,355	6,23
497,844	6,2
498,333	6,08
498,821	6,19
499,31	6,12
499,798	6,32
500,287	6,42
500,775	6,35
501,263	6,51
501,751	6,57
502,239	6,46
502,727	6,62
503,215	6,64
503,702	6,7
504,19	6,75
504,677	6,84
505,164	7,05
505,651	7,35
506,139	7,26
506,625	7,16
507,112	7,44
507,599	7,42
508,086	7,66
508,572	7,64
509,058	7,8
509,545	7,76
510,031	8,08
510,517	8,26
511,003	8,39
511,489	8,32
511,974	8,48
512,46	8,64
512,946	9,03
513,431	9,03
513,916	9,3
514,401	9,36
514,887	9,44
515,371	9,63
515,856	9,86
516,341	9,94
516,826	10,21
517,31	10,36
517,795	10,75
518,279	11,11
518,763	11,12
519,247	11,17
519,731	11,5
520,215	12,02
520,699	11,94
521,182	12,45
521,666	12,56
522,149	12,75
522,633	13,06
523,116	13,02
523,599	13,49
524,082	13,67
524,565	13,81
525,048	14,08
525,53	14,25
526,013	14,84
526,495	14,86
526,978	15,04
527,46	15,36
527,942	15,56
528,424	15,73
528,906	15,99
529,388	16,27
529,87	16,55
530,351	16,36
530,833	16,84
531,314	16,89
531,795	17,07
532,277	17,25
532,758	17,35
533,238	17,49
533,719	17,58
534,2	17,64
534,681	17,93
535,161	17,97
535,642	17,95
536,122	18,28
536,602	18,08
537,082	18,35
537,562	18,31
538,042	18,49
538,522	18,78
539,001	18,45
539,481	18,37
539,96	18,75
540,44	18,78
540,919	18,82
541,398	18,79
541,877	19,05
542,356	18,7
542,835	18,98
543,313	18,9
543,792	19,09
544,27	19,08
544,749	19,17
545,227	19,26
545,705	19,11
546,183	19,19
546,661	19,09
547,139	19,26
547,616	19,52
548,094	19,27
548,571	19,24
549,049	19,52
549,526	19,68
550,003	19,58
550,48	19,66
550,957	19,73
551,434	19,57
551,911	19,63
552,387	19,85
552,864	19,6
553,34	19,89
553,817	19,82
554,293	19,79
554,769	19,88
555,245	20
555,721	19,61
556,197	19,6
556,672	19,61
557,148	19,5
557,623	19,61
558,099	19,65
558,574	19,49
559,049	19,22
559,524	19,36
559,999	19,23
560,474	19,11
560,948	19,15
561,423	18,92
561,897	18,88
562,372	18,87
562,846	18,58
563,32	18,32
563,794	18,44
564,268	17,92
564,742	18,32
565,216	17,95
565,69	17,74
566,163	17,81
566,636	17,59
567,11	17,61
567,583	17,37
568,056	17,09
568,529	17,06
569,002	16,87
569,475	16,78
569,947	16,56
570,42	16,23
570,892	16,35
571,365	16,09
571,837	15,65
572,309	15,59
572,781	15,82
573,253	15,16
573,725	15,18
574,197	15,17
574,668	14,93
575,14	14,92
575,611	14,78
576,082	14,44
576,554	14,42
577,025	14,28
577,496	14,25
577,967	14
578,437	13,92
578,908	13,75
579,379	13,62
579,849	13,56
580,319	13,49
580,79	13,44
581,26	12,98
581,73	13,26
582,2	12,95
582,669	13,16
583,139	13
583,609	12,86
584,078	12,93
584,548	12,79
585,017	12,66
585,486	12,58
585,955	12,48
586,424	12,53
586,893	12,23
587,362	12,19
587,83	12,24
588,299	12
588,767	12,07
589,236	12,1
589,704	12,18
590,172	11,82
590,64	11,84
591,108	11,7
591,576	11,77
592,043	11,75
592,511	11,62
592,978	11,51
593,446	11,57
593,913	11,4
594,38	11,5
594,847	11,3
595,314	11,4
595,781	11,54
596,248	11,35
596,715	11,39
597,181	11,31
597,647	11,4
598,114	11,21
598,58	11,28
599,046	11,29
599,512	11,24
599,978	11,1
600,444	11,09
600,91	11,03
601,375	11,17
601,841	10,99
602,306	11,11
602,771	11
603,236	10,95
603,702	10,89
604,167	10,77
604,631	10,78
605,096	10,84
605,561	10,86
606,025	10,82
606,49	10,57
606,954	10,8
607,418	10,47
607,882	10,41
608,347	10,44
608,81	10,28
609,274	10,3
609,738	10,26
610,202	10,29
610,665	10,24
611,128	9,97
611,592	10,18
612,055	9,9
612,518	9,75
612,981	9,79
613,444	9,63
613,907	9,68
614,369	9,62
614,832	9,69
615,294	9,58
615,757	9,59
616,219	9,4
616,681	9,21
617,143	9,39
617,605	9,4
618,067	9,27
618,529	9,19
618,99	9,26
619,452	9,17
619,913	9,09
620,375	8,94
620,836	9,1
621,297	9,04
621,758	9,01
622,219	8,83
622,68	8,87
623,14	8,92
623,601	8,84
624,061	8,76
624,522	8,77
624,982	8,69
625,442	8,65
625,902	8,8
626,362	8,7
626,822	8,47
627,282	8,76
627,742	8,74
628,201	8,65
628,661	8,58
629,12	8,65
629,579	8,54
630,038	8,7
630,497	8,5
630,956	8,51
631,415	8,64
631,874	8,59
632,332	8,45
632,791	8,54
633,249	8,47
633,708	8,44
634,166	8,36
634,624	8,38
635,082	8,25
635,54	8,29
635,998	8,28
636,455	8,18
636,913	8,1
637,37	8,15
637,828	7,99
638,285	7,9
638,742	7,95
639,199	7,93
639,656	7,81
640,113	7,83
640,57	7,69
641,027	7,59
641,483	7,59
641,94	7,36
642,396	7,39
642,852	7,35
643,309	7,27
643,765	7,25
644,221	7,13
644,676	7
645,132	6,96
645,588	6,82
646,043	6,87
646,499	6,95
646,954	6,75
647,409	6,79
647,864	6,65
648,319	6,66
648,774	6,6
649,229	6,5
649,684	6,52
650,139	6,49
650,593	6,32
651,047	6,39
651,502	6,42
651,956	6,34
652,41	6,34
652,864	6,4
653,318	6,39
653,772	6,33
654,225	6,28
654,679	6,27
655,133	6,17
655,586	6,13
656,039	6,12
656,492	6,13
656,946	6,05
657,399	6,16
657,851	6,14
658,304	5,97
658,757	6,05
659,209	6,06
659,662	6
660,114	5,94
660,567	5,89
661,019	5,92
661,471	5,89
661,923	5,82
662,375	5,85
662,826	5,82
663,278	5,7
663,73	5,7
664,181	5,74
664,632	5,72
665,084	5,68
665,535	5,71
665,986	5,68
666,437	5,64
666,888	5,67
667,338	5,65
667,789	5,71
668,24	5,74
668,69	5,71
669,14	5,7
669,591	5,85
670,041	5,7
670,491	5,77
670,941	5,96
671,391	5,9
671,84	5,92
672,29	6
672,74	5,98
673,189	6,05
673,638	6,11
674,088	6,09
674,537	6,12
674,986	6,25
675,435	6,27
675,883	6,35
676,332	6,53
676,781	6,5
677,229	6,51
677,678	6,63
678,126	6,77
678,574	6,78
679,022	6,96
679,47	6,89
679,918	7,06
680,366	7,23
680,814	7,28
681,261	7,22
681,709	7,32
682,156	7,44
682,604	7,6
683,051	7,52
683,498	7,72
683,945	7,83
684,392	7,86
684,839	7,89
685,286	7,97
685,732	8,03
686,179	8,17
686,625	8,23
687,071	8,46
687,518	8,48
687,964	8,54
688,41	8,6
688,856	8,65
689,301	8,89
689,747	9,01
690,193	9,05
690,638	9,22
691,084	9,51
691,529	9,81
691,974	9,93
692,419	10,27
692,864	10,51
693,309	10,87
693,754	11,07
694,199	11,38
694,643	11,88
695,088	12,32
695,532	12,68
695,977	13,05
696,421	13,51
696,865	14,06
697,309	14,43
697,753	14,68
698,197	15,38
698,64	15,9
699,084	16,54
699,527	17,09
699,971	17,78
700,414	18,1
700,857	18,7
701,3	19,43
701,743	20,03
702,186	20,51
702,629	21,3
703,072	21,87
703,515	22,64
703,957	22,93
704,399	23,76
704,842	24,41
705,284	25,08
705,726	25,77
706,168	26,33
706,61	26,96
707,052	27,68
707,494	28,13
707,935	29,11
708,377	29,6
708,818	30,32
709,26	31,1
709,701	31,82
710,142	32,5
710,583	33,3
711,024	33,97
711,465	34,61
711,905	35,39
712,346	35,8
712,787	36,57
713,227	37,55
713,667	38,07
714,108	39,02
714,548	39,43
714,988	40,53
715,428	41,25
715,868	42,03
716,307	42,62
716,747	43,44
717,186	44,05
717,626	44,74
718,065	45,5
718,504	46,19
718,944	46,86
719,383	47,9
719,822	48,42
720,261	49,71
720,699	49,89
721,138	50,84
721,576	51,63
722,015	52,16
722,453	52,83
722,892	53,36
723,33	53,88
723,768	54,95
724,206	55,43
724,644	56,33
725,081	57,17
725,519	57,02
725,957	57,7
726,394	58,83
726,832	59,38
727,269	59,88
727,706	60,21
728,143	61,14
728,58	61,61
729,017	62,47
729,454	62,32
729,89	63,21
730,327	64,04
730,764	64,49
731,2	64,97
731,636	65
732,072	65,7
732,509	66,15
732,945	66,51
733,38	66,91
733,816	67,22
734,252	67,9
734,688	68,01
735,123	68,38
735,559	69,05
735,994	69,63
736,429	69,67
736,864	69,99
737,299	70,7
737,734	70,97
738,169	70,9
738,604	71,52
739,038	71,78
739,473	72,21
739,907	72,18
740,342	72,36
740,776	72,42
741,21	72,57
741,644	72,67
742,078	73,08
742,512	73,24
742,946	73,64
743,379	74,16
743,813	73,89
744,246	74,02
744,68	74,34
745,113	74,16
745,546	74,36
745,979	74,62
746,412	74,9
746,845	75,02
747,278	74,79
747,711	74,79
748,143	74,87
748,576	75,1
749,008	74,96
749,441	75,55
749,873	75,62
750,305	75,56
750,737	75,66
751,169	75,37
751,601	75,55
752,032	75,89
752,464	75,56
752,896	75,96
753,327	75,51
753,758	75,68
754,19	75,79
754,621	75,93
755,052	76,07
755,483	75,75
755,914	75,96
756,344	76
756,775	75,84
757,206	75,72
757,636	76,25
758,066	76,16
758,497	75,68
758,927	75,97
759,357	76,29
759,787	75,91
760,217	75,96
760,647	75,78
761,076	76,21
761,506	75,93
761,935	76,03
762,365	75,8
762,794	75,8
763,223	76,08
763,653	75,73
764,082	76,1
764,51	76,01
764,939	75,86
765,368	76,1
765,797	76,05
766,225	75,91
766,654	75,7
767,082	76,11
767,51	75,79
767,938	75,7
768,367	75,87
768,795	75,8
769,222	75,64
769,65	75,79
770,078	75,79
770,505	75,68
770,933	75,66
771,36	75,51
771,788	75,98
772,215	75,75
772,642	75,98
773,069	75,54
773,496	75,59
773,923	75,5
774,349	75,54
774,776	75,64
775,203	75,58
775,629	75,56
776,055	75,58
776,482	75,81
776,908	75,32
777,334	75,17
777,76	75,66
778,186	75,59
778,611	75,59
779,037	75,81
779,463	75,41
779,888	75,21
780,314	75,3
780,739	75,4
781,164	75,39
781,589	75,03
782,014	75,2
782,439	75,04
782,864	75,09
783,289	75,41
783,713	75,28
784,138	75,33
784,562	75,29
784,987	75,21
785,411	75,33
785,835	75,4
786,259	74,87
786,683	74,89
787,107	75,26
787,531	75,12
787,954	75,11
788,378	75,35
788,802	75,35
789,225	74,76
789,648	75,13
790,071	75,19
790,495	75,4
790,918	75,29
791,34	75,53
791,763	75,13
792,186	75,22
792,609	75,32
793,031	74,98
793,454	74,91
793,876	74,96
794,298	75,31
794,721	75,25
795,143	75,13
795,565	75,21
795,986	75,32
796,408	75,01
796,83	74,84
797,252	74,75
797,673	75,13
798,094	75,31
798,516	75,05
798,937	75,44
799,358	74,79
799,779	75,06
800,2	74,76
800,621	75,4
801,042	74,75
801,462	74,79
801,883	75,08
802,303	74,93
802,724	74,86
803,144	74,8
803,564	74,86
803,984	75,31
804,404	74,8
804,824	75,21
805,244	75,23
805,664	74,97
806,084	74,78
806,503	74,97
806,923	74,9
807,342	75,02
807,761	74,73
808,18	75,21
808,599	74,8
809,018	74,72
809,437	75,11
809,856	74,5
810,275	74,57
810,693	74,9
811,112	74,51
811,53	75,27
811,949	74,93
812,367	74,93
812,785	74,98
813,203	74,99
813,621	75,05
814,039	75,05
814,457	75,12
814,874	74,89
815,292	75,23
815,709	75,06
816,127	74,74
816,544	75,37
816,961	75,17
817,378	74,82
817,795	74,77
818,212	74,98
818,629	74,72
819,046	74,78
819,462	74,75
819,879	74,7
820,295	74,31
820,712	75,1
821,128	75,02
821,544	75,12
821,96	74,83
822,376	75,01
822,792	75,01
823,208	74,74
823,624	75,17
824,039	75,1
824,455	74,7
824,87	75
825,286	75,11
825,701	74,9
826,116	74,4
826,531	74,67
826,946	74,58
827,361	74,91
827,776	75,31
828,19	74,91
828,605	74,97
829,02	75,09
829,434	74,87
829,848	74,99
830,263	74,93
830,677	74,43
831,091	74,96
831,505	74,66
831,919	74,63
832,332	74,73
832,746	74,57
833,16	74,78
833,573	74,57
833,987	74,71
834,4	74,73
834,813	75,13
835,226	75,04
835,639	74,84
836,052	74,61
836,465	74,92
836,878	74,98
837,29	74,5
837,703	74,73
838,116	74,43
838,528	74,46
838,94	74,85
839,352	74,4
839,765	74,45
840,177	74,79
840,589	74,5
841	74,48
841,412	74,79
841,824	74,93
842,235	74,48
842,647	74,63
843,058	74,77
843,47	74,53
843,881	74,68
844,292	74,56
844,703	74,52
845,114	74,43
845,525	74,64
845,935	74,46
