Data from I2__Relative__3__00032.txt Node

Date: Fri Feb 02 12:36:36 CET 2024
User: diatiterra
Spectrometer: HDX00911
Trigger mode: 0
Integration Time (sec): 6,000000E-3
Scans to average: 2
Nonlinearity correction enabled: false
Boxcar width: 0
Storing dark spectrum: false
XAxis mode: Wavelengths
Number of Pixels in Spectrum: 2068
>>>>>Begin Spectral Data<<<<<
194,468	86,51
195,025	73,79
195,581	85,85
196,138	68,18
196,694	88,94
197,251	71,31
197,807	70,48
198,363	62,81
198,919	70,57
199,474	64,86
200,03	62,62
200,586	60,88
201,141	55,24
201,696	59,32
202,251	58,31
202,806	53,89
203,361	57,81
203,916	57,1
204,471	62,06
205,025	60,36
205,58	60,12
206,134	57,62
206,688	67,24
207,242	53,09
207,796	66,22
208,35	58,36
208,904	61,16
209,457	60,06
210,011	62,34
210,564	53,4
211,117	63,01
211,67	63,77
212,223	56,13
212,776	57,05
213,329	61,41
213,881	69,8
214,434	56,29
214,986	55,91
215,538	68,08
216,09	57,04
216,642	67,22
217,194	60,98
217,746	60,26
218,297	65,19
218,849	60,98
219,4	65,71
219,951	62,16
220,502	68,01
221,053	67,86
221,604	69,96
222,155	62,26
222,705	59,81
223,256	72,32
223,806	59,93
224,356	65,26
224,906	60,76
225,456	64,78
226,006	60,13
226,556	66,03
227,106	58,2
227,655	60,8
228,204	60,36
228,754	62,15
229,303	56,33
229,852	67,27
230,401	64,67
230,949	67,29
231,498	64,01
232,047	70,95
232,595	57,43
233,143	56,59
233,691	63,14
234,239	61,7
234,787	58,08
235,335	58,17
235,883	63,32
236,43	57,52
236,978	66,12
237,525	54,72
238,072	61,61
238,619	60,94
239,166	51,13
239,713	62,85
240,26	62,42
240,806	57,56
241,353	68,98
241,899	61,22
242,445	61,99
242,991	63,96
243,537	69,12
244,083	63,99
244,629	58,75
245,174	56,41
245,72	60,59
246,265	70,47
246,81	65,68
247,355	72,05
247,9	58,03
248,445	55,81
248,99	61,44
249,534	72,26
250,079	57,89
250,623	59,6
251,168	66,33
251,712	58,44
252,256	63,42
252,8	54,06
253,343	62,78
253,887	59,94
254,43	55,63
254,974	54,61
255,517	58,33
256,06	69,33
256,603	57,09
257,146	61,76
257,689	57,29
258,232	67,86
258,774	61,3
259,317	59,42
259,859	62,33
260,401	66,12
260,943	60,75
261,485	60,85
262,027	61,61
262,569	65,02
263,11	58,77
263,652	63,48
264,193	61,77
264,734	66,43
265,275	54,33
265,816	69,59
266,357	64,38
266,898	59,73
267,438	58,13
267,979	68,88
268,519	61,69
269,059	59,86
269,6	65,33
270,14	66,89
270,68	69,01
271,219	65,1
271,759	63,12
272,298	55,59
272,838	64,31
273,377	60,81
273,916	64,85
274,455	66,9
274,994	65,56
275,533	64,66
276,072	63,64
276,61	69,93
277,149	69,26
277,687	64,45
278,225	56,1
278,763	68,51
279,301	61,51
279,839	61
280,377	64,01
280,914	67,49
281,452	60,47
281,989	67,3
282,526	62,77
283,064	70,97
283,601	58,39
284,137	63,7
284,674	54,55
285,211	61,4
285,747	57,73
286,284	59,59
286,82	63,82
287,356	73,31
287,892	66,18
288,428	61,62
288,964	64,62
289,5	68,75
290,035	67,57
290,571	59,25
291,106	69,9
291,641	63,27
292,176	60,48
292,711	68,79
293,246	62,1
293,781	57,6
294,315	61,69
294,85	57,05
295,384	62,37
295,918	65,2
296,453	56,94
296,987	62,33
297,52	60,58
298,054	62,9
298,588	61,64
299,121	59,15
299,655	59,93
300,188	70,36
300,721	58,92
301,254	72,51
301,787	65,97
302,32	66,67
302,853	69,59
303,385	71,22
303,918	59,09
304,45	69,45
304,982	63,83
305,514	57,03
306,046	59,87
306,578	61,48
307,11	62,36
307,641	63,61
308,173	59,85
308,704	69,83
309,236	63,82
309,767	59,93
310,298	59,05
310,829	64,62
311,359	61,44
311,89	56,21
312,421	55,37
312,951	55,52
313,481	67,42
314,012	65,82
314,542	63,1
315,072	60,82
315,601	62,18
316,131	62,2
316,661	62,42
317,19	64,14
317,72	55,23
318,249	57,99
318,778	65,37
319,307	57,94
319,836	63,04
320,365	65,57
320,893	57,95
321,422	68,67
321,95	73,79
322,479	64,11
323,007	60,07
323,535	61,17
324,063	61,02
324,591	65,73
325,118	65,59
325,646	61,15
326,173	62,21
326,701	60,56
327,228	59,27
327,755	57,38
328,282	60,98
328,809	63,89
329,336	59,38
329,862	55,8
330,389	59,21
330,915	60,07
331,441	62,07
331,968	61,07
332,494	55,41
333,02	63,95
333,545	62,08
334,071	53,77
334,597	55,13
335,122	52,85
335,648	58,44
336,173	54,72
336,698	56,19
337,223	52,58
337,748	56,09
338,272	57,81
338,797	58,5
339,322	53,82
339,846	63,93
340,37	50,18
340,894	52,83
341,419	58,6
341,942	59,87
342,466	57,36
342,99	51,52
343,514	56,39
344,037	49,44
344,56	53,8
345,084	46,93
345,607	52,63
346,13	56,56
346,653	46,84
347,175	51,37
347,698	52,94
348,221	53,35
348,743	47,31
349,265	52,27
349,787	48,45
350,309	51,4
350,831	42,08
351,353	47,45
351,875	49,61
352,397	45,82
352,918	44,5
353,439	44,2
353,961	54,32
354,482	45,15
355,003	52,15
355,524	42,46
356,044	43,93
356,565	51,99
357,086	42,09
357,606	43,65
358,126	49,06
358,646	47,14
359,167	47,08
359,687	42,53
360,206	39,55
360,726	46,29
361,246	45,78
361,765	44,49
362,285	45,96
362,804	44,14
363,323	41,44
363,842	40,29
364,361	43,38
364,88	44,67
365,398	42,71
365,917	45,96
366,435	40,67
366,954	41,58
367,472	45,2
367,99	41,48
368,508	39,66
369,026	41,62
369,544	39,96
370,061	40,39
370,579	38,21
371,096	39,55
371,613	40
372,131	37,21
372,648	37,31
373,165	41,24
373,681	35,97
374,198	38,84
374,715	33,74
375,231	40
375,747	37,6
376,264	37,86
376,78	37,46
377,296	38,29
377,812	33,06
378,327	38,65
378,843	36,46
379,359	34,69
379,874	33,82
380,389	37,34
380,905	34,35
381,42	33,42
381,935	33,37
382,449	32,64
382,964	33,33
383,479	33,1
383,993	29,89
384,508	31,08
385,022	31,56
385,536	28,33
386,05	28,45
386,564	30,89
387,078	29,9
387,592	28,4
388,105	30,1
388,619	27,22
389,132	25,99
389,645	27,9
390,158	27,77
390,671	28,94
391,184	26,85
391,697	25,24
392,21	26,14
392,722	26,26
393,235	25,53
393,747	27,61
394,259	26,76
394,771	25,29
395,283	23,08
395,795	25,84
396,307	22,35
396,818	24,15
397,33	23,58
397,841	22,75
398,353	23,23
398,864	21,57
399,375	21,5
399,886	21,6
400,397	21,46
400,907	20,44
401,418	21,89
401,928	20,78
402,439	20,19
402,949	17,8
403,459	19,51
403,969	19,74
404,479	18,79
404,989	17,52
405,498	17,82
406,008	17,67
406,517	16,84
407,027	15,74
407,536	17
408,045	16,12
408,554	15,5
409,063	14,64
409,572	13,35
410,08	14,45
410,589	13,07
411,097	13,64
411,606	12,71
412,114	12
412,622	11,8
413,13	12,22
413,638	11,39
414,145	10,64
414,653	9,99
415,16	10,54
415,668	10,07
416,175	9,64
416,682	9,66
417,189	9,69
417,696	10,46
418,203	9,29
418,71	9,2
419,216	9,09
419,723	9,04
420,229	8,5
420,735	8,93
421,242	8,58
421,748	8,54
422,254	8,01
422,759	8,91
423,265	8,22
423,771	8,49
424,276	8,35
424,781	8,03
425,287	8,22
425,792	8,13
426,297	7,73
426,802	8,05
427,306	8,05
427,811	8,24
428,316	8,11
428,82	7,49
429,324	7,79
429,829	7,81
430,333	7,61
430,837	7,52
431,34	7,77
431,844	7,37
432,348	7,69
432,851	7,15
433,355	7,39
433,858	7,54
434,361	7,37
434,864	7,07
435,367	7,49
435,87	7,33
436,373	7,07
436,876	6,87
437,378	7,13
437,88	6,9
438,383	7,05
438,885	7,19
439,387	6,85
439,889	6,79
440,391	6,96
440,892	6,71
441,394	7,07
441,896	7,34
442,397	6,96
442,898	7,23
443,399	7,26
443,9	7,19
444,401	6,69
444,902	6,95
445,403	6,77
445,903	7,15
446,404	7,12
446,904	6,63
447,405	6,92
447,905	7,22
448,405	7,04
448,905	7,24
449,404	7,03
449,904	7,08
450,404	7,04
450,903	7,03
451,403	7,08
451,902	7,42
452,401	6,99
452,9	6,94
453,399	7,41
453,898	7,1
454,396	7,13
454,895	7,48
455,393	7,17
455,892	7,58
456,39	7,26
456,888	7,34
457,386	7,28
457,884	7,33
458,382	7,14
458,879	6,91
459,377	7,31
459,874	7,23
460,372	6,82
460,869	7,14
461,366	7,28
461,863	7,2
462,36	7,19
462,857	7,24
463,353	7,08
463,85	7,23
464,346	6,98
464,843	7,21
465,339	7,17
465,835	6,9
466,331	7,16
466,827	7,22
467,323	7,06
467,818	7,06
468,314	7,25
468,809	7,01
469,305	6,89
469,8	7,24
470,295	7
470,79	6,99
471,285	7,2
471,78	6,95
472,274	7,14
472,769	6,89
473,263	7,03
473,758	6,83
474,252	7,13
474,746	6,91
475,24	7,04
475,734	6,95
476,228	6,81
476,721	6,99
477,215	6,74
477,708	7,06
478,202	6,65
478,695	7,2
479,188	6,95
479,681	6,98
480,174	6,96
480,667	7,22
481,159	7,05
481,652	7,23
482,144	7,27
482,637	7,17
483,129	7,04
483,621	7,32
484,113	6,95
484,605	7,12
485,097	7,16
485,588	7,31
486,08	7,14
486,571	7,18
487,063	7,07
487,554	7,26
488,045	7,32
488,536	7,25
489,027	7,38
489,518	7,28
490,008	7,26
490,499	7,3
490,989	7,49
491,48	7,49
491,97	7,39
492,46	7,58
492,95	7,3
493,44	7,6
493,93	7,83
494,419	7,68
494,909	7,45
495,398	7,52
495,888	7,91
496,377	7,66
496,866	7,81
497,355	7,85
497,844	8,13
498,333	7,87
498,821	7,92
499,31	8
499,798	8,06
500,287	7,95
500,775	8,24
501,263	8,25
501,751	8,13
502,239	8,33
502,727	8,18
503,215	8,4
503,702	8,55
504,19	8,48
504,677	8,6
505,164	8,78
505,651	8,75
506,139	8,74
506,625	9,01
507,112	9,01
507,599	8,93
508,086	9,02
508,572	9,09
509,058	9,61
509,545	9,36
510,031	9,62
510,517	9,6
511,003	9,64
511,489	10,26
511,974	10,14
512,46	10,03
512,946	10,35
513,431	10,17
513,916	10,44
514,401	10,48
514,887	10,92
515,371	10,95
515,856	11,1
516,341	11,18
516,826	11,28
517,31	11,43
517,795	11,47
518,279	11,88
518,763	11,81
519,247	12,27
519,731	12,06
520,215	12,39
520,699	12,61
521,182	12,8
521,666	12,78
522,149	12,81
522,633	13,04
523,116	13,24
523,599	13,63
524,082	13,73
524,565	13,92
525,048	14,04
525,53	14,07
526,013	14,45
526,495	14,66
526,978	14,58
527,46	14,74
527,942	15,07
528,424	15,1
528,906	15,03
529,388	15,25
529,87	15,6
530,351	15,68
530,833	15,81
531,314	15,55
531,795	15,95
532,277	16,12
532,758	16,23
533,238	16,44
533,719	15,95
534,2	16,25
534,681	16,34
535,161	16,5
535,642	16,1
536,122	16,22
536,602	16,46
537,082	16,61
537,562	16,35
538,042	16,46
538,522	16,66
539,001	16,88
539,481	17,13
539,96	16,91
540,44	16,9
540,919	16,85
541,398	17,04
541,877	16,85
542,356	16,9
542,835	16,78
543,313	17,25
543,792	16,97
544,27	17,03
544,749	17,07
545,227	17,12
545,705	17,13
546,183	17,06
546,661	17,23
547,139	17,28
547,616	17,26
548,094	17,34
548,571	17,04
549,049	17,53
549,526	17,37
550,003	17,51
550,48	17,53
550,957	17,63
551,434	17,26
551,911	17,57
552,387	17,58
552,864	17,36
553,34	17,45
553,817	17,74
554,293	17,48
554,769	17,39
555,245	17,65
555,721	17,47
556,197	17,12
556,672	17,33
557,148	17,5
557,623	17,86
558,099	17,4
558,574	17,38
559,049	17,37
559,524	16,94
559,999	17,39
560,474	17,3
560,948	17,24
561,423	17,04
561,897	17,19
562,372	17,07
562,846	16,81
563,32	17,04
563,794	17,17
564,268	16,62
564,742	16,5
565,216	16,66
565,69	16,43
566,163	16,41
566,636	16,33
567,11	16,18
567,583	16,01
568,056	16,21
568,529	15,91
569,002	15,85
569,475	15,75
569,947	15,77
570,42	15,53
570,892	15,42
571,365	15,31
571,837	15,12
572,309	14,83
572,781	14,89
573,253	14,89
573,725	14,59
574,197	14,54
574,668	14,59
575,14	14,59
575,611	14,6
576,082	14,27
576,554	14,09
577,025	14,06
577,496	14,13
577,967	14,09
578,437	13,97
578,908	13,75
579,379	13,82
579,849	13,75
580,319	13,68
580,79	13,43
581,26	13,33
581,73	13,26
582,2	13,14
582,669	13,28
583,139	13,21
583,609	13,14
584,078	13,18
584,548	13,08
585,017	13,13
585,486	13,03
585,955	12,88
586,424	12,68
586,893	12,7
587,362	12,73
587,83	12,55
588,299	12,68
588,767	12,64
589,236	12,39
589,704	12,48
590,172	12,42
590,64	12,43
591,108	12,39
591,576	12,4
592,043	12,34
592,511	12,32
592,978	12,09
593,446	12,18
593,913	12,32
594,38	12,26
594,847	12,13
595,314	12,03
595,781	12,04
596,248	11,98
596,715	11,95
597,181	12,07
597,647	12,03
598,114	11,99
598,58	12,08
599,046	11,97
599,512	11,97
599,978	11,91
600,444	11,83
600,91	11,8
601,375	11,62
601,841	11,89
602,306	11,97
602,771	11,82
603,236	11,73
603,702	11,79
604,167	11,68
604,631	11,71
605,096	11,65
605,561	11,71
606,025	11,62
606,49	11,52
606,954	11,42
607,418	11,34
607,882	11,32
608,347	11,2
608,81	11,22
609,274	11,26
609,738	11,34
610,202	11,47
610,665	11,24
611,128	11,03
611,592	11,1
612,055	11
612,518	11,07
612,981	11
613,444	10,88
613,907	10,81
614,369	10,87
614,832	10,79
615,294	10,88
615,757	10,77
616,219	10,51
616,681	10,67
617,143	10,58
617,605	10,71
618,067	10,5
618,529	10,56
618,99	10,38
619,452	10,37
619,913	10,39
620,375	10,48
620,836	10,35
621,297	10,43
621,758	10,23
622,219	10,26
622,68	10,25
623,14	10,29
623,601	10,17
624,061	10,2
624,522	10,14
624,982	10,12
625,442	10,16
625,902	10
626,362	10,16
626,822	9,96
627,282	10,18
627,742	10,19
628,201	9,99
628,661	10,03
629,12	10,07
629,579	10,05
630,038	10,01
630,497	10,03
630,956	9,93
631,415	9,86
631,874	10,02
632,332	9,81
632,791	9,81
633,249	9,7
633,708	9,7
634,166	9,85
634,624	9,76
635,082	9,78
635,54	9,66
635,998	9,56
636,455	9,53
636,913	9,6
637,37	9,38
637,828	9,44
638,285	9,31
638,742	9,27
639,199	9,36
639,656	9,23
640,113	9,16
640,57	9,12
641,027	8,99
641,483	9,01
641,94	8,79
642,396	8,92
642,852	8,93
643,309	8,76
643,765	8,6
644,221	8,71
644,676	8,53
645,132	8,57
645,588	8,52
646,043	8,32
646,499	8,31
646,954	8,37
647,409	8,14
647,864	8,25
648,319	8,33
648,774	8,18
649,229	8,08
649,684	8,03
650,139	7,99
650,593	8,02
651,047	8
651,502	7,97
651,956	7,95
652,41	7,84
652,864	7,9
653,318	7,91
653,772	7,84
654,225	7,95
654,679	7,8
655,133	7,81
655,586	7,86
656,039	7,89
656,492	7,73
656,946	7,85
657,399	7,72
657,851	7,79
658,304	7,73
658,757	7,8
659,209	7,66
659,662	7,63
660,114	7,49
660,567	7,58
661,019	7,6
661,471	7,45
661,923	7,53
662,375	7,52
662,826	7,52
663,278	7,48
663,73	7,39
664,181	7,37
664,632	7,41
665,084	7,41
665,535	7,44
665,986	7,43
666,437	7,39
666,888	7,34
667,338	7,38
667,789	7,4
668,24	7,3
668,69	7,44
669,14	7,37
669,591	7,35
670,041	7,35
670,491	7,49
670,941	7,58
671,391	7,47
671,84	7,58
672,29	7,71
672,74	7,58
673,189	7,71
673,638	7,73
674,088	7,72
674,537	7,83
674,986	7,88
675,435	7,89
675,883	8,04
676,332	8,06
676,781	8,22
677,229	8,22
677,678	8,33
678,126	8,46
678,574	8,46
679,022	8,57
679,47	8,8
679,918	8,78
680,366	8,85
680,814	8,93
681,261	9,04
681,709	9,2
682,156	9,21
682,604	9,35
683,051	9,42
683,498	9,43
683,945	9,6
684,392	9,62
684,839	9,74
685,286	9,87
685,732	9,93
686,179	10,04
686,625	9,96
687,071	10,17
687,518	10,2
687,964	10,41
688,41	10,42
688,856	10,49
689,301	10,74
689,747	10,64
690,193	10,9
690,638	11,05
691,084	11,09
691,529	11,26
691,974	11,43
692,419	11,65
692,864	11,81
693,309	12,18
693,754	12,28
694,199	12,6
694,643	12,78
695,088	12,99
695,532	13,29
695,977	13,56
696,421	13,84
696,865	14,14
697,309	14,41
697,753	14,65
698,197	15,1
698,64	15,31
699,084	15,74
699,527	16,03
699,971	16,37
700,414	16,98
700,857	17,4
701,3	17,67
701,743	18,11
702,186	18,33
702,629	18,77
703,072	19,26
703,515	19,6
703,957	19,88
704,399	20,46
704,842	20,84
705,284	21,18
705,726	21,67
706,168	22
706,61	22,38
707,052	22,96
707,494	23,44
707,935	23,87
708,377	24,33
708,818	24,94
709,26	25,42
709,701	25,64
710,142	26,41
710,583	26,37
711,024	27,24
711,465	27,53
711,905	28,01
712,346	28,62
712,787	29
713,227	29,82
713,667	30,04
714,108	30,74
714,548	31,27
714,988	31,68
715,428	32,46
715,868	32,64
716,307	33,11
716,747	33,64
717,186	34,18
717,626	34,62
718,065	35,09
718,504	35,85
718,944	36,43
719,383	36,89
719,822	37,34
720,261	38,14
720,699	38,45
721,138	39,25
721,576	39,86
722,015	40,08
722,453	40,65
722,892	41,21
723,33	41,32
723,768	41,95
724,206	42,51
724,644	43,11
725,081	43,84
725,519	43,84
725,957	44,48
726,394	44,78
726,832	45,44
727,269	45,72
727,706	46,13
728,143	46,71
728,58	47,13
729,017	47,69
729,454	48,06
729,89	48,75
730,327	48,93
730,764	49,39
731,2	49,79
731,636	50,44
732,072	50,42
732,509	50,77
732,945	51,33
733,38	51,6
733,816	51,7
734,252	52,17
734,688	52,45
735,123	52,87
735,559	53,04
735,994	53,31
736,429	53,8
736,864	54,1
737,299	54,24
737,734	54,4
738,169	54,62
738,604	54,92
739,038	55,43
739,473	55,63
739,907	55,6
740,342	55,9
740,776	56,11
741,21	56,19
741,644	56,23
742,078	56,14
742,512	56,53
742,946	57,12
743,379	57,43
743,813	57,09
744,246	57,22
744,68	57,66
745,113	57,57
745,546	57,66
745,979	57,92
746,412	57,45
746,845	58,35
747,278	58,03
747,711	58,12
748,143	58,33
748,576	58,45
749,008	58,27
749,441	58,57
749,873	58,8
750,305	58,71
750,737	58,48
751,169	58,8
751,601	58,91
752,032	58,85
752,464	58,94
752,896	58,99
753,327	58,87
753,758	58,93
754,19	59,39
754,621	59,04
755,052	59,33
755,483	59,2
755,914	59,16
756,344	59,32
756,775	59,41
757,206	59,29
757,636	59,52
758,066	59,56
758,497	59,33
758,927	59,43
759,357	59,76
759,787	59,28
760,217	59,4
760,647	59,47
761,076	59,59
761,506	59,65
761,935	59,44
762,365	59,37
762,794	59,53
763,223	59,81
763,653	59,72
764,082	59,49
764,51	59,55
764,939	59,55
765,368	59,94
765,797	59,61
766,225	59,55
766,654	59,3
767,082	59,53
767,51	59,55
767,938	59,54
768,367	59,54
768,795	59,6
769,222	59,81
769,65	59,56
770,078	59,66
770,505	59,08
770,933	59,55
771,36	59,69
771,788	59,83
772,215	59,71
772,642	59,82
773,069	59,29
773,496	59,78
773,923	59,43
774,349	59,8
774,776	59,7
775,203	59,51
775,629	59,76
776,055	59,7
776,482	59,94
776,908	59,26
777,334	59,84
777,76	59,77
778,186	59,74
778,611	59,9
779,037	60,01
779,463	59,49
779,888	59,47
780,314	59,61
780,739	59,63
781,164	59,96
781,589	59,52
782,014	59,62
782,439	59,88
782,864	59,53
783,289	59,69
783,713	59,97
784,138	60,09
784,562	60
784,987	59,76
785,411	60,26
785,835	59,86
786,259	59,54
786,683	59,86
787,107	59,91
787,531	60,01
787,954	60,18
788,378	60,21
788,802	60,22
789,225	59,8
789,648	60,19
790,071	59,85
790,495	60,3
790,918	60,33
791,34	60,2
791,763	60,19
792,186	60,31
792,609	60,46
793,031	60,19
793,454	60,3
793,876	59,91
794,298	60,52
794,721	60,49
795,143	60,48
795,565	60,06
795,986	60,09
796,408	60,26
796,83	60,23
797,252	60,31
797,673	60,4
798,094	60,45
798,516	60,11
798,937	60,6
799,358	60,63
799,779	60,38
800,2	60,35
800,621	60,95
801,042	60,24
801,462	60,3
801,883	60,41
802,303	60,12
802,724	60,57
803,144	60,75
803,564	60,69
803,984	60,54
804,404	60,75
804,824	60,86
805,244	60,75
805,664	60,67
806,084	60,84
806,503	60,87
806,923	60,62
807,342	60,14
807,761	60,63
808,18	60,81
808,599	60,62
809,018	60,5
809,437	60,57
809,856	60,57
810,275	60,42
810,693	60,96
811,112	60,82
811,53	61,03
811,949	60,91
812,367	60,85
812,785	60,97
813,203	60,85
813,621	60,7
814,039	61,04
814,457	61,15
814,874	60,98
815,292	61,38
815,709	60,99
816,127	60,97
816,544	61,22
816,961	61
817,378	61,14
817,795	61,35
818,212	61,21
818,629	61,05
819,046	61,19
819,462	60,91
819,879	61,35
820,295	61
820,712	61,45
821,128	61,05
821,544	61,09
821,96	61,31
822,376	61,54
822,792	61,04
823,208	60,89
823,624	61,46
824,039	61,41
824,455	61,36
824,87	61,62
825,286	61,62
825,701	61,81
826,116	61,62
826,531	61,41
826,946	61,17
827,361	61,47
827,776	61,56
828,19	61,63
828,605	61,13
829,02	61,39
829,434	61,29
829,848	61,83
830,263	61,56
830,677	61,41
831,091	61,75
831,505	61,35
831,919	61,69
832,332	61,53
832,746	61,5
833,16	61,31
833,573	61,33
833,987	61,63
834,4	61,94
834,813	62,09
835,226	62,1
835,639	61,91
836,052	61,77
836,465	61,75
836,878	61,87
837,29	61,99
837,703	61,99
838,116	61,76
838,528	61,87
838,94	61,9
839,352	61,81
839,765	61,85
840,177	62,04
840,589	61,85
841	61,85
841,412	62,08
841,824	61,7
842,235	61,82
842,647	61,85
843,058	61,96
