Data from A6__Relative__7__00017.txt Node

Date: Wed Jan 31 17:55:28 CET 2024
User: diatiterra
Spectrometer: HDX00911
Trigger mode: 0
Integration Time (sec): 6,000000E-3
Scans to average: 2
Nonlinearity correction enabled: false
Boxcar width: 0
Storing dark spectrum: false
XAxis mode: Wavelengths
Number of Pixels in Spectrum: 2068
>>>>>Begin Spectral Data<<<<<
194,468	81,13
195,025	81,82
195,581	86,59
196,138	108,97
196,694	80,25
197,251	70,2
197,807	68,11
198,363	67,6
198,919	67,24
199,474	70,22
200,03	66,39
200,586	81,7
201,141	59,03
201,696	70,13
202,251	68,56
202,806	58,39
203,361	72,59
203,916	65,28
204,471	69,71
205,025	81,85
205,58	66,07
206,134	76,8
206,688	71,54
207,242	78,76
207,796	75,94
208,35	71,38
208,904	73,79
209,457	60,42
210,011	62,41
210,564	68,31
211,117	71,8
211,67	73,88
212,223	69,52
212,776	70,56
213,329	68,67
213,881	85,78
214,434	67,43
214,986	74,79
215,538	71,69
216,09	65,49
216,642	79,34
217,194	72,35
217,746	73,68
218,297	62,6
218,849	73,53
219,4	79,41
219,951	68,95
220,502	67,91
221,053	76,72
221,604	70,81
222,155	67,06
222,705	60,29
223,256	77,99
223,806	74,02
224,356	72,69
224,906	84,27
225,456	71,32
226,006	73,02
226,556	58,12
227,106	77,42
227,655	67,71
228,204	72,5
228,754	62,32
229,303	65,71
229,852	65,47
230,401	70,52
230,949	73,74
231,498	55,99
232,047	59,09
232,595	67,24
233,143	71,26
233,691	62,02
234,239	61,43
234,787	67,6
235,335	66,42
235,883	65,73
236,43	66,29
236,978	75
237,525	68,61
238,072	65,25
238,619	65,15
239,166	73,4
239,713	63,5
240,26	64,64
240,806	71,53
241,353	65,08
241,899	68,88
242,445	64,6
242,991	78,63
243,537	63,64
244,083	74,05
244,629	66,54
245,174	60,18
245,72	63,7
246,265	66,67
246,81	70
247,355	70,24
247,9	57,46
248,445	72,62
248,99	71,59
249,534	79,57
250,079	77,82
250,623	71,11
251,168	69,42
251,712	73,44
252,256	73,36
252,8	67,31
253,343	62,86
253,887	66,94
254,43	64,89
254,974	68,7
255,517	64,04
256,06	76,15
256,603	61,85
257,146	66,28
257,689	75,2
258,232	77,97
258,774	66,31
259,317	72,03
259,859	80,28
260,401	70,16
260,943	63,83
261,485	68,09
262,027	58,4
262,569	68,66
263,11	63,08
263,652	75,98
264,193	66,94
264,734	70,07
265,275	71,72
265,816	66,03
266,357	59,69
266,898	68,46
267,438	72,44
267,979	69,42
268,519	66,42
269,059	74,3
269,6	66,17
270,14	76,21
270,68	67,03
271,219	75,42
271,759	59,77
272,298	63,53
272,838	66,15
273,377	73,02
273,916	63,67
274,455	72,26
274,994	58,4
275,533	61,23
276,072	71,14
276,61	63,41
277,149	77,08
277,687	65,04
278,225	62
278,763	79,39
279,301	66,67
279,839	71,77
280,377	62,3
280,914	59,09
281,452	64,53
281,989	63,64
282,526	64,17
283,064	73,11
283,601	62,16
284,137	64,05
284,674	72,92
285,211	71,93
285,747	62,5
286,284	80,63
286,82	67,77
287,356	63,49
287,892	68,22
288,428	65,7
288,964	77,31
289,5	72,31
290,035	69,2
290,571	65,97
291,106	75,2
291,641	78,57
292,176	66,02
292,711	69,11
293,246	61,54
293,781	66,94
294,315	51,76
294,85	83,8
295,384	63,93
295,918	65,44
296,453	54,85
296,987	61,57
297,52	67,77
298,054	65,27
298,588	72,08
299,121	57,84
299,655	66,79
300,188	66,25
300,721	67,48
301,254	64,92
301,787	64,45
302,32	75,61
302,853	60
303,385	57,14
303,918	67,83
304,45	71,54
304,982	53,19
305,514	66,28
306,046	58,68
306,578	62,02
307,11	69,38
307,641	70,26
308,173	71,9
308,704	54,13
309,236	59,77
309,767	71,99
310,298	67,74
310,829	71,74
311,359	61,69
311,89	72,27
312,421	63,51
312,951	73,17
313,481	53,1
314,012	68,66
314,542	58,9
315,072	59,92
315,601	62
316,131	70,87
316,661	55,42
317,19	56,67
317,72	74,79
318,249	65,48
318,778	67,19
319,307	62,5
319,836	70,8
320,365	53,04
320,893	58,68
321,422	72,36
321,95	70,3
322,479	62,98
323,007	61,82
323,535	61,07
324,063	70,4
324,591	59,2
325,118	65,33
325,646	71,85
326,173	59,58
326,701	71,54
327,228	67,67
327,755	57,52
328,282	66,41
328,809	72,88
329,336	61,81
329,862	61,03
330,389	57,03
330,915	65,35
331,441	62,98
331,968	73,42
332,494	68,18
333,02	62,5
333,545	63,43
334,071	73,14
334,597	51,41
335,122	59,26
335,648	68,53
336,173	51,52
336,698	54,43
337,223	54,41
337,748	54,86
338,272	58,22
338,797	64,49
339,322	58,03
339,846	50,74
340,37	55,65
340,894	62,5
341,419	63,91
341,942	66,78
342,466	58,97
342,99	59,4
343,514	58,45
344,037	50
344,56	61,11
345,084	61,99
345,607	67,01
346,13	57,75
346,653	65,67
347,175	57,69
347,698	55,66
348,221	55,71
348,743	56,21
349,265	53,96
349,787	45,71
350,309	52,22
350,831	47,53
351,353	52,74
351,875	55,26
352,397	63,64
352,918	60,53
353,439	58,94
353,961	50
354,482	56,43
355,003	56,4
355,524	58,89
356,044	48,86
356,565	60,54
357,086	57,34
357,606	53,02
358,126	56,38
358,646	49,74
359,167	53,51
359,687	54,24
360,206	57,65
360,726	51,42
361,246	53,72
361,765	54,24
362,285	50,5
362,804	53,42
363,323	50,98
363,842	51,92
364,361	52,24
364,88	51,48
365,398	52,84
365,917	48,82
366,435	61,46
366,954	51,56
367,472	46,93
367,99	53,55
368,508	49,8
369,026	55,45
369,544	49,78
370,061	52,31
370,579	48,36
371,096	49,77
371,613	44,83
372,131	50
372,648	51,77
373,165	50,2
373,681	50,42
374,198	52,54
374,715	50,94
375,231	46,4
375,747	46,38
376,264	47,79
376,78	48,38
377,296	49,44
377,812	49,34
378,327	47,52
378,843	49,66
379,359	50
379,874	48,44
380,389	48,58
380,905	48,21
381,42	45,74
381,935	50,3
382,449	47,49
382,964	44,71
383,479	49,28
383,993	48,48
384,508	46,85
385,022	43,65
385,536	45,26
386,05	46,85
386,564	44,78
387,078	45,1
387,592	41,61
388,105	44,09
388,619	40,96
389,132	41,8
389,645	42,87
390,158	41,31
390,671	40,22
391,184	38,16
391,697	41,38
392,21	35,52
392,722	42,66
393,235	40,06
393,747	39,88
394,259	38,01
394,771	36,47
395,283	36,17
395,795	36,75
396,307	40,75
396,818	36,58
397,33	32,65
397,841	34,78
398,353	36,12
398,864	32,01
399,375	31,05
399,886	36,23
400,397	33,07
400,907	33,45
401,418	31,42
401,928	30,92
402,439	33,18
402,949	28,81
403,459	29,62
403,969	29,39
404,479	27,54
404,989	25,91
405,498	25,28
406,008	26,69
406,517	24,89
407,027	23,08
407,536	24,22
408,045	23,41
408,554	22,85
409,063	20,62
409,572	21,88
410,08	20,57
410,589	19,81
411,097	17,68
411,606	19,92
412,114	19,94
412,622	18,42
413,13	17,65
413,638	17,33
414,145	16,35
414,653	15,8
415,16	15,45
415,668	16,2
416,175	15,65
416,682	15,09
417,189	14,61
417,696	14,63
418,203	14,25
418,71	13,86
419,216	14,73
419,723	13,74
420,229	13,17
420,735	12,74
421,242	13,01
421,748	13,22
422,254	13,11
422,759	13,04
423,265	12,94
423,771	13,04
424,276	12,98
424,781	11,66
425,287	11,81
425,792	11,94
426,297	12,05
426,802	12,2
427,306	12,44
427,811	11,96
428,316	11,8
428,82	12,45
429,324	12,09
429,829	11,61
430,333	11,95
430,837	11,66
431,34	11,53
431,844	11,51
432,348	11,26
432,851	11,38
433,355	10,88
433,858	11,04
434,361	10,81
434,864	11,08
435,367	11,57
435,87	12,08
436,373	11,38
436,876	11,53
437,378	11,3
437,88	11,35
438,383	10,91
438,885	10,68
439,387	11,11
439,889	10,86
440,391	11,63
440,892	11,19
441,394	11,39
441,896	10,79
442,397	11,22
442,898	10,78
443,399	10,94
443,9	11,05
444,401	11,44
444,902	11,29
445,403	10,84
445,903	11,5
446,404	11,19
446,904	11,28
447,405	11,23
447,905	11,24
448,405	11,26
448,905	11,33
449,404	11,6
449,904	11,09
450,404	11,27
450,903	11,56
451,403	11,1
451,902	11,55
452,401	11,99
452,9	11,38
453,399	11,41
453,898	11,54
454,396	11,1
454,895	11,52
455,393	11,51
455,892	11,62
456,39	11,15
456,888	11,65
457,386	11,32
457,884	11,97
458,382	11,93
458,879	11,75
459,377	11,96
459,874	11,71
460,372	11,54
460,869	11,31
461,366	11,89
461,863	11,54
462,36	11,96
462,857	11,74
463,353	11,84
463,85	11,71
464,346	11,54
464,843	11,9
465,339	11,55
465,835	11,82
466,331	11,8
466,827	11,59
467,323	11,5
467,818	12,11
468,314	11,88
468,809	11,6
469,305	11,35
469,8	11,89
470,295	11,64
470,79	11,48
471,285	11,54
471,78	11,63
472,274	11,6
472,769	11,77
473,263	11,94
473,758	11,52
474,252	11,43
474,746	12,07
475,24	11,85
475,734	11,4
476,228	11,93
476,721	11,78
477,215	11,85
477,708	11,96
478,202	11,97
478,695	12,02
479,188	11,87
479,681	11,76
480,174	12,57
480,667	11,9
481,159	11,96
481,652	12,36
482,144	11,93
482,637	11,97
483,129	11,71
483,621	12,1
484,113	12,24
484,605	12,16
485,097	12,16
485,588	11,68
486,08	12,13
486,571	12,13
487,063	12,14
487,554	12,51
488,045	12,4
488,536	12,42
489,027	12,35
489,518	12,04
490,008	12,38
490,499	12,45
490,989	12,65
491,48	12,67
491,97	12,79
492,46	12,59
492,95	12,85
493,44	12,75
493,93	12,95
494,419	12,92
494,909	13,12
495,398	12,93
495,888	13,41
496,377	13,05
496,866	13,61
497,355	13,49
497,844	13,23
498,333	13,38
498,821	13,6
499,31	13,67
499,798	14,19
500,287	14,16
500,775	14,52
501,263	14,55
501,751	14,72
502,239	14,55
502,727	14,69
503,215	15,06
503,702	15,23
504,19	14,97
504,677	15,59
505,164	16,02
505,651	15,83
506,139	15,67
506,625	15,91
507,112	16,63
507,599	16,71
508,086	16,84
508,572	17,18
509,058	17,75
509,545	17,53
510,031	17,89
510,517	18,13
511,003	18,31
511,489	19,12
511,974	19,25
512,46	19,48
512,946	19,53
513,431	20,56
513,916	20,48
514,401	21,09
514,887	21,05
515,371	21,59
515,856	22,2
516,341	22,38
516,826	22,65
517,31	23,07
517,795	23,35
518,279	23,99
518,763	24,5
519,247	24,94
519,731	25,29
520,215	25,44
520,699	26,16
521,182	26,76
521,666	26,75
522,149	27,35
522,633	27,87
523,116	28,85
523,599	29,16
524,082	29,02
524,565	29,39
525,048	30,23
525,53	30,19
526,013	30,87
526,495	31,44
526,978	31,64
527,46	31,89
527,942	31,79
528,424	32,7
528,906	32,78
529,388	33,03
529,87	33,91
530,351	33,47
530,833	33,92
531,314	34,57
531,795	34,67
532,277	35,08
532,758	35,41
533,238	34,85
533,719	35,25
534,2	34,97
534,681	35,74
535,161	36,03
535,642	36,46
536,122	35,9
536,602	36,04
537,082	36,53
537,562	36,8
538,042	36,52
538,522	36,8
539,001	36,83
539,481	36,98
539,96	36,92
540,44	37,15
540,919	37,05
541,398	37,23
541,877	37,45
542,356	37,37
542,835	37,15
543,313	37,63
543,792	37,74
544,27	37,57
544,749	37,87
545,227	37,73
545,705	38,03
546,183	38,79
546,661	38,17
547,139	38,02
547,616	37,97
548,094	38,25
548,571	38,3
549,049	38,48
549,526	38,31
550,003	38,55
550,48	38,19
550,957	38,59
551,434	38,42
551,911	38,51
552,387	38,16
552,864	38,51
553,34	39,01
553,817	38,45
554,293	38,89
554,769	38,46
555,245	38,63
555,721	38,69
556,197	38,49
556,672	38,26
557,148	38,44
557,623	38,64
558,099	37,93
558,574	38,34
559,049	37,97
559,524	38,63
559,999	37,98
560,474	37,86
560,948	37,26
561,423	38,09
561,897	37,31
562,372	37,54
562,846	37,33
563,32	37,02
563,794	37,03
564,268	37,05
564,742	36,69
565,216	36,51
565,69	36,05
566,163	36,23
566,636	35,89
567,11	35,65
567,583	35,37
568,056	35,33
568,529	34,96
569,002	34,85
569,475	34,6
569,947	33,75
570,42	34,14
570,892	33,65
571,365	33,29
571,837	33,25
572,309	33,3
572,781	32,64
573,253	32,41
573,725	32,01
574,197	32,44
574,668	31,92
575,14	32,06
575,611	31,66
576,082	30,96
576,554	31,04
577,025	31,08
577,496	30,23
577,967	30,14
578,437	30,32
578,908	29,83
579,379	29,67
579,849	29,68
580,319	29,65
580,79	28,83
581,26	28,89
581,73	28,85
582,2	28,56
582,669	28,63
583,139	28,56
583,609	28,3
584,078	28,48
584,548	27,87
585,017	28,14
585,486	27,38
585,955	27,67
586,424	27,5
586,893	27,31
587,362	27,27
587,83	27,55
588,299	27,03
588,767	27,17
589,236	26,91
589,704	26,64
590,172	26,57
590,64	26,51
591,108	26,34
591,576	26,58
592,043	26,25
592,511	26,03
592,978	26,15
593,446	25,88
593,913	25,77
594,38	26,02
594,847	25,75
595,314	25,61
595,781	25,63
596,248	25,49
596,715	25,8
597,181	25,17
597,647	25,49
598,114	25,6
598,58	25,5
599,046	25,38
599,512	25,34
599,978	25,18
600,444	25,05
600,91	25,05
601,375	25,28
601,841	25,15
602,306	24,97
602,771	24,91
603,236	24,8
603,702	25,2
604,167	24,75
604,631	24,64
605,096	24,55
605,561	24,45
606,025	24,38
606,49	24,08
606,954	24,28
607,418	23,9
607,882	23,89
608,347	23,91
608,81	23,75
609,274	23,52
609,738	23,23
610,202	23,46
610,665	23,29
611,128	22,98
611,592	22,67
612,055	22,91
612,518	22,77
612,981	22,69
613,444	22,49
613,907	22,28
614,369	22,46
614,832	22,38
615,294	22,12
615,757	21,89
616,219	22,25
616,681	21,58
617,143	21,36
617,605	21,68
618,067	21,39
618,529	21,41
618,99	21,16
619,452	20,96
619,913	20,91
620,375	21,04
620,836	21,09
621,297	20,98
621,758	20,71
622,219	20,79
622,68	20,61
623,14	20,26
623,601	20,46
624,061	20,54
624,522	20,47
624,982	20,37
625,442	20,65
625,902	20,37
626,362	20,36
626,822	19,94
627,282	20,51
627,742	20,33
628,201	20,2
628,661	20,07
629,12	20,18
629,579	20,09
630,038	20,23
630,497	20,2
630,956	19,84
631,415	19,96
631,874	19,81
632,332	19,92
632,791	19,9
633,249	19,88
633,708	19,87
634,166	19,5
634,624	19,37
635,082	19,54
635,54	19,53
635,998	19,15
636,455	19,24
636,913	19,14
637,37	19,01
637,828	18,74
638,285	18,83
638,742	18,57
639,199	18,4
639,656	18,24
640,113	18,1
640,57	18,1
641,027	17,82
641,483	17,59
641,94	17,66
642,396	17,36
642,852	17,42
643,309	17,01
643,765	17,11
644,221	16,99
644,676	16,59
645,132	16,65
645,588	16,44
646,043	16,26
646,499	15,95
646,954	15,82
647,409	15,91
647,864	15,62
648,319	15,54
648,774	15,46
649,229	15,34
649,684	15,38
650,139	15,2
650,593	15,08
651,047	15,03
651,502	14,84
651,956	14,92
652,41	14,87
652,864	14,95
653,318	14,72
653,772	14,64
654,225	14,61
654,679	14,65
655,133	14,48
655,586	14,37
656,039	14,26
656,492	14,21
656,946	14,27
657,399	14,12
657,851	14,02
658,304	13,94
658,757	13,94
659,209	13,87
659,662	13,67
660,114	13,49
660,567	13,55
661,019	13,41
661,471	13,13
661,923	13,21
662,375	13,07
662,826	12,91
663,278	12,79
663,73	12,81
664,181	12,94
664,632	12,84
665,084	12,89
665,535	12,87
665,986	12,92
666,437	12,72
666,888	12,72
667,338	12,49
667,789	12,79
668,24	12,69
668,69	12,64
669,14	12,62
669,591	12,59
670,041	12,67
670,491	12,67
670,941	12,83
671,391	12,87
671,84	12,82
672,29	12,87
672,74	12,89
673,189	13,14
673,638	13,05
674,088	13,35
674,537	13,31
674,986	13,38
675,435	13,4
675,883	13,59
676,332	13,64
676,781	13,71
677,229	13,71
677,678	13,81
678,126	14,17
678,574	14,29
679,022	14,25
679,47	14,39
679,918	14,6
680,366	14,72
680,814	14,8
681,261	14,89
681,709	15,08
682,156	15,22
682,604	15,44
683,051	15,42
683,498	15,61
683,945	15,8
684,392	15,84
684,839	16,09
685,286	16,21
685,732	16,08
686,179	16,46
686,625	16,76
687,071	16,78
687,518	17,2
687,964	17,35
688,41	17,61
688,856	17,83
689,301	18,29
689,747	18,46
690,193	18,84
690,638	19,44
691,084	19,64
691,529	20,17
691,974	20,75
692,419	21,24
692,864	22,2
693,309	22,77
693,754	23,11
694,199	23,89
694,643	24,53
695,088	25,29
695,532	25,96
695,977	26,84
696,421	27,61
696,865	28,13
697,309	29
697,753	29,66
698,197	30,78
698,64	31,24
699,084	32,41
699,527	33,05
699,971	33,85
700,414	34,34
700,857	35,4
701,3	36,1
701,743	36,93
702,186	37,85
702,629	38,48
703,072	39,37
703,515	40,18
703,957	40,58
704,399	41,54
704,842	41,99
705,284	42,82
705,726	43,6
706,168	44,36
706,61	45,19
707,052	45,34
707,494	46,42
707,935	47,2
708,377	47,95
708,818	48,37
709,26	48,86
709,701	49,66
710,142	50,39
710,583	50,59
711,024	51,22
711,465	52,15
711,905	52,65
712,346	52,8
712,787	53,66
713,227	54,43
713,667	54,88
714,108	55,24
714,548	56,07
714,988	56,69
715,428	57,34
715,868	57,93
716,307	58,26
716,747	58,54
717,186	59,05
717,626	59,69
718,065	60,5
718,504	60,52
718,944	61,38
719,383	61,7
719,822	62,22
720,261	62,35
720,699	62,8
721,138	63,27
721,576	63,71
722,015	64,41
722,453	64,47
722,892	65,12
723,33	65,52
723,768	66,57
724,206	66,69
724,644	66,08
725,081	66,61
725,519	67,18
725,957	67,37
726,394	67,79
726,832	67,7
727,269	68,11
727,706	68,6
728,143	68,46
728,58	69,49
729,017	68,74
729,454	69,66
729,89	69,99
730,327	69,46
730,764	70,37
731,2	70,31
731,636	70,69
732,072	71,01
732,509	70,93
732,945	71,28
733,38	71,1
733,816	71,7
734,252	71,67
734,688	72
735,123	72,23
735,559	72,15
735,994	71,91
736,429	72,39
736,864	72,92
737,299	72,74
737,734	73,02
738,169	72,54
738,604	73,14
739,038	72,87
739,473	72,98
739,907	73,28
740,342	73,32
740,776	73,41
741,21	73,5
741,644	73,9
742,078	73,69
742,512	73,71
742,946	74
743,379	73,25
743,813	73,37
744,246	73,69
744,68	73,92
745,113	73,41
745,546	73,43
745,979	73,84
746,412	73,41
746,845	73,33
747,278	73,62
747,711	73,28
748,143	73,67
748,576	73,95
749,008	74,16
749,441	73,13
749,873	73,27
750,305	73,76
750,737	73,46
751,169	73,35
751,601	73,33
752,032	73,31
752,464	73,14
752,896	72,72
753,327	73,17
753,758	73,23
754,19	73,01
754,621	72,92
755,052	73,1
755,483	72,89
755,914	73,38
756,344	72,99
756,775	73,42
757,206	73,1
757,636	73,39
758,066	72,97
758,497	72,77
758,927	73,21
759,357	72,82
759,787	72,95
760,217	72,84
760,647	72,62
761,076	72,71
761,506	72,48
761,935	72,63
762,365	72,87
762,794	72,41
763,223	72,67
763,653	72,64
764,082	72,02
764,51	72,76
764,939	72,4
765,368	72,36
765,797	72,38
766,225	72,4
766,654	72,19
767,082	71,83
767,51	72,27
767,938	71,86
768,367	71,76
768,795	71,64
769,222	72,33
769,65	71,96
770,078	71,6
770,505	71,97
770,933	71,69
771,36	72,52
771,788	71,45
772,215	72,01
772,642	71,72
773,069	71,49
773,496	71,41
773,923	71,48
774,349	71,32
774,776	71,61
775,203	71,29
775,629	71,65
776,055	70,75
776,482	70,65
776,908	70,85
777,334	70,68
777,76	71,19
778,186	71,6
778,611	71,74
779,037	71,75
779,463	71,53
779,888	71,13
780,314	71,16
780,739	71,4
781,164	71,1
781,589	70,56
782,014	70,94
782,439	71,11
782,864	71,4
783,289	71,55
783,713	70,65
784,138	71,05
784,562	70,68
784,987	71,01
785,411	70,73
785,835	70,77
786,259	70,62
786,683	70,99
787,107	71,09
787,531	71
787,954	70,82
788,378	70,97
788,802	70,95
789,225	70,57
789,648	71,08
790,071	69,93
790,495	71,17
790,918	70,96
791,34	70,97
791,763	70,57
792,186	70,46
792,609	70,66
793,031	70,51
793,454	70,64
793,876	70,9
794,298	70,55
794,721	70,6
795,143	70,88
795,565	70,53
795,986	70,06
796,408	70,95
796,83	70,53
797,252	70,8
797,673	70,79
798,094	70,92
798,516	70,48
798,937	70,74
799,358	70,34
799,779	70,59
800,2	70,49
800,621	70,39
801,042	70,17
801,462	70,91
801,883	70,48
802,303	70,2
802,724	70,66
803,144	70,46
803,564	70,53
803,984	70,59
804,404	70,68
804,824	70,51
805,244	70,58
805,664	70,69
806,084	70,53
806,503	70,64
806,923	70,67
807,342	70,44
807,761	70,23
808,18	70,44
808,599	70,22
809,018	70,6
809,437	70,36
809,856	70,02
810,275	70,59
810,693	69,69
811,112	70,21
811,53	70,46
811,949	70,67
812,367	70,47
812,785	70,55
813,203	70,68
813,621	70,28
814,039	69,76
814,457	70,43
814,874	70,22
815,292	70,22
815,709	70,34
816,127	70,75
816,544	70,34
816,961	70,36
817,378	70,87
817,795	70,54
818,212	70,24
818,629	70,88
819,046	70,14
819,462	70,17
819,879	70,19
820,295	69,95
820,712	70,39
821,128	70,31
821,544	70,52
821,96	70,67
822,376	70,17
822,792	70,35
823,208	69,96
823,624	70,29
824,039	70,07
824,455	70,58
824,87	69,76
825,286	70,09
825,701	70,12
826,116	70,04
826,531	70,57
826,946	70,13
827,361	70,1
827,776	70,11
828,19	69,94
828,605	69,86
829,02	70,07
829,434	70,13
829,848	70,03
830,263	70,56
830,677	69,71
831,091	69,9
831,505	69,77
831,919	70,32
832,332	70,2
832,746	70,25
833,16	69,62
833,573	70,08
833,987	70,42
