Data from B3___Relative__0__00023.txt Node

Date: Wed Jan 31 17:56:47 CET 2024
User: diatiterra
Spectrometer: HDX00911
Trigger mode: 0
Integration Time (sec): 6,000000E-3
Scans to average: 2
Nonlinearity correction enabled: false
Boxcar width: 0
Storing dark spectrum: false
XAxis mode: Wavelengths
Number of Pixels in Spectrum: 2068
>>>>>Begin Spectral Data<<<<<
194,468	94,34
195,025	76,36
195,581	100
196,138	73,08
196,694	67,9
197,251	64,65
197,807	55,12
198,363	60,4
198,919	55,52
199,474	59,56
200,03	63,93
200,586	78,57
201,141	53,55
201,696	54,7
202,251	53,79
202,806	54,2
203,361	60
203,916	58,68
204,471	59,12
205,025	67,34
205,58	60
206,134	61,6
206,688	65
207,242	63,27
207,796	57,14
208,35	58,33
208,904	65,86
209,457	53,12
210,011	50,35
210,564	60,21
211,117	63,53
211,67	64,18
212,223	50,68
212,776	56,85
213,329	59
213,881	63,24
214,434	60,2
214,986	59,92
215,538	66,18
216,09	51,41
216,642	64,88
217,194	59,85
217,746	59,77
218,297	63,74
218,849	62,5
219,4	69,75
219,951	63,31
220,502	60,14
221,053	68,32
221,604	60,74
222,155	50,4
222,705	60,66
223,256	61,94
223,806	62,6
224,356	59,23
224,906	62,5
225,456	61,24
226,006	60,32
226,556	44,81
227,106	52,42
227,655	50
228,204	59,58
228,754	45,77
229,303	51,43
229,852	43,53
230,401	54,85
230,949	50,36
231,498	51,76
232,047	45,45
232,595	54,48
233,143	59,45
233,691	50,78
234,239	48,57
234,787	52
235,335	52,24
235,883	54,9
236,43	53,79
236,978	58,46
237,525	49,64
238,072	50,35
238,619	57,95
239,166	49,29
239,713	47,81
240,26	47,5
240,806	57,29
241,353	56,35
241,899	56,29
242,445	56,93
242,991	57,25
243,537	54,17
244,083	61,07
244,629	52,69
245,174	56,19
245,72	50,74
246,265	51,59
246,81	52,4
247,355	61,9
247,9	46,64
248,445	59,92
248,99	54,17
249,534	63,04
250,079	58,27
250,623	52,22
251,168	61,16
251,712	51,56
252,256	60,66
252,8	53,85
253,343	50
253,887	43,55
254,43	50
254,974	59,92
255,517	48,29
256,06	60,38
256,603	40,37
257,146	48,84
257,689	59,06
258,232	57,2
258,774	57,09
259,317	61,44
259,859	51,38
260,401	58,91
260,943	50
261,485	53,55
262,027	46,8
262,569	54,48
263,11	50
263,652	64,96
264,193	57,44
264,734	59,85
265,275	60,66
265,816	47,71
266,357	57,36
266,898	53,85
267,438	54,72
267,979	49,64
268,519	49,63
269,059	57,01
269,6	52,26
270,14	59,27
270,68	51,81
271,219	55,93
271,759	48,12
272,298	53,01
272,838	57,69
273,377	53,17
273,916	45,32
274,455	61,31
274,994	51,6
275,533	55,07
276,072	55,69
276,61	46,74
277,149	60,83
277,687	53,01
278,225	46,67
278,763	68,42
279,301	53,33
279,839	54,03
280,377	58,61
280,914	45,8
281,452	72,65
281,989	57,02
282,526	54,72
283,064	62,18
283,601	47,64
284,137	50,83
284,674	60,42
285,211	62,28
285,747	54,17
286,284	61,71
286,82	50
287,356	52,96
287,892	58,14
288,428	56,61
288,964	65,97
289,5	66,94
290,035	58,8
290,571	57,98
291,106	57,72
291,641	68,3
292,176	49,22
292,711	62,6
293,246	53,85
293,781	59,92
294,315	51,76
294,85	60,65
295,384	51,23
295,918	51,84
296,453	47,01
296,987	54,96
297,52	54,13
298,054	55,73
298,588	48,33
299,121	56,72
299,655	57,66
300,188	53,75
300,721	56,91
301,254	53,63
301,787	59,77
302,32	59,76
302,853	53,2
303,385	57,86
303,918	55,81
304,45	58,46
304,982	46,81
305,514	56,2
306,046	51,24
306,578	51,94
307,11	58,91
307,641	59,05
308,173	58,26
308,704	51,24
309,236	50
309,767	54,96
310,298	50,81
310,829	63,04
311,359	48,39
311,89	51,26
312,421	54,95
312,951	60,98
313,481	48,62
314,012	53,73
314,542	52,97
315,072	48,09
315,601	52
316,131	59,06
316,661	46,25
317,19	48,89
317,72	60,33
318,249	53,97
318,778	58,98
319,307	51,56
319,836	50
320,365	52,17
320,893	47,52
321,422	60,57
321,95	56,39
322,479	55,73
323,007	48,64
323,535	45,36
324,063	59,6
324,591	53,2
325,118	53,65
325,646	51,68
326,173	56,25
326,701	56,5
327,228	59,91
327,755	48,87
328,282	48,85
328,809	53,81
329,336	52,36
329,862	54,78
330,389	51,95
330,915	51,18
331,441	51,53
331,968	58,56
332,494	51,89
333,02	56,25
333,545	45,15
334,071	61,57
334,597	44,37
335,122	51,85
335,648	58,62
336,173	44,32
336,698	48,73
337,223	50,37
337,748	53,47
338,272	55,48
338,797	50,36
339,322	41,24
339,846	43,38
340,37	58,47
340,894	45,14
341,419	45,11
341,942	46,85
342,466	48,08
342,99	44,97
343,514	49,3
344,037	44,62
344,56	57,04
345,084	44,52
345,607	43,75
346,13	47,89
346,653	54
347,175	43,27
347,698	36,48
348,221	38,93
348,743	45,96
349,265	41,73
349,787	39,26
350,309	37,34
350,831	37,04
351,353	42,38
351,875	42,11
352,397	39,16
352,918	39,8
353,439	42,38
353,961	33,43
354,482	41,81
355,003	41,28
355,524	38,61
356,044	36,08
356,565	42,47
357,086	39,55
357,606	30,49
358,126	36,97
358,646	39,54
359,167	38,11
359,687	38,98
360,206	37,16
360,726	29,62
361,246	39,63
361,765	35,59
362,285	38,75
362,804	37,63
363,323	31,22
363,842	34,62
364,361	35,57
364,88	33
365,398	36,68
365,917	31,84
366,435	38,28
366,954	37,95
367,472	29,25
367,99	40,05
368,508	32,79
369,026	42,05
369,544	35,96
370,061	34,03
370,579	29,71
371,096	36,7
371,613	34,91
372,131	33,27
372,648	33,66
373,165	37,11
373,681	33,97
374,198	34,96
374,715	34,02
375,231	33,52
375,747	33,1
376,264	29,25
376,78	30,04
377,296	31,23
377,812	30,73
378,327	30,96
378,843	32,94
379,359	33,61
379,874	31,49
380,389	30,91
380,905	32,09
381,42	30,4
381,935	31,1
382,449	32,01
382,964	31,14
383,479	28,16
383,993	28,95
384,508	28,87
385,022	28,11
385,536	25,92
386,05	27,03
386,564	26,99
387,078	28,83
387,592	25,06
388,105	26,24
388,619	28,01
389,132	26,4
389,645	27,01
390,158	23,82
390,671	24,03
391,184	22,87
391,697	23,65
392,21	21,95
392,722	22,72
393,235	25,23
393,747	21,98
394,259	21,35
394,771	22,76
395,283	21,7
395,795	21,92
396,307	25,14
396,818	21,4
397,33	19,64
397,841	20,8
398,353	22,32
398,864	20,23
399,375	20,45
399,886	20,62
400,397	18,46
400,907	20,6
401,418	18,77
401,928	17,77
402,439	19,24
402,949	16,81
403,459	17,56
403,969	16,63
404,479	16,04
404,989	15,42
405,498	15,87
406,008	16,44
406,517	13,81
407,027	13,8
407,536	13,11
408,045	13,22
408,554	13,57
409,063	11,92
409,572	12
410,08	12,11
410,589	12,22
411,097	10,57
411,606	11,29
412,114	9,99
412,622	10,94
413,13	9,65
413,638	9,52
414,145	9,07
414,653	9,61
415,16	8,28
415,668	8,79
416,175	7,92
416,682	8,02
417,189	7,37
417,696	7,56
418,203	8,16
418,71	7,83
419,216	7,99
419,723	7,8
420,229	6,81
420,735	7,19
421,242	6,93
421,748	6,87
422,254	7,17
422,759	6,86
423,265	7,09
423,771	6,75
424,276	6,67
424,781	6,56
425,287	6,78
425,792	6,29
426,297	6,17
426,802	5,93
427,306	6,13
427,811	6,55
428,316	6,12
428,82	6,03
429,324	6,57
429,829	5,89
430,333	6,05
430,837	5,86
431,34	5,68
431,844	5,6
432,348	5,84
432,851	5,31
433,355	6,1
433,858	5,7
434,361	5,94
434,864	5,74
435,367	5,48
435,87	5,94
436,373	5,42
436,876	5,63
437,378	5,56
437,88	5,98
438,383	5,42
438,885	5,72
439,387	5,72
439,889	5,54
440,391	5,51
440,892	5,9
441,394	5,66
441,896	5,57
442,397	5,6
442,898	5,66
443,399	5,59
443,9	5,46
444,401	5,48
444,902	5,8
445,403	5,77
445,903	5,59
446,404	6,05
446,904	5,96
447,405	5,55
447,905	5,84
448,405	5,5
448,905	6,31
449,404	6,1
449,904	5,67
450,404	5,86
450,903	6,2
451,403	6,16
451,902	6,22
452,401	6,36
452,9	6,54
453,399	6,3
453,898	6,04
454,396	6,21
454,895	5,98
455,393	5,99
455,892	6,04
456,39	6,54
456,888	6,37
457,386	6,27
457,884	6,22
458,382	6,62
458,879	6,18
459,377	6,76
459,874	6,34
460,372	6,53
460,869	6,39
461,366	6,13
461,863	6,2
462,36	6,37
462,857	6,31
463,353	6,42
463,85	6,41
464,346	6,28
464,843	6,61
465,339	6,23
465,835	6,43
466,331	6,58
466,827	6,16
467,323	6,05
467,818	6,34
468,314	6,47
468,809	6,36
469,305	6,16
469,8	6,23
470,295	6,45
470,79	6,18
471,285	6,27
471,78	6,18
472,274	6,17
472,769	6,2
473,263	6,1
473,758	6,39
474,252	6,14
474,746	6,73
475,24	6,59
475,734	6,26
476,228	6,36
476,721	6,35
477,215	6,38
477,708	6,56
478,202	6,17
478,695	6,43
479,188	6,4
479,681	6,5
480,174	6,43
480,667	6,45
481,159	6,45
481,652	6,59
482,144	6,53
482,637	6,56
483,129	6,25
483,621	6,49
484,113	6,62
484,605	6,86
485,097	6,68
485,588	6,69
486,08	6,88
486,571	6,83
487,063	6,73
487,554	6,86
488,045	7,06
488,536	6,83
489,027	6,98
489,518	6,93
490,008	6,69
490,499	7,29
490,989	7,05
491,48	7,06
491,97	6,93
492,46	7,15
492,95	7,38
493,44	7,6
493,93	7,5
494,419	7,66
494,909	7,56
495,398	7,87
495,888	7,73
496,377	7,9
496,866	8,1
497,355	7,97
497,844	8,3
498,333	8,43
498,821	8,4
499,31	8,53
499,798	8,53
500,287	8,71
500,775	9,19
501,263	9,23
501,751	9,1
502,239	9,33
502,727	9,68
503,215	9,73
503,702	9,95
504,19	9,84
504,677	10,69
505,164	10,59
505,651	10,69
506,139	10,69
506,625	11,3
507,112	11,21
507,599	11,76
508,086	11,62
508,572	11,76
509,058	12,09
509,545	12,07
510,031	12,29
510,517	12,71
511,003	12,79
511,489	13,29
511,974	13,86
512,46	13,48
512,946	14,23
513,431	14,25
513,916	14,91
514,401	14,98
514,887	15,13
515,371	15,88
515,856	15,99
516,341	16,31
516,826	16,47
517,31	16,94
517,795	17,62
518,279	17,08
518,763	18,02
519,247	18,44
519,731	18,65
520,215	18,94
520,699	19,34
521,182	19,46
521,666	19,63
522,149	20,24
522,633	20,47
523,116	20,99
523,599	21,5
524,082	21,85
524,565	22,13
525,048	22,4
525,53	22,43
526,013	23,2
526,495	23,42
526,978	23,4
527,46	24,1
527,942	23,73
528,424	24,17
528,906	24,65
529,388	24,66
529,87	25,05
530,351	25
530,833	25,2
531,314	25,73
531,795	25,61
532,277	26,17
532,758	25,94
533,238	26,17
533,719	26,47
534,2	26,17
534,681	26,77
535,161	26,72
535,642	27
536,122	26,93
536,602	27,31
537,082	27,27
537,562	27,47
538,042	26,9
538,522	27,71
539,001	27,64
539,481	27,82
539,96	27,66
540,44	27,84
540,919	27,3
541,398	27,7
541,877	27,62
542,356	27,85
542,835	27,78
543,313	27,92
543,792	28,16
544,27	27,93
544,749	28,18
545,227	28,2
545,705	28,72
546,183	28,78
546,661	28,57
547,139	28,19
547,616	28,26
548,094	28,52
548,571	28,8
549,049	28,6
549,526	28,57
550,003	29,08
550,48	28,68
550,957	28,49
551,434	28,8
551,911	28,93
552,387	28,49
552,864	28,8
553,34	28,97
553,817	29,03
554,293	28,99
554,769	28,58
555,245	28,5
555,721	28,73
556,197	28,62
556,672	28,63
557,148	28,91
557,623	29,2
558,099	28,68
558,574	28,7
559,049	28,51
559,524	28,57
559,999	28,25
560,474	28,47
560,948	27,89
561,423	28,36
561,897	28,22
562,372	28,16
562,846	28,1
563,32	27,84
563,794	27,73
564,268	28,07
564,742	27,82
565,216	27,29
565,69	26,93
566,163	26,8
566,636	26,9
567,11	26,96
567,583	26,73
568,056	26,62
568,529	26,14
569,002	26,2
569,475	25,85
569,947	25,7
570,42	25,82
570,892	25,18
571,365	25,15
571,837	24,86
572,309	24,75
572,781	24,19
573,253	24,58
573,725	24,04
574,197	24,06
574,668	23,85
575,14	23,4
575,611	23,26
576,082	23,28
576,554	22,93
577,025	22,8
577,496	22,54
577,967	22,3
578,437	22,26
578,908	22,09
579,379	22,17
579,849	21,78
580,319	22,13
580,79	21,74
581,26	21,51
581,73	21,31
582,2	20,98
582,669	21,25
583,139	21,01
583,609	20,98
584,078	21,21
584,548	20,6
585,017	20,84
585,486	20,3
585,955	20,7
586,424	20,51
586,893	20,48
587,362	20,25
587,83	20,31
588,299	19,9
588,767	19,94
589,236	19,93
589,704	19,47
590,172	19,38
590,64	19,66
591,108	19,29
591,576	19,57
592,043	19,3
592,511	19,24
592,978	19,35
593,446	18,98
593,913	18,99
594,38	19,11
594,847	19,02
595,314	19,03
595,781	18,86
596,248	18,69
596,715	18,76
597,181	18,66
597,647	18,73
598,114	18,65
598,58	18,55
599,046	18,58
599,512	18,57
599,978	18,46
600,444	18,23
600,91	18,32
601,375	18,4
601,841	18,47
602,306	18,3
602,771	18,26
603,236	18,04
603,702	18,21
604,167	18,26
604,631	18,04
605,096	17,9
605,561	17,84
606,025	17,95
606,49	17,7
606,954	17,72
607,418	17,48
607,882	17,36
608,347	17,3
608,81	17,34
609,274	17,21
609,738	16,94
610,202	17,13
610,665	16,91
611,128	16,76
611,592	16,73
612,055	16,63
612,518	16,65
612,981	16,63
613,444	16,35
613,907	16,28
614,369	16,2
614,832	15,9
615,294	15,92
615,757	15,92
616,219	15,86
616,681	15,39
617,143	15,81
617,605	15,5
618,067	15,45
618,529	15,39
618,99	15,37
619,452	15,08
619,913	15,16
620,375	15,26
620,836	15,16
621,297	15,38
621,758	14,87
622,219	14,86
622,68	14,78
623,14	14,67
623,601	14,78
624,061	14,67
624,522	14,82
624,982	14,66
625,442	14,56
625,902	14,46
626,362	14,49
626,822	14,51
627,282	14,56
627,742	14,57
628,201	14,47
628,661	14,37
629,12	14,32
629,579	14,44
630,038	14,3
630,497	14,56
630,956	14,18
631,415	14,3
631,874	14,33
632,332	14,18
632,791	14,33
633,249	14,01
633,708	14,02
634,166	13,97
634,624	13,95
635,082	13,82
635,54	13,95
635,998	13,66
636,455	13,41
636,913	13,42
637,37	13,32
637,828	13,14
638,285	13,2
638,742	12,9
639,199	13,02
639,656	12,62
640,113	12,64
640,57	12,65
641,027	12,36
641,483	12,27
641,94	11,95
642,396	12,03
642,852	11,93
643,309	11,5
643,765	11,5
644,221	11,42
644,676	11,3
645,132	10,99
645,588	11,09
646,043	10,9
646,499	10,87
646,954	10,68
647,409	10,48
647,864	10,43
648,319	10,13
648,774	10,08
649,229	10,12
649,684	10,02
650,139	9,97
650,593	9,91
651,047	9,85
651,502	9,63
651,956	9,62
652,41	9,66
652,864	9,52
653,318	9,6
653,772	9,56
654,225	9,46
654,679	9,37
655,133	9,49
655,586	9,3
656,039	9,26
656,492	9,04
656,946	8,98
657,399	9,07
657,851	8,82
658,304	8,96
658,757	8,82
659,209	8,73
659,662	8,59
660,114	8,58
660,567	8,42
661,019	8,2
661,471	8,22
661,923	8,11
662,375	8
662,826	7,88
663,278	7,84
663,73	7,72
664,181	7,75
664,632	7,55
665,084	7,59
665,535	7,43
665,986	7,43
666,437	7,3
666,888	7,24
667,338	7,39
667,789	7,33
668,24	7,07
668,69	7
669,14	7,13
669,591	7,03
670,041	7,12
670,491	7,16
670,941	7,01
671,391	7,06
671,84	7,03
672,29	6,98
672,74	7,12
673,189	7,24
673,638	7,05
674,088	7,23
674,537	7,24
674,986	7,3
675,435	7,45
675,883	7,56
676,332	7,52
676,781	7,5
677,229	7,63
677,678	7,66
678,126	7,72
678,574	7,8
679,022	8,12
679,47	8,05
679,918	8,11
680,366	8,34
680,814	8,35
681,261	8,49
681,709	8,65
682,156	8,65
682,604	8,98
683,051	9,01
683,498	9,3
683,945	9,36
684,392	9,44
684,839	9,76
685,286	9,9
685,732	10,17
686,179	10,3
686,625	10,55
687,071	10,7
687,518	11,07
687,964	11,28
688,41	11,54
688,856	11,72
689,301	12,21
689,747	12,33
690,193	12,91
690,638	13,2
691,084	13,76
691,529	13,96
691,974	14,57
692,419	15,1
692,864	15,69
693,309	16,14
693,754	16,69
694,199	17,15
694,643	17,58
695,088	18,15
695,532	18,86
695,977	19,46
696,421	20
696,865	20,49
697,309	21,08
697,753	21,74
698,197	22,39
698,64	23,09
699,084	23,71
699,527	24,14
699,971	24,53
700,414	25,4
700,857	25,84
701,3	26,28
701,743	27,05
702,186	27,6
702,629	28,41
703,072	28,87
703,515	29,23
703,957	29,79
704,399	30,6
704,842	31,05
705,284	31,64
705,726	31,91
706,168	32,43
706,61	33,19
707,052	33,45
707,494	34,48
707,935	34,74
708,377	35,34
708,818	35,62
709,26	36,19
709,701	36,52
710,142	37,43
710,583	37,63
711,024	38,14
711,465	38,66
711,905	38,91
712,346	39,42
712,787	39,76
713,227	40,81
713,667	40,82
714,108	41,49
714,548	41,84
714,988	42,2
715,428	42,7
715,868	43,35
716,307	43,58
716,747	44,11
717,186	44,37
717,626	44,79
718,065	45,32
718,504	45,57
718,944	46,32
719,383	46,39
719,822	46,38
720,261	46,87
720,699	47,46
721,138	47,21
721,576	48,15
722,015	48,42
722,453	48,96
722,892	48,96
723,33	49,79
723,768	50,13
724,206	49,89
724,644	50,43
725,081	50,69
725,519	50,77
725,957	51,08
726,394	51,47
726,832	51,76
727,269	51,73
727,706	52,33
728,143	52,21
728,58	52,66
729,017	52,37
729,454	53,19
729,89	53,48
730,327	53,17
730,764	53,72
731,2	53,72
731,636	53,87
732,072	54,05
732,509	54,28
732,945	54,44
733,38	54,76
733,816	54,99
734,252	54,8
734,688	54,84
735,123	55,16
735,559	55,26
735,994	55,23
736,429	55,62
736,864	55,69
737,299	55,58
737,734	55,88
738,169	55,8
738,604	56,09
739,038	55,79
739,473	56,18
739,907	56,15
740,342	55,91
740,776	56,43
741,21	56,46
741,644	56,55
742,078	56,25
742,512	56,19
742,946	56,44
743,379	56,14
743,813	56,48
744,246	56,37
744,68	56,4
745,113	56,53
745,546	56,31
745,979	56,46
746,412	56,32
746,845	56,34
747,278	56,22
747,711	56,32
748,143	56,35
748,576	57,09
749,008	56,68
749,441	56,21
749,873	56,22
750,305	56,4
750,737	56,27
751,169	56,11
751,601	56,17
752,032	56,31
752,464	56,01
752,896	55,66
753,327	55,91
753,758	56,02
754,19	56,16
754,621	55,85
755,052	55,84
755,483	55,9
755,914	56,07
756,344	56,11
756,775	56,26
757,206	56,09
757,636	56,01
758,066	55,94
758,497	55,61
758,927	56,29
759,357	55,89
759,787	55,87
760,217	55,71
760,647	55,8
761,076	55,3
761,506	55,3
761,935	55,45
762,365	55,55
762,794	54,81
763,223	55,44
763,653	55,4
764,082	55,13
764,51	55,07
764,939	55,2
765,368	54,87
765,797	55,38
766,225	54,98
766,654	55,06
767,082	54,66
767,51	55,23
767,938	54,74
768,367	54,8
768,795	54,58
769,222	54,79
769,65	54,89
770,078	54,6
770,505	54,81
770,933	54,91
771,36	55,04
771,788	54,76
772,215	54,7
772,642	54,59
773,069	54,59
773,496	54,43
773,923	54,2
774,349	54,51
774,776	54,83
775,203	54,26
775,629	54,55
776,055	54,07
776,482	54,5
776,908	54,11
777,334	54,14
777,76	54,51
778,186	54,3
778,611	54,53
779,037	54,48
779,463	54,29
779,888	54,49
780,314	53,98
780,739	54,43
781,164	54,7
781,589	53,95
782,014	54,06
782,439	54,14
782,864	54,41
783,289	54,42
783,713	54
784,138	53,98
784,562	53,76
784,987	53,8
785,411	53,87
785,835	53,63
786,259	53,83
786,683	54,15
787,107	53,73
787,531	53,73
787,954	54,25
788,378	53,93
788,802	54,01
789,225	53,79
789,648	53,98
790,071	53,57
790,495	54,39
790,918	53,96
791,34	53,95
791,763	53,69
792,186	53,56
792,609	53,57
793,031	53,56
793,454	53,9
793,876	53,69
794,298	53,54
794,721	53,35
795,143	54,18
795,565	53,4
795,986	53,41
796,408	53,48
796,83	53,76
797,252	53,6
797,673	53,87
798,094	53,8
798,516	53,72
798,937	53,81
799,358	53,21
799,779	53,45
800,2	53,68
800,621	53,41
801,042	53,38
801,462	53,53
801,883	53,18
802,303	53,16
802,724	53,83
803,144	53,02
803,564	53,63
803,984	53,64
804,404	53,61
804,824	53,59
805,244	53,55
805,664	53,69
806,084	53,57
806,503	53,54
806,923	53,14
807,342	53,48
807,761	53,32
808,18	53,24
808,599	53,19
809,018	53,48
809,437	53,4
809,856	53,18
810,275	53,49
810,693	52,9
811,112	53,34
811,53	53,29
811,949	53,42
812,367	53,72
812,785	53,58
813,203	53,62
813,621	53,4
814,039	53,65
814,457	53,37
814,874	53,16
815,292	53,38
815,709	53,08
816,127	53,2
816,544	53,33
816,961	53,11
817,378	53,7
817,795	53,44
818,212	53,33
818,629	53,56
819,046	52,84
819,462	53,15
819,879	52,68
820,295	53,25
820,712	53,33
821,128	53,15
821,544	53,06
821,96	53,41
822,376	53,32
822,792	53,14
823,208	53,04
823,624	53,16
824,039	52,86
824,455	53,21
824,87	52,73
825,286	53,4
825,701	52,71
826,116	52,97
826,531	53,17
826,946	53,02
827,361	53,18
827,776	53,11
828,19	53,16
828,605	52,54
829,02	53,08
829,434	52,82
829,848	52,52
830,263	53,11
830,677	52,5
831,091	52,7
831,505	52,71
831,919	53,17
832,332	53,41
832,746	53,01
833,16	52,43
833,573	52,77
833,987	53,42
834,4	53,06
834,813	52,62
835,226	52,87
835,639	52,94
836,052	52,83
836,465	52,99
836,878	52,77
837,29	52,69
837,703	52,84
838,116	53,04
838,528	52,89
838,94	52,99
839,352	52,96
839,765	52,76
840,177	52,87
840,589	52,84
841	52,42
841,412	52,67
841,824	52,95
842,235	53,07
842,647	52,58
843,058	53,09
