Data from C4___Relative__1__00034.txt Node

Date: Wed Jan 31 18:20:54 CET 2024
User: diatiterra
Spectrometer: HDX00911
Trigger mode: 0
Integration Time (sec): 6,000000E-3
Scans to average: 2
Nonlinearity correction enabled: false
Boxcar width: 0
Storing dark spectrum: false
XAxis mode: Wavelengths
Number of Pixels in Spectrum: 2068
>>>>>Begin Spectral Data<<<<<
194,468	222,64
195,025	155,45
195,581	204,88
196,138	224,36
196,694	137,65
197,251	125,76
197,807	103,54
198,363	102,8
198,919	94,48
199,474	103,31
200,03	102,46
200,586	112,95
201,141	87,42
201,696	98,99
202,251	95,45
202,806	94,76
203,361	104,81
203,916	94,44
204,471	95,26
205,025	110,48
205,58	97,5
206,134	106,4
206,688	103,85
207,242	112,83
207,796	100,38
208,35	107,61
208,904	107,93
209,457	94,44
210,011	96,81
210,564	103,87
211,117	104,14
211,67	109,33
212,223	101,37
212,776	112,9
213,329	98
213,881	129,41
214,434	94,08
214,986	111,98
215,538	109,93
216,09	95,42
216,642	116,12
217,194	112,5
217,746	106,02
218,297	109,54
218,849	107,72
219,4	113,45
219,951	106,85
220,502	102,03
221,053	112,6
221,604	101,68
222,155	103,17
222,705	94,85
223,256	111,19
223,806	114,17
224,356	105,38
224,906	117,34
225,456	112,4
226,006	103,57
226,556	89,61
227,106	117,34
227,655	90,28
228,204	103,75
228,754	96,48
229,303	104,64
229,852	96,4
230,401	105,22
230,949	109,35
231,498	98,24
232,047	92,21
232,595	106,21
233,143	108,27
233,691	96,9
234,239	93,21
234,787	102
235,335	105,22
235,883	90,21
236,43	101,52
236,978	105
237,525	98,54
238,072	99,65
238,619	111,36
239,166	99,29
239,713	101,09
240,26	94,29
240,806	92,01
241,353	102,38
241,899	99,3
242,445	104,38
242,991	114,12
243,537	96,21
244,083	111,45
244,629	100,77
245,174	113,27
245,72	93,7
246,265	100
246,81	116,8
247,355	110,32
247,9	93,66
248,445	113,49
248,99	106,06
249,534	120,87
250,079	102,26
250,623	98,15
251,168	115,29
251,712	102,34
252,256	120,9
252,8	111,15
253,343	102,5
253,887	100,4
254,43	104,2
254,974	105,34
255,517	90,41
256,06	110,77
256,603	100,37
257,146	105,81
257,689	116,54
258,232	112,29
258,774	102,48
259,317	108,05
259,859	122,94
260,401	104,65
260,943	95,74
261,485	100
262,027	108,8
262,569	108,58
263,11	108,85
263,652	122,05
264,193	115,29
264,734	110,95
265,275	111,48
265,816	97,71
266,357	111,24
266,898	108,85
267,438	117,32
267,979	96,4
268,519	101,12
269,059	126,64
269,6	106,39
270,14	117,34
270,68	107,61
271,219	113,56
271,759	102,26
272,298	110,53
272,838	117,69
273,377	102,38
273,916	87,41
274,455	105,84
274,994	108
275,533	107,61
276,072	111,38
276,61	97,46
277,149	109,58
277,687	107,89
278,225	93
278,763	115,79
279,301	114,58
279,839	110,89
280,377	106,97
280,914	89,86
281,452	116,67
281,989	100,83
282,526	111,02
283,064	111,34
283,601	95,27
284,137	97,93
284,674	112,08
285,211	124,56
285,747	103,03
286,284	117,57
286,82	113,22
287,356	95,72
287,892	108,53
288,428	102,89
288,964	118,07
289,5	117,36
290,035	108,4
290,571	111,76
291,106	111,38
291,641	120,09
292,176	111,72
292,711	111,79
293,246	101,15
293,781	115,7
294,315	88,73
294,85	120,37
295,384	105,33
295,918	95,96
296,453	96,27
296,987	105,79
297,52	112,81
298,054	105,34
298,588	112,5
299,121	97,39
299,655	101,82
300,188	106,25
300,721	110,57
301,254	114,52
301,787	102,73
302,32	112,2
302,853	104,8
303,385	101,43
303,918	102,71
304,45	106,15
304,982	96,1
305,514	104,65
306,046	108,26
306,578	107,36
307,11	105,81
307,641	105,6
308,173	107,85
308,704	90,91
309,236	95,86
309,767	104,26
310,298	107,66
310,829	114,35
311,359	106,45
311,89	110,5
312,421	97,75
312,951	113,01
313,481	83,79
314,012	101,12
314,542	116,53
315,072	93,51
315,601	107,2
316,131	111,42
316,661	101,67
317,19	98,15
317,72	114,05
318,249	111,51
318,778	95,31
319,307	106,25
319,836	109,29
320,365	111,74
320,893	107,85
321,422	116,67
321,95	105,64
322,479	108,78
323,007	117,73
323,535	92,14
324,063	110,4
324,591	108,8
325,118	97,81
325,646	114,71
326,173	110,42
326,701	115,85
327,228	108,19
327,755	96,99
328,282	96,56
328,809	113,56
329,336	101,97
329,862	98,9
330,389	96,88
330,915	94,49
331,441	108,02
331,968	110,81
332,494	96,97
333,02	105
333,545	96,27
334,071	117,36
334,597	89,08
335,122	94,07
335,648	106,9
336,173	96,21
336,698	83,86
337,223	100,37
337,748	92,36
338,272	97,95
338,797	97,46
339,322	87,23
339,846	93,38
340,37	103,63
340,894	90,97
341,419	103,76
341,942	104,2
342,466	97,44
342,99	93,62
343,514	98,94
344,037	89,56
344,56	98,15
345,084	92,12
345,607	94,1
346,13	95,07
346,653	100,33
347,175	93,59
347,698	83,96
348,221	82,14
348,743	91,61
349,265	95,32
349,787	83,13
350,309	80,38
350,831	81,48
351,353	85,37
351,875	84,21
352,397	93,01
352,918	95,07
353,439	100
353,961	77,03
354,482	86,55
355,003	84,59
355,524	79,44
356,044	79,55
356,565	93,07
357,086	87,01
357,606	78,57
358,126	87,5
358,646	78,06
359,167	85,14
359,687	88,42
360,206	80,33
360,726	74,88
361,246	82,45
361,765	81,64
362,285	73
362,804	83,16
363,323	71,46
363,842	79,95
364,361	77,61
364,88	75,12
365,398	69,87
365,917	72,41
366,435	85,42
366,954	70,98
367,472	80,66
367,99	77,96
368,508	68,42
369,026	80,45
369,544	75,44
370,061	72,27
370,579	67,42
371,096	75,92
371,613	67,89
372,131	68,5
372,648	67,32
373,165	65,82
373,681	66,88
374,198	73,24
374,715	66,35
375,231	70,27
375,747	62,59
376,264	60,71
376,78	67,99
377,296	70,45
377,812	62,79
378,327	64,9
378,843	63,31
379,359	64,9
379,874	67,13
380,389	61,2
380,905	59,7
381,42	59,73
381,935	61,43
382,449	58,55
382,964	55,86
383,479	57,33
383,993	53,88
384,508	57,61
385,022	53,37
385,536	54,34
386,05	54,72
386,564	55,1
387,078	50,24
387,592	51,95
388,105	55,67
388,619	50,56
389,132	50
389,645	52,64
390,158	46,24
390,671	45,93
391,184	47,77
391,697	47,9
392,21	43,53
392,722	46,43
393,235	46,25
393,747	45,91
394,259	45,22
394,771	44,52
395,283	43,13
395,795	43
396,307	44,39
396,818	43,6
397,33	38,61
397,841	39,38
398,353	39,61
398,864	40,13
399,375	38,23
399,886	38,36
400,397	35,03
400,907	36,06
401,418	34,45
401,928	34,38
402,439	35,99
402,949	31,37
403,459	31,78
403,969	31,38
404,479	29,72
404,989	28,96
405,498	29,26
406,008	29,34
406,517	28,62
407,027	26,04
407,536	24,22
408,045	23,95
408,554	23,99
409,063	22,34
409,572	22,49
410,08	21,27
410,589	21,65
411,097	21,93
411,606	20,76
412,114	19,69
412,622	18,76
413,13	18,94
413,638	18,23
414,145	16,69
414,653	17,56
415,16	16,27
415,668	16,96
416,175	15,17
416,682	14,74
417,189	14,35
417,696	15,17
418,203	14,66
418,71	14,46
419,216	13,62
419,723	13,83
420,229	13,73
420,735	13,26
421,242	13,53
421,748	13,94
422,254	13,36
422,759	12,07
423,265	13,04
423,771	12,12
424,276	12,29
424,781	12,09
425,287	11,68
425,792	11,53
426,297	11,74
426,802	11,17
427,306	11,66
427,811	11,09
428,316	11,61
428,82	11,21
429,324	11,77
429,829	11,1
430,333	11,05
430,837	10,76
431,34	10,9
431,844	10,61
432,348	9,93
432,851	10,23
433,355	10,6
433,858	10,97
434,361	10,51
434,864	9,9
435,367	9,93
435,87	11,04
436,373	10,26
436,876	10,24
437,378	9,98
437,88	10,49
438,383	9,97
438,885	10,1
439,387	9,78
439,889	9,97
440,391	9,86
440,892	10,34
441,394	9,83
441,896	9,87
442,397	9,94
442,898	9,92
443,399	10,31
443,9	9,72
444,401	9,87
444,902	9,67
445,403	10,35
445,903	10
446,404	10,23
446,904	9,89
447,405	10,16
447,905	10,05
448,405	10,35
448,905	10,4
449,404	10,37
449,904	10,43
450,404	10,45
450,903	10,62
451,403	9,94
451,902	10,65
452,401	10,55
452,9	10,62
453,399	10,36
453,898	10,01
454,396	10,66
454,895	10,72
455,393	10,72
455,892	10,53
456,39	10,62
456,888	11,13
457,386	10,64
457,884	10,34
458,382	11,29
458,879	10,53
459,377	11,19
459,874	11
460,372	11,22
460,869	10,76
461,366	10,83
461,863	10,62
462,36	10,66
462,857	10,65
463,353	11,04
463,85	10,56
464,346	11,01
464,843	10,93
465,339	10,61
465,835	11,42
466,331	11,04
466,827	10,92
467,323	10,7
467,818	10,85
468,314	11,08
468,809	10,71
469,305	10,81
469,8	10,39
470,295	10,71
470,79	10,83
471,285	10,74
471,78	10,5
472,274	10,25
472,769	10,79
473,263	10,75
473,758	10,87
474,252	10,91
474,746	11,02
475,24	10,9
475,734	10,53
476,228	11
476,721	10,61
477,215	10,79
477,708	10,92
478,202	10,88
478,695	10,81
479,188	10,85
479,681	10,56
480,174	11,02
480,667	11,05
481,159	10,53
481,652	11,12
482,144	11,18
482,637	11,2
483,129	10,94
483,621	10,94
484,113	10,88
484,605	11,25
485,097	11,26
485,588	10,77
486,08	11,3
486,571	11,32
487,063	11,15
487,554	11,42
488,045	11,23
488,536	11,44
489,027	11,47
489,518	11,51
490,008	11,36
490,499	11,46
490,989	11,4
491,48	11,92
491,97	12
492,46	11,82
492,95	11,87
493,44	12,17
493,93	12,01
494,419	12,47
494,909	12,12
495,398	12,67
495,888	12,75
496,377	12,61
496,866	12,99
497,355	12,92
497,844	12,92
498,333	13,5
498,821	13,49
499,31	13,51
499,798	14,49
500,287	14,17
500,775	14,96
501,263	14,44
501,751	14,74
502,239	15,27
502,727	15,28
503,215	15,71
503,702	15,82
504,19	15,77
504,677	16,55
505,164	16,96
505,651	17,02
506,139	17,25
506,625	17,41
507,112	17,92
507,599	18,02
508,086	18,39
508,572	18,46
509,058	19,19
509,545	18,94
510,031	19,65
510,517	19,97
511,003	20,3
511,489	20,73
511,974	21,29
512,46	21,28
512,946	21,82
513,431	22,42
513,916	22,9
514,401	23,09
514,887	23,45
515,371	23,78
515,856	24,04
516,341	24,78
516,826	24,59
517,31	25,47
517,795	26,03
518,279	26,42
518,763	27,29
519,247	27,5
519,731	28,1
520,215	28,55
520,699	28,1
521,182	28,68
521,666	29,11
522,149	29,67
522,633	30,09
523,116	30,49
523,599	31,04
524,082	30,91
524,565	31,56
525,048	31,53
525,53	31,81
526,013	33,03
526,495	33,06
526,978	33,3
527,46	33,66
527,942	33,32
528,424	34,24
528,906	34,2
529,388	34,56
529,87	35,12
530,351	34,1
530,833	35,2
531,314	35,66
531,795	35,78
532,277	36,07
532,758	36,46
533,238	36,09
533,719	36,34
534,2	36,14
534,681	37,29
535,161	36,55
535,642	37,35
536,122	36,93
536,602	37,31
537,082	37,03
537,562	37,13
538,042	37,09
538,522	37,51
539,001	37,17
539,481	37,54
539,96	37,6
540,44	37,91
540,919	37,5
541,398	38,07
541,877	37,1
542,356	37,56
542,835	37,79
543,313	38,36
543,792	38,04
544,27	37,65
544,749	38,24
545,227	38,69
545,705	38,6
546,183	38,76
546,661	38,56
547,139	38,23
547,616	38,03
548,094	38,2
548,571	38,67
549,049	38,89
549,526	38,4
550,003	38,35
550,48	38,44
550,957	38,83
551,434	38,74
551,911	38,81
552,387	38,67
552,864	38,88
553,34	39,25
553,817	38,6
554,293	38,65
554,769	39,11
555,245	38,59
555,721	38,77
556,197	38,87
556,672	38,73
557,148	38,51
557,623	38,84
558,099	38,53
558,574	39,1
559,049	38,37
559,524	38,88
559,999	38,43
560,474	38,51
560,948	37,99
561,423	38,47
561,897	38,12
562,372	38,28
562,846	37,92
563,32	37,78
563,794	37,7
564,268	37,82
564,742	37,52
565,216	37,36
565,69	37,24
566,163	37,04
566,636	36,28
567,11	36,43
567,583	36,5
568,056	36,27
568,529	36,07
569,002	35,61
569,475	35,45
569,947	35,1
570,42	35,66
570,892	34,91
571,365	34,66
571,837	35,13
572,309	34,66
572,781	34,52
573,253	34,26
573,725	33,95
574,197	33,67
574,668	33,93
575,14	33,23
575,611	33,18
576,082	32,68
576,554	32,57
577,025	32,64
577,496	32,44
577,967	32,1
578,437	32,27
578,908	31,87
579,379	31,91
579,849	31,47
580,319	31,17
580,79	31,1
581,26	30,75
581,73	30,81
582,2	30,41
582,669	30,46
583,139	30,29
583,609	30,31
584,078	30,42
584,548	29,85
585,017	30,03
585,486	29,32
585,955	29,61
586,424	29,7
586,893	29,15
587,362	29,28
587,83	29,25
588,299	29,16
588,767	29,03
589,236	29,1
589,704	28,62
590,172	28,82
590,64	28,68
591,108	28,54
591,576	28,42
592,043	28,07
592,511	28,24
592,978	28,31
593,446	28,06
593,913	27,97
594,38	27,96
594,847	27,88
595,314	27,66
595,781	27,77
596,248	27,49
596,715	27,6
597,181	27,71
597,647	27,28
598,114	27,59
598,58	27,31
599,046	27,39
599,512	27,13
599,978	27,17
600,444	27,32
600,91	27,3
601,375	27,09
601,841	27,18
602,306	27,01
602,771	27,15
603,236	26,75
603,702	27,11
604,167	26,77
604,631	26,78
605,096	26,82
605,561	26,65
606,025	26,6
606,49	26,31
606,954	26,32
607,418	26,09
607,882	25,82
608,347	25,92
608,81	25,92
609,274	25,69
609,738	25,46
610,202	25,58
610,665	25,38
611,128	25,23
611,592	24,96
612,055	24,62
612,518	24,68
612,981	24,86
613,444	24,49
613,907	24,1
614,369	24,3
614,832	24,14
615,294	24,14
615,757	23,95
616,219	24,05
616,681	23,32
617,143	23,86
617,605	23,49
618,067	23,13
618,529	23,23
618,99	23,42
619,452	22,99
619,913	23,09
620,375	23,17
620,836	23,05
621,297	23
621,758	22,77
622,219	22,59
622,68	22,7
623,14	22,29
623,601	22,34
624,061	22,51
624,522	22,41
624,982	22,18
625,442	22,51
625,902	22,32
626,362	22,45
626,822	21,95
627,282	22,13
627,742	22,29
628,201	22,15
628,661	22,07
629,12	21,9
629,579	21,81
630,038	22
630,497	22,13
630,956	21,87
631,415	21,99
631,874	21,65
632,332	21,79
632,791	21,63
633,249	21,51
633,708	21,78
634,166	21,32
634,624	21,28
635,082	21,33
635,54	21,32
635,998	21,01
636,455	20,9
636,913	20,56
637,37	20,62
637,828	20,46
638,285	20,2
638,742	20,11
639,199	20,01
639,656	20,01
640,113	19,61
640,57	19,2
641,027	19,05
641,483	18,96
641,94	18,52
642,396	18,54
642,852	18,45
643,309	18,09
643,765	17,99
644,221	17,79
644,676	17,51
645,132	17,25
645,588	17
646,043	16,89
646,499	16,68
646,954	16,35
647,409	16,27
647,864	16,04
648,319	16,12
648,774	15,98
649,229	15,72
649,684	15,5
650,139	15,52
650,593	15,29
651,047	15,17
651,502	15,16
651,956	14,76
652,41	15
652,864	14,89
653,318	14,77
653,772	14,7
654,225	14,57
654,679	14,65
655,133	14,35
655,586	14,46
656,039	14,24
656,492	14,16
656,946	14,05
657,399	14,03
657,851	13,92
658,304	13,8
658,757	13,76
659,209	13,62
659,662	13,3
660,114	13,13
660,567	12,93
661,019	12,83
661,471	12,7
661,923	12,49
662,375	12,4
662,826	12,22
663,278	12,04
663,73	11,97
664,181	11,79
664,632	11,61
665,084	11,66
665,535	11,66
665,986	11,24
666,437	11,22
666,888	11,24
667,338	11,05
667,789	11,11
668,24	10,87
668,69	10,82
669,14	10,9
669,591	10,82
670,041	10,83
670,491	10,7
670,941	10,82
671,391	10,78
671,84	10,74
672,29	10,7
672,74	10,78
673,189	10,85
673,638	10,79
674,088	10,9
674,537	10,94
674,986	11,02
675,435	11,18
675,883	11,18
676,332	11,24
676,781	11,4
677,229	11,41
677,678	11,49
678,126	11,67
678,574	11,84
679,022	11,94
679,47	12,05
679,918	12,27
680,366	12,32
680,814	12,56
681,261	12,65
681,709	12,95
682,156	13,06
682,604	13,3
683,051	13,4
683,498	13,69
683,945	13,99
684,392	14,2
684,839	14,34
685,286	14,85
685,732	14,89
686,179	15,38
686,625	15,94
687,071	16
687,518	16,73
687,964	17,02
688,41	17,42
688,856	17,87
689,301	18,57
689,747	19,15
690,193	19,87
690,638	20,12
691,084	21
691,529	21,6
691,974	22,42
692,419	22,98
692,864	23,9
693,309	24,45
693,754	25,34
694,199	25,89
694,643	26,42
695,088	27,37
695,532	28,25
695,977	29,01
696,421	29,68
696,865	30,18
697,309	30,96
697,753	31,59
698,197	32,35
698,64	32,87
699,084	33,92
699,527	34,31
699,971	34,86
700,414	35,63
700,857	35,9
701,3	36,28
701,743	37,45
702,186	38,16
702,629	38,33
703,072	39,04
703,515	39,29
703,957	39,56
704,399	40,45
704,842	40,89
705,284	41,02
705,726	41,66
706,168	41,93
706,61	42,65
707,052	42,75
707,494	43,67
707,935	43,54
708,377	44,35
708,818	44,96
709,26	45,05
709,701	45,19
710,142	45,93
710,583	45,96
711,024	46,14
711,465	46,5
711,905	46,8
712,346	47,04
712,787	47,16
713,227	48,07
713,667	47,9
714,108	48,4
714,548	48,82
714,988	49,4
715,428	49,74
715,868	49,78
716,307	49,84
716,747	50,27
717,186	50,2
717,626	50,72
718,065	51,12
718,504	50,89
718,944	51,57
719,383	51,63
719,822	51,69
720,261	51,92
720,699	52,17
721,138	52,01
721,576	52,59
722,015	52,99
722,453	52,73
722,892	52,89
723,33	53,46
723,768	53,73
724,206	53,58
724,644	53,46
725,081	53,98
725,519	54,1
725,957	54,26
726,394	54,23
726,832	54,15
727,269	54,54
727,706	54,99
728,143	54,2
728,58	54,86
729,017	54,44
729,454	54,76
729,89	55,3
730,327	54,85
730,764	55,39
731,2	55,42
731,636	55,27
732,072	55,56
732,509	55,59
732,945	55,7
733,38	55,75
733,816	56,06
734,252	56,01
734,688	55,84
735,123	56,01
735,559	56,06
735,994	55,83
736,429	56,09
736,864	56,4
737,299	56,25
737,734	56,51
738,169	56,18
738,604	56,22
739,038	55,9
739,473	56,35
739,907	56,32
740,342	56,29
740,776	56,62
741,21	56,46
741,644	56,56
742,078	56,35
742,512	56,26
742,946	56,6
743,379	56,05
743,813	56,61
744,246	56,21
744,68	56,22
745,113	56,2
745,546	56,09
745,979	56,52
746,412	56,4
746,845	55,89
747,278	56,12
747,711	55,86
748,143	56,13
748,576	56,4
749,008	56,64
749,441	55,93
749,873	56
750,305	56,29
750,737	55,91
751,169	56,1
751,601	55,94
752,032	55,81
752,464	55,52
752,896	55,6
753,327	55,79
753,758	55,38
754,19	55,76
754,621	55,83
755,052	55,24
755,483	55,36
755,914	55,59
756,344	55,43
756,775	55,54
757,206	55,42
757,636	55,47
758,066	55,53
758,497	55,5
758,927	55,54
759,357	55,55
759,787	55,63
760,217	55,01
760,647	55,19
761,076	55,17
761,506	55,13
761,935	55,23
762,365	55,26
762,794	54,95
763,223	55,32
763,653	55,35
764,082	54,76
764,51	55,08
764,939	55,18
765,368	54,78
765,797	54,66
766,225	54,78
766,654	54,65
767,082	54,48
767,51	54,64
767,938	54,61
768,367	54,47
768,795	54,59
769,222	54,83
769,65	55,03
770,078	54,51
770,505	54,76
770,933	54,73
771,36	54,72
771,788	54,35
772,215	54,49
772,642	54,87
773,069	54,82
773,496	54,36
773,923	54,15
774,349	54,29
774,776	54,29
775,203	54,27
775,629	54,34
776,055	53,79
776,482	54,01
776,908	54,16
777,334	54,08
777,76	54,22
778,186	53,91
778,611	54,37
779,037	54,27
779,463	54,27
779,888	54,45
780,314	53,74
780,739	54,27
781,164	54,07
781,589	53,8
782,014	54,13
782,439	54,01
782,864	54,15
783,289	54,2
783,713	53,78
784,138	54,08
784,562	53,85
784,987	53,71
785,411	53,73
785,835	53,72
786,259	54,03
786,683	54,2
787,107	53,94
787,531	53,8
787,954	54,04
788,378	53,81
788,802	53,89
789,225	53,89
789,648	54,02
790,071	53,69
790,495	53,94
790,918	54,06
791,34	53,95
791,763	53,72
792,186	53,73
792,609	53,9
793,031	53,87
793,454	53,61
793,876	54,27
794,298	53,62
794,721	53,86
795,143	53,9
795,565	53,55
795,986	53,85
796,408	53,54
796,83	53,36
797,252	53,49
797,673	54,14
798,094	54,21
798,516	53,62
798,937	54,03
799,358	53,45
799,779	53,61
800,2	54,02
800,621	53,79
801,042	53,87
801,462	53,84
801,883	53,57
802,303	53,37
802,724	54,01
803,144	53,39
803,564	53,92
803,984	53,81
804,404	53,93
804,824	53,87
805,244	53,72
805,664	54,05
806,084	53,96
806,503	54,06
806,923	53,47
807,342	53,67
807,761	53,11
808,18	53,28
808,599	53,39
809,018	53,57
809,437	53,41
809,856	53,26
810,275	53,79
810,693	53,34
811,112	53,99
811,53	54,1
811,949	53,45
812,367	54,05
812,785	53,81
813,203	53,64
813,621	53,48
814,039	53,35
814,457	53,48
814,874	53,32
815,292	53,64
815,709	53,46
816,127	53,39
816,544	53,86
816,961	53,53
817,378	53,91
817,795	53,8
818,212	53,38
818,629	53,76
819,046	53,4
819,462	53,27
819,879	53,21
820,295	53,17
820,712	53,42
821,128	53,25
821,544	53,41
821,96	53,35
822,376	53,57
822,792	53,4
823,208	53,55
823,624	54,01
824,039	53,48
824,455	53,89
824,87	53,34
825,286	53,1
825,701	53,19
826,116	53,26
826,531	53,57
826,946	53,34
827,361	53,37
827,776	53,22
828,19	53,3
828,605	52,92
829,02	53,43
829,434	53,22
829,848	53,53
