Data from C4___Relative__4__00037.txt Node

Date: Wed Jan 31 18:21:08 CET 2024
User: diatiterra
Spectrometer: HDX00911
Trigger mode: 0
Integration Time (sec): 6,000000E-3
Scans to average: 2
Nonlinearity correction enabled: false
Boxcar width: 0
Storing dark spectrum: false
XAxis mode: Wavelengths
Number of Pixels in Spectrum: 2068
>>>>>Begin Spectral Data<<<<<
194,468	230,19
195,025	153,64
195,581	209,76
196,138	202,56
196,694	137,65
197,251	124,75
197,807	100
198,363	98,4
198,919	93,79
199,474	100,74
200,03	109,43
200,586	116,07
201,141	89,03
201,696	91,28
202,251	99,24
202,806	88,81
203,361	98,89
203,916	91,67
204,471	100,73
205,025	112,1
205,58	100,71
206,134	106
206,688	97,31
207,242	114,16
207,796	103,38
208,35	96,74
208,904	100,69
209,457	90,97
210,011	100,35
210,564	100,7
211,117	97,37
211,67	97,01
212,223	95,55
212,776	107,66
213,329	92,67
213,881	120,59
214,434	93,42
214,986	126,45
215,538	106,25
216,09	91,2
216,642	112,81
217,194	100,38
217,746	112,41
218,297	99,62
218,849	106,99
219,4	119,33
219,951	105,24
220,502	104,73
221,053	103,82
221,604	101,68
222,155	105,95
222,705	94,49
223,256	103,73
223,806	101,97
224,356	105,38
224,906	117,74
225,456	114,73
226,006	105,95
226,556	92,53
227,106	114,52
227,655	91,32
228,204	113,33
228,754	96,48
229,303	101,07
229,852	88,13
230,401	104,85
230,949	102,16
231,498	100,7
232,047	92,21
232,595	106,9
233,143	101,97
233,691	99,22
234,239	89,64
234,787	101,2
235,335	99,25
235,883	93,71
236,43	99,24
236,978	104,23
237,525	103,65
238,072	100,35
238,619	104,92
239,166	97,52
239,713	98,18
240,26	103,93
240,806	103,12
241,353	96,43
241,899	86,36
242,445	98,91
242,991	98,47
243,537	99,62
244,083	107,25
244,629	106,92
245,174	100,88
245,72	93,7
246,265	91,67
246,81	99,6
247,355	107,14
247,9	92,54
248,445	101,98
248,99	99,62
249,534	120
250,079	99,62
250,623	91,48
251,168	113,22
251,712	102,34
252,256	114,34
252,8	105,77
253,343	101,07
253,887	97,18
254,43	95,8
254,974	109,16
255,517	90,75
256,06	109,62
256,603	95,19
257,146	107,75
257,689	100,39
258,232	112,71
258,774	98,58
259,317	111,86
259,859	116,97
260,401	111,63
260,943	101,42
261,485	95,39
262,027	103,2
262,569	109,33
263,11	107,31
263,652	122,44
264,193	107,85
264,734	106,57
265,275	106,56
265,816	100,76
266,357	108,91
266,898	98,85
267,438	103,94
267,979	100,36
268,519	101,12
269,059	121,96
269,6	109,02
270,14	122,58
270,68	90,94
271,219	122,03
271,759	98,12
272,298	104,14
272,838	109,62
273,377	110,71
273,916	97,48
274,455	102,19
274,994	103,6
275,533	101,09
276,072	96,34
276,61	97,1
277,149	106,67
277,687	110,15
278,225	95,33
278,763	117,54
279,301	110,83
279,839	109,68
280,377	106,97
280,914	93,01
281,452	121,37
281,989	111,16
282,526	103,54
283,064	110,5
283,601	95,27
284,137	106,61
284,674	105,42
285,211	122,37
285,747	98,86
286,284	123,42
286,82	103,31
287,356	93,42
287,892	108,14
288,428	109,92
288,964	119,75
289,5	119,42
290,035	108,4
290,571	115,13
291,106	113,01
291,641	115,62
292,176	103,52
292,711	116,67
293,246	103,85
293,781	114,05
294,315	93,66
294,85	124,07
295,384	106,15
295,918	97,79
296,453	91,42
296,987	105,79
297,52	104,96
298,054	104,96
298,588	107,08
299,121	99,63
299,655	105,84
300,188	105,42
300,721	102,03
301,254	93,95
301,787	108,59
302,32	117,89
302,853	98
303,385	103,21
303,918	103,88
304,45	108,46
304,982	90,07
305,514	101,16
306,046	107,85
306,578	96,9
307,11	109,3
307,641	106,9
308,173	105,37
308,704	97,11
309,236	91,73
309,767	96,1
310,298	97,98
310,829	115,65
311,359	101,61
311,89	106,72
312,421	103,15
312,951	112,6
313,481	86,9
314,012	94,78
314,542	102,54
315,072	93,89
315,601	100,4
316,131	114,17
316,661	101,67
317,19	97,41
317,72	111,16
318,249	108,73
318,778	103,12
319,307	107,81
319,836	105,75
320,365	102,61
320,893	108,26
321,422	111,38
321,95	102,63
322,479	94,27
323,007	107,27
323,535	97,14
324,063	103,6
324,591	103,2
325,118	108,39
325,646	108,82
326,173	106,67
326,701	115,04
327,228	110,78
327,755	93,98
328,282	95,04
328,809	118,64
329,336	104,72
329,862	93,75
330,389	93,75
330,915	96,85
331,441	101,15
331,968	107,66
332,494	98,86
333,02	100,83
333,545	92,16
334,071	112,4
334,597	87,32
335,122	96,67
335,648	120,69
336,173	95,08
336,698	84,18
337,223	98,53
337,748	94,1
338,272	94,86
338,797	109,78
339,322	90,15
339,846	90,81
340,37	106,45
340,894	93,06
341,419	107,14
341,942	95,1
342,466	94,55
342,99	85,91
343,514	92,61
344,037	90,82
344,56	108,52
345,084	95,21
345,607	86,81
346,13	88,03
346,653	90,67
347,175	90,71
347,698	86,16
348,221	86,43
348,743	89,13
349,265	93,53
349,787	85,58
350,309	81,65
350,831	79,01
351,353	87,5
351,875	83,04
352,397	94,41
352,918	87,83
353,439	95,36
353,961	79,94
354,482	83,04
355,003	90,7
355,524	83,61
356,044	77,27
356,565	90,96
357,086	87,01
357,606	76,37
358,126	85,11
358,646	77,81
359,167	82,16
359,687	81,07
360,206	79,23
360,726	76,3
361,246	80,59
361,765	90,4
362,285	76,75
362,804	81,58
363,323	74,63
363,842	82,14
364,361	78,61
364,88	80,79
365,398	73,36
365,917	73,82
366,435	82,81
366,954	72,1
367,472	72,88
367,99	78,44
368,508	70,04
369,026	83,18
369,544	75,66
370,061	73,11
370,579	71,31
371,096	86,01
371,613	74,78
372,131	71,46
372,648	72,24
373,165	72,46
373,681	75,32
374,198	73,24
374,715	71,99
375,231	72,16
375,747	67,59
376,264	66,33
376,78	73,74
377,296	71,75
377,812	64,95
378,327	70,03
378,843	74,06
379,359	67,55
379,874	72,66
380,389	68,61
380,905	61,94
381,42	67,17
381,935	65,85
382,449	66,52
382,964	60,29
383,479	66,09
383,993	63,57
384,508	60,5
385,022	61,92
385,536	60,39
386,05	60,5
386,564	60,2
387,078	53,95
387,592	56,2
388,105	55,32
388,619	56,14
389,132	54,16
389,645	57,01
390,158	52,68
390,671	52,34
391,184	51,11
391,697	52,51
392,21	46,45
392,722	50,3
393,235	49,72
393,747	53,02
394,259	48,03
394,771	47,53
395,283	48,17
395,795	48,69
396,307	49,44
396,818	47,72
397,33	45,49
397,841	46,46
398,353	47,02
398,864	46,77
399,375	43,74
399,886	42,77
400,397	41,06
400,907	41,76
401,418	39,72
401,928	38,61
402,439	39,46
402,949	36,12
403,459	37,75
403,969	35,49
404,479	35,91
404,989	33,29
405,498	34,79
406,008	34,8
406,517	30,41
407,027	27,75
407,536	29,24
408,045	29,04
408,554	27,88
409,063	26,78
409,572	26,95
410,08	26,52
410,589	24,96
411,097	22,91
411,606	24,51
412,114	23,07
412,622	23,11
413,13	22,66
413,638	21
414,145	20,28
414,653	20,84
415,16	19,44
415,668	19,3
416,175	18,35
416,682	17,85
417,189	17,47
417,696	18,48
418,203	17,56
418,71	17,57
419,216	16,63
419,723	16,36
420,229	16,24
420,735	16,37
421,242	16,38
421,748	16,24
422,254	15,26
422,759	15,69
423,265	15,68
423,771	15,32
424,276	15,65
424,781	14,46
425,287	14,79
425,792	14,85
426,297	14,8
426,802	13,91
427,306	14,36
427,811	14,35
428,316	14,5
428,82	14,66
429,324	14,07
429,829	13,96
430,333	13,84
430,837	14,03
431,34	13,99
431,844	13,32
432,348	13,21
432,851	13,34
433,355	13,7
433,858	13,28
434,361	13,37
434,864	13,8
435,367	13,28
435,87	14,29
436,373	13,72
436,876	13,35
437,378	13,06
437,88	13,11
438,383	12,81
438,885	12,87
439,387	13,19
439,889	13,56
440,391	12,97
440,892	13,3
441,394	13,22
441,896	13,26
442,397	12,96
442,898	12,74
443,399	13,43
443,9	12,9
444,401	12,46
444,902	12,38
445,403	12,99
445,903	13
446,404	13,05
446,904	12,88
447,405	12,73
447,905	12,65
448,405	12,86
448,905	12,97
449,404	12,69
449,904	13,04
450,404	13,05
450,903	13,23
451,403	12,69
451,902	13,42
452,401	13,14
452,9	13,19
453,399	13,07
453,898	12,9
454,396	13
454,895	13,64
455,393	13,11
455,892	12,67
456,39	13,03
456,888	13,26
457,386	13,26
457,884	13,03
458,382	13,28
458,879	13,58
459,377	13,74
459,874	13,15
460,372	13,28
460,869	13,46
461,366	13,62
461,863	13,47
462,36	13,15
462,857	13,27
463,353	13,5
463,85	13,02
464,346	13,37
464,843	13,2
465,339	13,11
465,835	13,55
466,331	13,88
466,827	12,92
467,323	13,44
467,818	13,55
468,314	13,49
468,809	13,16
469,305	13,23
469,8	13,05
470,295	13,17
470,79	13,49
471,285	13,23
471,78	13,27
472,274	12,85
472,769	13
473,263	13,05
473,758	13,44
474,252	12,92
474,746	13,3
475,24	13,56
475,734	13,34
476,228	13,32
476,721	13,13
477,215	13,26
477,708	13,27
478,202	13,33
478,695	13,55
479,188	13,37
479,681	13,07
480,174	13,41
480,667	13,04
481,159	13,37
481,652	13,76
482,144	13,37
482,637	13,59
483,129	13,07
483,621	13,92
484,113	13,41
484,605	13,68
485,097	13,49
485,588	13,34
486,08	13,12
486,571	13,67
487,063	13,57
487,554	13,79
488,045	13,58
488,536	13,59
489,027	13,84
489,518	13,84
490,008	13,37
490,499	13,84
490,989	13,6
491,48	13,75
491,97	13,87
492,46	14,14
492,95	13,74
493,44	14
493,93	14,31
494,419	14,1
494,909	14,04
495,398	14,23
495,888	14,26
496,377	14,58
496,866	14,93
497,355	14,63
497,844	14,47
498,333	14,7
498,821	14,59
499,31	15,08
499,798	15,24
500,287	15,26
500,775	15,49
501,263	15,73
501,751	15,7
502,239	15,64
502,727	15,79
503,215	15,78
503,702	16,25
504,19	16,06
504,677	16,66
505,164	16,92
505,651	17,09
506,139	16,95
506,625	17,1
507,112	17,72
507,599	17,88
508,086	17,91
508,572	18,04
509,058	18,34
509,545	18,38
510,031	18,9
510,517	19,36
511,003	19,39
511,489	19,68
511,974	20,32
512,46	20,4
512,946	20,62
513,431	21,16
513,916	21,57
514,401	21,97
514,887	22,05
515,371	22,18
515,856	23,11
516,341	23,17
516,826	23,3
517,31	23,64
517,795	23,86
518,279	24,18
518,763	25,15
519,247	24,7
519,731	26,15
520,215	25,92
520,699	26,4
521,182	26,53
521,666	26,91
522,149	27,16
522,633	27,96
523,116	28,34
523,599	28,88
524,082	28,73
524,565	29,6
525,048	29,88
525,53	29,83
526,013	30,39
526,495	30,72
526,978	30,87
527,46	30,96
527,942	31,03
528,424	31,94
528,906	31,63
529,388	31,74
529,87	32,76
530,351	32,39
530,833	32,66
531,314	33,37
531,795	32,86
532,277	33,47
532,758	33,76
533,238	34,16
533,719	34,2
534,2	34,16
534,681	34,58
535,161	34,2
535,642	35,03
536,122	34,59
536,602	34,59
537,082	35,04
537,562	34,78
538,042	35,13
538,522	35,16
539,001	35,31
539,481	35,57
539,96	35,37
540,44	35,23
540,919	35,51
541,398	35,61
541,877	35,38
542,356	35,69
542,835	35,29
543,313	35,52
543,792	35,89
544,27	35,79
544,749	35,93
545,227	35,93
545,705	36,18
546,183	36,42
546,661	35,78
547,139	35,91
547,616	35,9
548,094	35,88
548,571	36,25
549,049	36,22
549,526	36,19
550,003	36,47
550,48	35,95
550,957	36,65
551,434	36,2
551,911	36,73
552,387	36,47
552,864	36,45
553,34	36,72
553,817	36,41
554,293	36,29
554,769	36,5
555,245	36,5
555,721	36,4
556,197	36,67
556,672	36,08
557,148	36,56
557,623	36,26
558,099	36,55
558,574	36,43
559,049	35,76
559,524	36,42
559,999	36,12
560,474	35,44
560,948	35,85
561,423	36,46
561,897	35,5
562,372	36,02
562,846	35,57
563,32	35
563,794	35,26
564,268	35,55
564,742	35,29
565,216	34,52
565,69	34,67
566,163	34,49
566,636	34,05
567,11	34,09
567,583	33,79
568,056	33,93
568,529	34,18
569,002	33,62
569,475	33,67
569,947	32,8
570,42	33,05
570,892	32,59
571,365	32,17
571,837	32,6
572,309	31,97
572,781	31,94
573,253	31,88
573,725	31,15
574,197	31,5
574,668	30,94
575,14	30,62
575,611	30,94
576,082	30,1
576,554	30,01
577,025	30,22
577,496	29,79
577,967	29,61
578,437	29,25
578,908	29,44
579,379	29,18
579,849	28,86
580,319	28,69
580,79	28,47
581,26	28,12
581,73	28,41
582,2	28,06
582,669	27,77
583,139	27,71
583,609	27,58
584,078	27,85
584,548	27,38
585,017	27,58
585,486	27,05
585,955	27,26
586,424	26,97
586,893	26,87
587,362	27,02
587,83	26,79
588,299	26,74
588,767	26,8
589,236	26,44
589,704	26,27
590,172	26,45
590,64	26,17
591,108	26,19
591,576	26,25
592,043	26,02
592,511	26,08
592,978	26,26
593,446	25,79
593,913	25,66
594,38	25,62
594,847	25,5
595,314	25,56
595,781	25,34
596,248	25,04
596,715	25,22
597,181	25,12
597,647	25
598,114	25,12
598,58	25,08
599,046	25,04
599,512	24,92
599,978	24,97
600,444	24,56
600,91	24,84
601,375	25,01
601,841	24,81
602,306	24,88
602,771	24,61
603,236	24,61
603,702	24,81
604,167	24,48
604,631	24,44
605,096	24,39
605,561	24,25
606,025	24,19
606,49	24,39
606,954	23,97
607,418	23,95
607,882	23,61
608,347	23,76
608,81	23,4
609,274	23,39
609,738	23,32
610,202	23,45
610,665	23,33
611,128	22,91
611,592	22,97
612,055	22,53
612,518	22,84
612,981	22,57
613,444	22,43
613,907	22,35
614,369	22,12
614,832	22,17
615,294	22,15
615,757	21,83
616,219	22,04
616,681	21,9
617,143	21,62
617,605	21,56
618,067	21,65
618,529	21,3
618,99	21,38
619,452	21,12
619,913	21,08
620,375	21,31
620,836	21,27
621,297	21,24
621,758	20,92
622,219	20,52
622,68	20,89
623,14	20,84
623,601	20,87
624,061	20,86
624,522	20,61
624,982	20,74
625,442	20,62
625,902	20,57
626,362	20,69
626,822	20,36
627,282	20,5
627,742	20,6
628,201	20,47
628,661	20,23
629,12	20,43
629,579	20,14
630,038	20,42
630,497	20,38
630,956	20,14
631,415	19,9
631,874	20
632,332	19,98
632,791	19,99
633,249	20,04
633,708	20,06
634,166	19,6
634,624	19,68
635,082	19,66
635,54	19,74
635,998	19,38
636,455	19,65
636,913	19,3
637,37	19,08
637,828	19,12
638,285	18,97
638,742	18,91
639,199	18,84
639,656	18,58
640,113	18,35
640,57	18,37
641,027	18,14
641,483	18,28
641,94	18,01
642,396	17,91
642,852	17,66
643,309	17,44
643,765	17,34
644,221	17,29
644,676	17,02
645,132	16,78
645,588	16,72
646,043	16,35
646,499	16,44
646,954	16,19
647,409	16,26
647,864	16,17
648,319	15,82
648,774	15,92
649,229	15,72
649,684	15,72
650,139	15,65
650,593	15,57
651,047	15,54
651,502	15,5
651,956	15,25
652,41	15,38
652,864	15,11
653,318	15,22
653,772	15,06
654,225	15,14
654,679	14,89
655,133	14,92
655,586	14,79
656,039	14,76
656,492	14,72
656,946	14,67
657,399	14,55
657,851	14,43
658,304	14,49
658,757	14,38
659,209	14,09
659,662	14,19
660,114	13,99
660,567	14,13
661,019	13,85
661,471	13,65
661,923	13,67
662,375	13,72
662,826	13,42
663,278	13,45
663,73	13,39
664,181	13,22
664,632	13,2
665,084	13,24
665,535	13,19
665,986	13,15
666,437	13,15
666,888	12,99
667,338	13,05
667,789	13,1
668,24	13,09
668,69	13,16
669,14	13,11
669,591	12,97
670,041	13,08
670,491	13
670,941	13,06
671,391	13,26
671,84	13,22
672,29	13,18
672,74	13,24
673,189	13,29
673,638	13,3
674,088	13,5
674,537	13,46
674,986	13,57
675,435	13,79
675,883	13,97
676,332	13,96
676,781	14,05
677,229	14,13
677,678	14,32
678,126	14,32
678,574	14,53
679,022	14,63
679,47	14,64
679,918	14,89
680,366	14,93
680,814	15,12
681,261	15,17
681,709	15,43
682,156	15,43
682,604	15,7
683,051	15,63
683,498	15,95
683,945	15,93
684,392	16,07
684,839	16,55
685,286	16,58
685,732	16,77
686,179	16,76
686,625	16,97
687,071	17,15
687,518	17,38
687,964	17,5
688,41	17,85
688,856	18,11
689,301	18,61
689,747	18,8
690,193	19,1
690,638	19,38
691,084	19,86
691,529	20,49
691,974	21,03
692,419	21,4
692,864	21,94
693,309	22,44
693,754	22,93
694,199	23,81
694,643	24,35
695,088	24,81
695,532	25,51
695,977	26,32
696,421	26,92
696,865	27,37
697,309	27,88
697,753	28,3
698,197	29,3
698,64	29,97
699,084	30,61
699,527	31,2
699,971	31,7
700,414	32,29
700,857	32,84
701,3	33,45
701,743	34,25
702,186	34,58
702,629	35,36
703,072	35,99
703,515	36,15
703,957	36,65
704,399	37,42
704,842	37,67
705,284	38,53
705,726	39
706,168	39,13
706,61	39,73
707,052	39,93
707,494	40,67
707,935	41,13
708,377	41,6
708,818	41,93
709,26	42,18
709,701	42,25
710,142	43,09
710,583	43,18
711,024	43,66
711,465	44,36
711,905	44,52
712,346	44,77
712,787	44,97
713,227	45,55
713,667	46,1
714,108	46,44
714,548	46,66
714,988	46,96
715,428	47,59
715,868	47,84
716,307	47,98
716,747	48,13
717,186	48,37
717,626	48,86
718,065	49,27
718,504	49,25
718,944	49,55
719,383	50,01
719,822	50,32
720,261	50,07
720,699	50,41
721,138	50,43
721,576	50,97
722,015	51,55
722,453	51,21
722,892	51,45
723,33	52
723,768	52,35
724,206	52,31
724,644	52,29
725,081	52,5
725,519	52,55
725,957	52,79
726,394	53,21
726,832	53,18
727,269	53,07
727,706	53,45
728,143	53,08
728,58	53,58
729,017	53,42
729,454	53,71
729,89	54,06
730,327	53,83
730,764	54,4
731,2	54,37
731,636	54,38
732,072	55,02
732,509	54,61
732,945	54,28
733,38	54,39
733,816	55,03
734,252	54,82
734,688	54,93
735,123	54,89
735,559	54,99
735,994	54,94
736,429	55,11
736,864	55,49
737,299	55,04
737,734	55,3
738,169	55,03
738,604	55,47
739,038	55,16
739,473	55,16
739,907	55,42
740,342	55,31
740,776	55,5
741,21	55,29
741,644	55,6
742,078	55,44
742,512	55,06
742,946	55,48
743,379	55,15
743,813	54,91
744,246	55,23
744,68	55,17
745,113	54,74
745,546	54,61
745,979	55
746,412	54,79
746,845	55,02
747,278	55,02
747,711	54,51
748,143	54,61
748,576	55,1
749,008	54,95
749,441	54,57
749,873	54,32
750,305	54,82
750,737	54,83
751,169	54,67
751,601	54,69
752,032	54,21
752,464	54,35
752,896	53,84
753,327	54,46
753,758	54,34
754,19	54,39
754,621	54
755,052	54,06
755,483	54,22
755,914	54,31
756,344	53,69
756,775	54,12
757,206	54,15
757,636	54,14
758,066	54,22
758,497	54,04
758,927	54,16
759,357	54,11
759,787	53,71
760,217	53,5
760,647	53,65
761,076	53,53
761,506	53,22
761,935	53,42
762,365	53,52
762,794	53,29
763,223	53,58
763,653	53,5
764,082	53,33
764,51	53,31
764,939	53,13
765,368	52,97
765,797	53,34
766,225	53,15
766,654	53,32
767,082	52,56
767,51	53,22
767,938	52,72
768,367	52,94
768,795	52,59
769,222	53,2
769,65	53,14
770,078	52,58
770,505	53,16
770,933	52,78
771,36	52,92
771,788	52,57
772,215	52,64
772,642	52,71
773,069	52,73
773,496	52,35
773,923	52,06
774,349	52,43
774,776	52,59
775,203	52,44
775,629	52,62
776,055	52,07
776,482	52,2
776,908	51,98
777,334	51,95
777,76	52,33
778,186	52,4
778,611	52,52
779,037	52,59
779,463	52,1
779,888	52,24
780,314	51,98
780,739	52,21
781,164	52,24
781,589	52,05
782,014	51,88
782,439	52,3
782,864	52,09
783,289	52,26
783,713	51,72
784,138	52,15
784,562	51,86
784,987	52,16
785,411	51,72
785,835	51,52
786,259	51,88
786,683	52,22
787,107	51,53
787,531	51,79
787,954	51,79
788,378	51,66
788,802	51,57
789,225	51,9
789,648	51,62
790,071	51,05
790,495	51,72
790,918	52
791,34	51,73
791,763	51,67
792,186	51,59
792,609	51,55
793,031	51,44
793,454	51,37
793,876	51,53
794,298	51,51
794,721	51,54
795,143	51,83
795,565	51,46
795,986	51,46
796,408	51,49
796,83	51,24
797,252	51,07
797,673	51,63
798,094	51,65
798,516	51,46
798,937	51,85
799,358	51,21
799,779	51,52
800,2	51,44
800,621	51,25
801,042	51,32
801,462	51,52
801,883	51,22
802,303	50,96
802,724	51,16
803,144	51,26
803,564	51,31
803,984	51,29
804,404	51,57
804,824	51,39
805,244	51,41
805,664	51,8
806,084	51,28
806,503	51,56
806,923	51,34
807,342	51,31
807,761	50,92
808,18	50,86
808,599	50,92
809,018	51,12
809,437	51,32
809,856	50,95
810,275	51,42
810,693	51,26
811,112	51,52
811,53	51,68
811,949	51,23
812,367	51,56
812,785	51,1
813,203	51,03
813,621	50,96
814,039	51,05
814,457	51,19
814,874	51,08
815,292	51,15
815,709	51,17
816,127	50,81
816,544	51,11
816,961	51,3
817,378	51,61
817,795	51,14
818,212	51,17
818,629	51,38
819,046	50,95
819,462	50,82
819,879	51,02
820,295	50,77
820,712	50,63
821,128	50,98
821,544	50,95
821,96	51,33
822,376	50,88
822,792	50,82
823,208	51,04
823,624	51,24
824,039	50,67
824,455	51,1
824,87	50,51
825,286	50,72
825,701	50,88
826,116	50,5
826,531	50,77
826,946	50,57
827,361	50,71
827,776	50,98
828,19	50,86
828,605	50,54
829,02	50,73
