Data from D3___Relative__7__00062.txt Node

Date: Wed Jan 31 18:23:27 CET 2024
User: diatiterra
Spectrometer: HDX00911
Trigger mode: 0
Integration Time (sec): 6,000000E-3
Scans to average: 2
Nonlinearity correction enabled: false
Boxcar width: 0
Storing dark spectrum: false
XAxis mode: Wavelengths
Number of Pixels in Spectrum: 2068
>>>>>Begin Spectral Data<<<<<
194,468	244,34
195,025	170
195,581	221,95
196,138	244,87
196,694	161,73
197,251	128,79
197,807	120,47
198,363	120,4
198,919	105,17
199,474	118,38
200,03	124,59
200,586	141,96
201,141	99,68
201,696	110,74
202,251	116,67
202,806	109,09
203,361	120,74
203,916	114,58
204,471	110,58
205,025	130,24
205,58	111,43
206,134	122,4
206,688	118,85
207,242	133,63
207,796	120,3
208,35	118,12
208,904	109,66
209,457	107,99
210,011	110,99
210,564	117,25
211,117	120,68
211,67	116,04
212,223	110,27
212,776	125,4
213,329	118,33
213,881	148,04
214,434	109,87
214,986	123,55
215,538	122,06
216,09	110,56
216,642	123,97
217,194	126,52
217,746	123,68
218,297	115,27
218,849	113,97
219,4	129,83
219,951	123,79
220,502	119,93
221,053	128,63
221,604	124,16
222,155	126,59
222,705	117,65
223,256	121,64
223,806	122,05
224,356	125
224,906	138,31
225,456	122,09
226,006	123,81
226,556	110,39
227,106	131,05
227,655	111,11
228,204	121,25
228,754	109,51
229,303	115,36
229,852	110,07
230,401	114,93
230,949	119,78
231,498	104,58
232,047	96,43
232,595	114,83
233,143	124,8
233,691	115,89
234,239	106,43
234,787	115,6
235,335	116,42
235,883	106,64
236,43	112,5
236,978	118,08
237,525	118,25
238,072	110,99
238,619	112,88
239,166	110,64
239,713	118,25
240,26	110,36
240,806	109,72
241,353	116,27
241,899	107,69
242,445	111,31
242,991	130,15
243,537	116,29
244,083	132,44
244,629	115,38
245,174	127,88
245,72	117,04
246,265	115,87
246,81	126
247,355	128,97
247,9	112,31
248,445	126,19
248,99	118,18
249,534	143,91
250,079	113,91
250,623	113,33
251,168	120,66
251,712	123,44
252,256	125,82
252,8	120
253,343	111,79
253,887	123,39
254,43	124,81
254,974	122,14
255,517	109,25
256,06	130,38
256,603	117,04
257,146	120,16
257,689	124,02
258,232	138,14
258,774	118,44
259,317	135,17
259,859	138,53
260,401	126,36
260,943	112,77
261,485	113,83
262,027	124,4
262,569	120,52
263,11	125,38
263,652	131,1
264,193	123,14
264,734	119,71
265,275	129,51
265,816	121,76
266,357	126,74
266,898	129,23
267,438	120,47
267,979	113,67
268,519	113,06
269,059	136,45
269,6	127,07
270,14	133,06
270,68	127,54
271,219	119,49
271,759	109,4
272,298	112,03
272,838	117,69
273,377	119,44
273,916	103,6
274,455	112,41
274,994	119,6
275,533	120,29
276,072	122,76
276,61	113,77
277,149	125,83
277,687	116,92
278,225	104
278,763	126,75
279,301	126,67
279,839	116,94
280,377	123,77
280,914	108,74
281,452	138,03
281,989	126,03
282,526	120,87
283,064	123,53
283,601	107,77
284,137	116,12
284,674	125,83
285,211	128,07
285,747	113,26
286,284	141,44
286,82	125,21
287,356	115,13
287,892	124,03
288,428	122,73
288,964	133,19
289,5	128,1
290,035	116,4
290,571	125,63
291,106	127,64
291,641	136,16
292,176	113,67
292,711	121,54
293,246	110
293,781	128,93
294,315	99,65
294,85	145,83
295,384	117,62
295,918	109,19
296,453	102,24
296,987	119,42
297,52	126,45
298,054	122,52
298,588	125,83
299,121	115,3
299,655	118,61
300,188	128,33
300,721	124,8
301,254	113,31
301,787	118,75
302,32	128,86
302,853	120,4
303,385	110,36
303,918	113,57
304,45	116,92
304,982	107,09
305,514	115,5
306,046	117,36
306,578	108,53
307,11	118,6
307,641	127,16
308,173	128,1
308,704	113,64
309,236	116,17
309,767	109,57
310,298	115,73
310,829	129,57
311,359	127,42
311,89	128,99
312,421	128,38
312,951	129,67
313,481	102,07
314,012	107,09
314,542	125,42
315,072	110,69
315,601	114,8
316,131	122,44
316,661	116,25
317,19	111,85
317,72	127,27
318,249	124,6
318,778	121,88
319,307	111,33
319,836	123,89
320,365	114,35
320,893	127,27
321,422	123,98
321,95	112,41
322,479	112,98
323,007	132,73
323,535	107,86
324,063	124,8
324,591	115,2
325,118	109,85
325,646	132,35
326,173	117,92
326,701	128,05
327,228	126,72
327,755	113,16
328,282	110,69
328,809	133,05
329,336	112,2
329,862	116,18
330,389	106,64
330,915	119,29
331,441	117,94
331,968	131,98
332,494	108,33
333,02	108,75
333,545	115,3
334,071	135,12
334,597	102,11
335,122	104,44
335,648	128,45
336,173	106,06
336,698	94,62
337,223	111,76
337,748	110,42
338,272	115,41
338,797	117,75
339,322	99,27
339,846	101,84
340,37	122,18
340,894	107,99
341,419	116,17
341,942	101,75
342,466	109,62
342,99	103,02
343,514	106,69
344,037	101,58
344,56	120
345,084	99,32
345,607	110,76
346,13	105,28
346,653	104
347,175	105,77
347,698	97,17
348,221	108,21
348,743	104,35
349,265	107,55
349,787	96,63
350,309	109,49
350,831	95,68
351,353	96,65
351,875	89,77
352,397	109,44
352,918	105,26
353,439	116,56
353,961	98,84
354,482	99,71
355,003	95,35
355,524	90,83
356,044	93,47
356,565	112,05
357,086	101,69
357,606	85,99
358,126	95,48
358,646	89,54
359,167	97,3
359,687	97,18
360,206	92,62
360,726	81,75
361,246	94,41
361,765	94,92
362,285	86,75
362,804	97,11
363,323	87,32
363,842	92,03
364,361	89,8
364,88	91,87
365,398	85,37
365,917	85,14
366,435	97,14
366,954	85,94
367,472	86,56
367,99	90,28
368,508	83,6
369,026	93,64
369,544	87,06
370,061	80,67
370,579	80,74
371,096	91,74
371,613	79,96
372,131	79,72
372,648	81,89
373,165	80,47
373,681	84,6
374,198	86,13
374,715	83,46
375,231	80,87
375,747	76,21
376,264	73,98
376,78	82,19
377,296	81,23
377,812	73,92
378,327	76,99
378,843	78,67
379,359	76,99
379,874	81,31
380,389	75,87
380,905	71,79
381,42	71,88
381,935	73,48
382,449	74,93
382,964	67,14
383,479	69,54
383,993	69,81
384,508	67,85
385,022	64,64
385,536	65,53
386,05	64,57
386,564	66,29
387,078	65,55
387,592	64,84
388,105	66,19
388,619	60,83
389,132	59,21
389,645	63,1
390,158	57,62
390,671	57,64
391,184	56,07
391,697	58,32
392,21	51,18
392,722	57,54
393,235	56,57
393,747	55,93
394,259	56,18
394,771	53,2
395,283	54,58
395,795	52,05
396,307	58,69
396,818	52,02
397,33	50,6
397,841	50,35
398,353	49,83
398,864	45,77
399,375	49,5
399,886	47,56
400,397	45,78
400,907	45,33
401,418	43,87
401,928	42,38
402,439	45,09
402,949	40,44
403,459	41,28
403,969	42,47
404,479	39,86
404,989	36,81
405,498	37,67
406,008	34,12
406,517	34,51
407,027	32,17
407,536	33,43
408,045	33,45
408,554	30,21
409,063	30,39
409,572	29,12
410,08	28,35
410,589	27,6
411,097	26,9
411,606	24,54
412,114	26
412,622	25,66
413,13	24,65
413,638	23,83
414,145	22,76
414,653	22,6
415,16	21,58
415,668	20,79
416,175	19,91
416,682	20,06
417,189	18,43
417,696	19,18
418,203	19,75
418,71	19,24
419,216	18,2
419,723	18,45
420,229	17,88
420,735	17,61
421,242	16,9
421,748	17,32
422,254	16,18
422,759	17,4
423,265	17,47
423,771	17,21
424,276	16,94
424,781	15,91
425,287	17,06
425,792	16
426,297	15,9
426,802	16,03
427,306	15,43
427,811	16,22
428,316	15,97
428,82	15,16
429,324	15,42
429,829	15,24
430,333	14,42
430,837	15,07
431,34	14,99
431,844	14,5
432,348	14,53
432,851	14,69
433,355	14,6
433,858	14,94
434,361	14,3
434,864	14,44
435,367	13,81
435,87	14,74
436,373	14,13
436,876	14,41
437,378	14,39
437,88	14,38
438,383	13,7
438,885	14,26
439,387	13,96
439,889	14,13
440,391	13,94
440,892	14,64
441,394	14,16
441,896	14,36
442,397	14
442,898	13,61
443,399	14,43
443,9	13,21
444,401	13,52
444,902	13,25
445,403	13,92
445,903	13,94
446,404	14,06
446,904	13,89
447,405	13,5
447,905	13,84
448,405	14,04
448,905	14,31
449,404	14,27
449,904	14,26
450,404	13,64
450,903	14,74
451,403	13,99
451,902	14,32
452,401	14,85
452,9	14,55
453,399	14,54
453,898	14,28
454,396	14,44
454,895	14,18
455,393	14,42
455,892	13,78
456,39	14,84
456,888	14,51
457,386	14,5
457,884	14,88
458,382	14,9
458,879	14,98
459,377	14,96
459,874	14,3
460,372	14,55
460,869	14,49
461,366	14,45
461,863	14,27
462,36	14,73
462,857	14,45
463,353	14,17
463,85	14,46
464,346	14,41
464,843	14,28
465,339	13,59
465,835	14,87
466,331	14,32
466,827	14,59
467,323	14,1
467,818	14,64
468,314	14,47
468,809	14,55
469,305	14,47
469,8	14,65
470,295	14,12
470,79	14,43
471,285	14,29
471,78	13,99
472,274	14,52
472,769	14,29
473,263	14,51
473,758	14,04
474,252	14,24
474,746	14,68
475,24	14,5
475,734	14,4
476,228	14,66
476,721	14,32
477,215	14,49
477,708	14,58
478,202	14,65
478,695	14,26
479,188	14,25
479,681	14,47
480,174	14,52
480,667	14,22
481,159	14,73
481,652	14,67
482,144	14,51
482,637	14,95
483,129	14,43
483,621	14,86
484,113	14,81
484,605	14,9
485,097	15,14
485,588	14,47
486,08	14,77
486,571	15,33
487,063	15,25
487,554	15,51
488,045	15,01
488,536	14,87
489,027	15,26
489,518	14,75
490,008	15,37
490,499	14,85
490,989	15,23
491,48	15,11
491,97	15,53
492,46	14,94
492,95	15,37
493,44	15,82
493,93	15,61
494,419	15,89
494,909	15,59
495,398	16
495,888	16,09
496,377	16,08
496,866	16,47
497,355	16,22
497,844	16,46
498,333	16,87
498,821	16,86
499,31	16,82
499,798	17,45
500,287	17,14
500,775	17,7
501,263	17,65
501,751	17,85
502,239	18,2
502,727	17,73
503,215	17,99
503,702	18,55
504,19	18,46
504,677	19,25
505,164	19,52
505,651	19,61
506,139	19,87
506,625	19,51
507,112	20,52
507,599	20,77
508,086	21
508,572	21,37
509,058	21,03
509,545	21,55
510,031	22,13
510,517	22,47
511,003	22,61
511,489	22,93
511,974	23,86
512,46	23,71
512,946	23,68
513,431	24,8
513,916	24,98
514,401	24,81
514,887	25,75
515,371	25,99
515,856	26,4
516,341	27
516,826	27,13
517,31	27,43
517,795	27,95
518,279	28,31
518,763	29,61
519,247	29,45
519,731	29,87
520,215	30,82
520,699	30,93
521,182	31,26
521,666	31,2
522,149	32,26
522,633	32,81
523,116	33,56
523,599	33,83
524,082	34,27
524,565	33,94
525,048	35,08
525,53	34,97
526,013	35,6
526,495	36,12
526,978	36,08
527,46	37,12
527,942	37,14
528,424	37,25
528,906	37,57
529,388	38,18
529,87	38,6
530,351	38,22
530,833	39,42
531,314	39,33
531,795	39,04
532,277	39,42
532,758	40,53
533,238	40,06
533,719	40,23
534,2	39,76
534,681	41,02
535,161	40,72
535,642	42
536,122	40,57
536,602	41,3
537,082	41,13
537,562	41,77
538,042	41,3
538,522	41,56
539,001	41,61
539,481	42,17
539,96	41,55
540,44	42,42
540,919	41,91
541,398	41,95
541,877	41,74
542,356	42,31
542,835	41,84
543,313	42,29
543,792	42,53
544,27	42,71
544,749	42,64
545,227	43,13
545,705	42,97
546,183	43,39
546,661	42,77
547,139	42,65
547,616	42,71
548,094	42,63
548,571	43,21
549,049	43,56
549,526	43,16
550,003	43,09
550,48	43,19
550,957	43,57
551,434	43,24
551,911	43,29
552,387	43,46
552,864	43,47
553,34	43,9
553,817	43,25
554,293	43,55
554,769	43,6
555,245	43,19
555,721	43,48
556,197	43,38
556,672	43,18
557,148	43,21
557,623	43,44
558,099	43,06
558,574	44,08
559,049	42,84
559,524	43,44
559,999	43,08
560,474	42,65
560,948	41,88
561,423	43,09
561,897	42,49
562,372	42,47
562,846	42,1
563,32	42,01
563,794	42,21
564,268	42,23
564,742	41,82
565,216	41,21
565,69	41,06
566,163	41,79
566,636	40,67
567,11	40,85
567,583	40
568,056	40,05
568,529	39,94
569,002	39,97
569,475	40,01
569,947	39,32
570,42	39,41
570,892	38,56
571,365	37,96
571,837	38,45
572,309	37,95
572,781	37,61
573,253	37,61
573,725	37,21
574,197	37,27
574,668	37,05
575,14	36,37
575,611	36,94
576,082	35,72
576,554	35,59
577,025	35,99
577,496	35,5
577,967	35,22
578,437	35,17
578,908	35,02
579,379	34,66
579,849	34,33
580,319	33,98
580,79	34,28
581,26	34
581,73	33,68
582,2	33,41
582,669	33,15
583,139	33,56
583,609	32,95
584,078	33,17
584,548	33,01
585,017	32,97
585,486	32,64
585,955	32,58
586,424	32,33
586,893	32,02
587,362	31,82
587,83	31,94
588,299	31,66
588,767	31,82
589,236	31,53
589,704	31,46
590,172	31,52
590,64	31,35
591,108	31,1
591,576	30,86
592,043	30,8
592,511	30,58
592,978	30,91
593,446	30,42
593,913	30,57
594,38	30,33
594,847	30,22
595,314	30,49
595,781	30,33
596,248	30
596,715	30,24
597,181	30,06
597,647	29,84
598,114	30
598,58	29,81
599,046	29,83
599,512	29,66
599,978	29,67
600,444	29,42
600,91	29,38
601,375	29,78
601,841	29,46
602,306	29,61
602,771	29,17
603,236	29,36
603,702	29,6
604,167	29,46
604,631	28,9
605,096	28,73
605,561	28,75
606,025	28,77
606,49	28,55
606,954	28,56
607,418	28,39
607,882	28,41
608,347	28,44
608,81	27,95
609,274	27,96
609,738	27,71
610,202	27,98
610,665	27,46
611,128	27,3
611,592	27,16
612,055	26,99
612,518	27,01
612,981	27,07
613,444	26,82
613,907	26,64
614,369	26,12
614,832	26,45
615,294	25,9
615,757	26,2
616,219	26,25
616,681	25,85
617,143	25,93
617,605	25,73
618,067	25,18
618,529	25,64
618,99	25,22
619,452	25,32
619,913	25,04
620,375	25,13
620,836	24,99
621,297	25,02
621,758	24,78
622,219	24,5
622,68	24,72
623,14	24,51
623,601	24,58
624,061	24,7
624,522	24,55
624,982	24,53
625,442	24,46
625,902	24,33
626,362	24,53
626,822	24,24
627,282	24,37
627,742	24,4
628,201	24,25
628,661	24,15
629,12	24,06
629,579	23,89
630,038	24,13
630,497	24,23
630,956	23,99
631,415	23,78
631,874	23,71
632,332	24,04
632,791	23,71
633,249	23,68
633,708	23,71
634,166	23,4
634,624	23,24
635,082	23,38
635,54	23,14
635,998	22,87
636,455	23
636,913	22,93
637,37	22,42
637,828	22,4
638,285	22,29
638,742	21,99
639,199	21,85
639,656	21,7
640,113	21,43
640,57	21,21
641,027	20,99
641,483	21,17
641,94	20,71
642,396	20,62
642,852	20,64
643,309	20,21
643,765	19,97
644,221	19,82
644,676	19,47
645,132	19,26
645,588	19,2
646,043	18,99
646,499	18,91
646,954	18,81
647,409	18,68
647,864	18,16
648,319	18,3
648,774	18,16
649,229	17,91
649,684	17,63
650,139	17,9
650,593	17,61
651,047	17,48
651,502	17,26
651,956	17,31
652,41	17,18
652,864	17,17
653,318	17,26
653,772	17,07
654,225	16,98
654,679	16,75
655,133	17,08
655,586	16,97
656,039	16,56
656,492	16,65
656,946	16,48
657,399	16,51
657,851	16,39
658,304	16,1
658,757	16,15
659,209	16,06
659,662	15,69
660,114	15,6
660,567	15,81
661,019	15,54
661,471	15,33
661,923	15,22
662,375	15,17
662,826	15,01
663,278	14,76
663,73	14,76
664,181	14,7
664,632	14,55
665,084	14,56
665,535	14,54
665,986	14,48
666,437	14,22
666,888	14,23
667,338	14,11
667,789	14,13
668,24	14,12
668,69	14,12
669,14	14,12
669,591	13,99
670,041	14,15
670,491	14,21
670,941	13,99
671,391	14,15
671,84	14,12
672,29	14,06
672,74	13,99
673,189	14,17
673,638	14,13
674,088	14,27
674,537	14,29
674,986	14,33
675,435	14,37
675,883	14,66
676,332	14,53
676,781	14,59
677,229	14,86
677,678	14,87
678,126	14,96
678,574	15,15
679,022	15,29
679,47	15,33
679,918	15,68
680,366	15,68
680,814	15,75
681,261	15,77
681,709	15,99
682,156	16,28
682,604	16,47
683,051	16,7
683,498	16,99
683,945	17,06
684,392	17,1
684,839	17,41
685,286	17,81
685,732	17,85
686,179	18,15
686,625	18,52
687,071	18,74
687,518	19,08
687,964	19,39
688,41	19,85
688,856	20,31
689,301	20,63
689,747	20,99
690,193	21,59
690,638	21,96
691,084	22,77
691,529	23,21
691,974	24,03
692,419	24,43
692,864	25,32
693,309	26,03
693,754	26,7
694,199	27,32
694,643	28,23
695,088	28,77
695,532	29,71
695,977	30,43
696,421	31,35
696,865	31,75
697,309	32,49
697,753	33,49
698,197	34,49
698,64	35,06
699,084	35,75
699,527	36,65
699,971	37,17
700,414	38,13
700,857	38,84
701,3	39,42
701,743	40,58
702,186	41,4
702,629	41,78
703,072	42,78
703,515	43,11
703,957	43,66
704,399	44,73
704,842	45,36
705,284	45,88
705,726	46,5
706,168	47,03
706,61	48,2
707,052	48,21
707,494	48,98
707,935	49,52
708,377	50,49
708,818	50,8
709,26	51,47
709,701	51,84
710,142	52,7
710,583	52,85
711,024	53,59
711,465	53,87
711,905	54,68
712,346	55,06
712,787	54,81
713,227	56,05
713,667	56,41
714,108	57,27
714,548	57,51
714,988	58,31
715,428	58,49
715,868	59,61
716,307	59,18
716,747	59,5
717,186	60,3
717,626	60,72
718,065	61,13
718,504	61,65
718,944	61,99
719,383	62,55
719,822	62,63
720,261	62,83
720,699	63,2
721,138	63,29
721,576	64,03
722,015	64,3
722,453	64,43
722,892	64,8
723,33	65,53
723,768	66,07
724,206	65,99
724,644	66,06
725,081	66,54
725,519	66,59
725,957	67,37
726,394	67,46
726,832	67,31
727,269	67,49
727,706	68,2
728,143	67,61
728,58	68,52
729,017	68,05
729,454	68,64
729,89	69,18
730,327	69,02
730,764	69,61
731,2	69,6
731,636	69,46
732,072	70,23
732,509	70,24
732,945	70,14
733,38	70,02
733,816	70,51
734,252	70,4
734,688	70,93
735,123	70,74
735,559	71,08
735,994	70,71
736,429	71,44
736,864	71,25
737,299	71,02
737,734	71,71
738,169	71,17
738,604	71,48
739,038	70,9
739,473	71,62
739,907	71,41
740,342	71,52
740,776	71,97
741,21	71,62
741,644	72,01
742,078	71,93
742,512	71,78
742,946	71,6
743,379	71,87
743,813	71,58
744,246	71,69
744,68	71,76
745,113	71,45
745,546	71,52
745,979	71,64
746,412	71,59
746,845	71,16
747,278	71,31
747,711	70,72
748,143	71,63
748,576	71,77
749,008	71,77
749,441	71,16
749,873	71,32
750,305	71,45
750,737	71,3
751,169	70,91
751,601	71,05
752,032	71,16
752,464	71,04
752,896	70,51
753,327	70,76
753,758	70,55
754,19	70,92
754,621	70,76
755,052	70,67
755,483	70,51
755,914	70,63
756,344	70,52
756,775	70,83
757,206	70,46
757,636	70,66
758,066	71,02
758,497	70,74
758,927	70,67
759,357	70,51
759,787	70,22
760,217	70,19
760,647	70,3
761,076	69,99
761,506	69,88
761,935	69,75
762,365	70,33
762,794	69,6
763,223	70,11
763,653	69,9
764,082	69,39
764,51	69,97
764,939	69,89
765,368	69,4
765,797	69,39
766,225	69,68
766,654	69,46
767,082	68,84
767,51	69,47
767,938	69,28
768,367	69,29
768,795	69,33
769,222	69,58
769,65	69,6
770,078	69,12
770,505	69,34
770,933	69,06
771,36	69,8
771,788	68,86
772,215	69,08
772,642	69,06
773,069	68,86
773,496	68,7
773,923	68,18
774,349	68,71
774,776	68,84
775,203	68,54
775,629	68,85
776,055	68,27
776,482	68,45
776,908	68,21
777,334	68,58
777,76	68,62
778,186	68,54
778,611	69,2
779,037	68,65
779,463	68,47
779,888	68,68
780,314	68,25
780,739	68,5
781,164	68,63
781,589	68,17
782,014	68,64
782,439	68,32
782,864	68,63
783,289	68,6
783,713	67,75
784,138	68,31
784,562	68,09
784,987	67,77
785,411	68,03
785,835	67,92
786,259	68,03
786,683	68,56
787,107	68,19
787,531	67,9
787,954	67,81
788,378	67,84
788,802	67,8
789,225	67,54
789,648	68,3
790,071	67,3
790,495	68,28
790,918	68,16
791,34	68,01
791,763	67,93
792,186	67,29
792,609	67,6
793,031	67,77
793,454	67,68
793,876	67,98
794,298	67,75
794,721	67,62
795,143	68,55
795,565	67,39
795,986	67,27
796,408	67,82
796,83	67,78
797,252	67,68
797,673	68,34
798,094	68,27
798,516	67,76
798,937	68,05
799,358	67,35
799,779	67,6
800,2	67,67
800,621	67,61
801,042	67,55
801,462	67,67
801,883	67,49
802,303	67,28
802,724	67,65
803,144	67,44
803,564	67,28
803,984	67,9
804,404	67,68
804,824	67,88
805,244	68,01
805,664	68
806,084	67,71
806,503	67,86
806,923	67,38
807,342	67,37
807,761	67,05
808,18	67,32
808,599	67,13
809,018	67,66
809,437	67,57
809,856	67,14
810,275	67,7
810,693	67,38
811,112	67,94
811,53	67,55
811,949	67,7
812,367	67,88
812,785	67,91
813,203	67,66
813,621	67,51
814,039	67,08
814,457	67,61
814,874	66,84
815,292	67,23
815,709	67,36
816,127	67,52
816,544	67,39
816,961	67,47
817,378	68,03
817,795	67,62
818,212	67,53
818,629	68,06
819,046	67,41
819,462	67,19
819,879	67,11
820,295	66,86
820,712	67,21
821,128	67,24
821,544	67,29
821,96	67,3
822,376	67,14
822,792	67,31
823,208	67,46
823,624	67,65
824,039	67,31
824,455	67,56
824,87	66,91
825,286	67,15
825,701	67,25
826,116	67,12
826,531	67,55
