Data from E4___Relative__4__00086.txt Node

Date: Wed Jan 31 18:25:38 CET 2024
User: diatiterra
Spectrometer: HDX00911
Trigger mode: 0
Integration Time (sec): 6,000000E-3
Scans to average: 2
Nonlinearity correction enabled: false
Boxcar width: 0
Storing dark spectrum: false
XAxis mode: Wavelengths
Number of Pixels in Spectrum: 2068
>>>>>Begin Spectral Data<<<<<
194,468	233,96
195,025	151,82
195,581	212,2
196,138	230,77
196,694	144,44
197,251	123,23
197,807	106,69
198,363	104
198,919	90,69
199,474	99,26
200,03	106,56
200,586	120,09
201,141	86,45
201,696	94,63
202,251	95,45
202,806	91,96
203,361	100,37
203,916	96,18
204,471	95,62
205,025	112,9
205,58	99,29
206,134	102,8
206,688	104,62
207,242	117,7
207,796	103,76
208,35	93,84
208,904	107,24
209,457	82,29
210,011	88,65
210,564	97,89
211,117	110,15
211,67	100,37
212,223	99,66
212,776	106,05
213,329	95,67
213,881	136,27
214,434	84,21
214,986	114,05
215,538	104,41
216,09	86,62
216,642	117,36
217,194	100
217,746	102,26
218,297	98,85
218,849	98,53
219,4	117,65
219,951	110,08
220,502	94,59
221,053	110,69
221,604	104,03
222,155	106,75
222,705	91,18
223,256	106,34
223,806	113,39
224,356	106,92
224,906	116,94
225,456	108,91
226,006	104,37
226,556	85,71
227,106	113,71
227,655	90,97
228,204	105,42
228,754	98,59
229,303	98,21
229,852	98,2
230,401	101,49
230,949	98,2
231,498	95,42
232,047	92,21
232,595	97,93
233,143	114,17
233,691	105,04
234,239	93,93
234,787	97,6
235,335	105,22
235,883	98,25
236,43	96,21
236,978	109,23
237,525	98,54
238,072	93,97
238,619	102,27
239,166	96,81
239,713	103,65
240,26	92,14
240,806	102,78
241,353	101,19
241,899	96,5
242,445	95,62
242,991	103,44
243,537	95,45
244,083	110,31
244,629	95,38
245,174	108,85
245,72	100,74
246,265	97,62
246,81	108,8
247,355	105,56
247,9	91,79
248,445	109,52
248,99	104,55
249,534	120,87
250,079	102,63
250,623	101,85
251,168	110,33
251,712	101,56
252,256	107,38
252,8	110,38
253,343	104,64
253,887	100,81
254,43	103,44
254,974	105,34
255,517	95,55
256,06	116,15
256,603	98,15
257,146	99,22
257,689	109,84
258,232	114,41
258,774	101,77
259,317	103,39
259,859	116,97
260,401	115,12
260,943	96,81
261,485	94,33
262,027	97,6
262,569	103,36
263,11	104,62
263,652	107,09
264,193	102,07
264,734	106,93
265,275	105,74
265,816	101,91
266,357	106,98
266,898	100,77
267,438	109,84
267,979	102,88
268,519	99,63
269,059	123,36
269,6	107,14
270,14	116,13
270,68	108,33
271,219	114,41
271,759	94,74
272,298	104,51
272,838	106,54
273,377	100
273,916	103,96
274,455	108,39
274,994	108,8
275,533	90,94
276,072	104,88
276,61	102,54
277,149	114,58
277,687	97,37
278,225	88,67
278,763	120,18
279,301	110,83
279,839	105,65
280,377	104,1
280,914	95,1
281,452	116,67
281,989	113,64
282,526	111,81
283,064	118,07
283,601	93,24
284,137	101,65
284,674	105,42
285,211	122,37
285,747	101,14
286,284	119,82
286,82	112,81
287,356	92,11
287,892	113,57
288,428	111,16
288,964	119,75
289,5	117,36
290,035	100,8
290,571	114,29
291,106	110,98
291,641	111,61
292,176	105,08
292,711	114,63
293,246	102,69
293,781	103,31
294,315	90,14
294,85	121,76
295,384	113,93
295,918	97,43
296,453	91,04
296,987	101,24
297,52	104,96
298,054	100,38
298,588	110,42
299,121	100
299,655	110,22
300,188	105
300,721	100,41
301,254	107,26
301,787	99,22
302,32	110,98
302,853	106,8
303,385	99,64
303,918	104,26
304,45	106,15
304,982	99,29
305,514	103,1
306,046	95,04
306,578	99,22
307,11	103,88
307,641	116,81
308,173	105,79
308,704	99,59
309,236	94,74
309,767	104,61
310,298	101,61
310,829	103,04
311,359	109,27
311,89	112,61
312,421	103,6
312,951	113,41
313,481	95,52
314,012	97,76
314,542	116,53
315,072	104,58
315,601	99,2
316,131	106,3
316,661	97,92
317,19	98,15
317,72	104,13
318,249	116,27
318,778	109,77
319,307	95,7
319,836	112,83
320,365	101,3
320,893	107,02
321,422	114,63
321,95	108,27
322,479	102,29
323,007	110,91
323,535	95,71
324,063	106,8
324,591	96,8
325,118	97,81
325,646	109,66
326,173	106,67
326,701	105,28
327,228	114,66
327,755	98,12
328,282	98,09
328,809	114,83
329,336	100
329,862	98,9
330,389	94,14
330,915	103,54
331,441	103,44
331,968	112,16
332,494	105,3
333,02	110,83
333,545	91,79
334,071	116,94
334,597	91,55
335,122	100,37
335,648	109,91
336,173	93,18
336,698	87,34
337,223	95,22
337,748	95,14
338,272	98,29
338,797	102,17
339,322	92,34
339,846	90,44
340,37	108,47
340,894	89,24
341,419	96,99
341,942	93,36
342,466	93,59
342,99	91,28
343,514	91,55
344,037	76,9
344,56	105,19
345,084	92,12
345,607	90,28
346,13	91,2
346,653	96,67
347,175	91,35
347,698	86,16
348,221	94,29
348,743	89,44
349,265	75,9
349,787	77,91
350,309	81,96
350,831	78,7
351,353	77,44
351,875	85,09
352,397	89,86
352,918	81,91
353,439	88,08
353,961	78,78
354,482	78,95
355,003	79,94
355,524	76,39
356,044	74,15
356,565	78,92
357,086	79,94
357,606	63,46
358,126	71,54
358,646	67,6
359,167	80,54
359,687	78,53
360,206	78,42
360,726	66,82
361,246	74,2
361,765	75,99
362,285	72
362,804	70
363,323	68,78
363,842	68,96
364,361	68,66
364,88	67,49
365,398	66,81
365,917	66,98
366,435	77,6
366,954	65,18
367,472	66,75
367,99	72,75
368,508	64,37
369,026	76,82
369,544	66,23
370,061	65,97
370,579	65,78
371,096	66,28
371,613	67,03
372,131	60,63
372,648	61,22
373,165	62,3
373,681	64,77
374,198	67,97
374,715	62,59
375,231	62,12
375,747	61,55
376,264	53,74
376,78	56,83
377,296	60,22
377,812	56,81
378,327	57,62
378,843	63,99
379,359	60,1
379,874	59,34
380,389	56,94
380,905	51,19
381,42	51,37
381,935	55,34
382,449	53,54
382,964	53,57
383,479	51,58
383,993	50,83
384,508	50,92
385,022	51,81
385,536	50,53
386,05	50,13
386,564	48,76
387,078	51,67
387,592	46,11
388,105	48,23
388,619	45,87
389,132	45,06
389,645	46,21
390,158	42,6
390,671	42,87
391,184	38,77
391,697	41,98
392,21	38,89
392,722	41,87
393,235	41,37
393,747	40,66
394,259	39,7
394,771	37,2
395,283	37,45
395,795	38,43
396,307	40,19
396,818	39,04
397,33	35,2
397,841	37,52
398,353	36,03
398,864	34,91
399,375	33,72
399,886	33,11
400,397	33,36
400,907	31,66
401,418	32,02
401,928	29,56
402,439	31,22
402,949	27,31
403,459	28,7
403,969	30,14
404,479	27,06
404,989	27,67
405,498	26,49
406,008	24,89
406,517	24,26
407,027	23,91
407,536	22,37
408,045	22,48
408,554	21,21
409,063	20,49
409,572	20,1
410,08	19,78
410,589	19,29
411,097	18,43
411,606	18,75
412,114	17,9
412,622	17,06
413,13	17,05
413,638	17,01
414,145	14,99
414,653	15,68
415,16	15
415,668	15,24
416,175	13,87
416,682	13,5
417,189	12,77
417,696	13,86
418,203	12,86
418,71	13,5
419,216	13,34
419,723	13,24
420,229	13,04
420,735	11,45
421,242	12,6
421,748	12,06
422,254	11,38
422,759	11,53
423,265	12,12
423,771	11,53
424,276	11,46
424,781	11,03
425,287	10,93
425,792	10,98
426,297	10,94
426,802	10,55
427,306	10,59
427,811	10,34
428,316	10,65
428,82	10,45
429,324	10,66
429,829	10,38
430,333	10,37
430,837	10,5
431,34	9,96
431,844	9,85
432,348	9,49
432,851	9,86
433,355	10,04
433,858	9,63
434,361	9,69
434,864	9,93
435,367	9,76
435,87	10,64
436,373	9,92
436,876	9,98
437,378	9,57
437,88	9,75
438,383	9,47
438,885	9,97
439,387	9,55
439,889	9,66
440,391	9,48
440,892	9,43
441,394	9,34
441,896	9,36
442,397	9,6
442,898	9,29
443,399	9,28
443,9	9,06
444,401	9,26
444,902	9,3
445,403	9,57
445,903	9,35
446,404	9,3
446,904	9,05
447,405	9,2
447,905	9,06
448,405	9,33
448,905	9,61
449,404	9,44
449,904	9,18
450,404	9,11
450,903	9,6
451,403	9,51
451,902	9,13
452,401	9,41
452,9	9,57
453,399	9,7
453,898	9,42
454,396	9,47
454,895	9,28
455,393	9,36
455,892	9,37
456,39	9,37
456,888	9,45
457,386	9,43
457,884	9,17
458,382	9,17
458,879	9,61
459,377	10,01
459,874	9,47
460,372	9,57
460,869	9,17
461,366	9,72
461,863	9,29
462,36	9,59
462,857	9,54
463,353	9,21
463,85	9,14
464,346	8,93
464,843	9,99
465,339	9,28
465,835	10,06
466,331	9,5
466,827	9,16
467,323	9,2
467,818	9,34
468,314	9,3
468,809	9,48
469,305	9,24
469,8	9,17
470,295	9,11
470,79	9,43
471,285	9,21
471,78	9,09
472,274	8,97
472,769	9,28
473,263	9,12
473,758	9,22
474,252	8,88
474,746	9,17
475,24	9,49
475,734	9,33
476,228	9,51
476,721	9,12
477,215	9,3
477,708	8,93
478,202	9,22
478,695	9,18
479,188	9,27
479,681	9,15
480,174	9,65
480,667	9,44
481,159	9,05
481,652	9,14
482,144	9,14
482,637	9,72
483,129	8,97
483,621	9,65
484,113	9,55
484,605	9,45
485,097	9,6
485,588	9,29
486,08	9,39
486,571	9,4
487,063	9,33
487,554	9,71
488,045	9,8
488,536	9,71
489,027	9,71
489,518	9,8
490,008	9,48
490,499	9,86
490,989	9,71
491,48	9,88
491,97	9,71
492,46	9,8
492,95	9,87
493,44	10,34
493,93	10,11
494,419	10,05
494,909	9,86
495,398	10,35
495,888	10,15
496,377	10,42
496,866	10,52
497,355	10,59
497,844	10,46
498,333	10,91
498,821	10,79
499,31	10,64
499,798	11,07
500,287	11,1
500,775	11,59
501,263	11,23
501,751	11,68
502,239	12,13
502,727	11,8
503,215	11,82
503,702	12,44
504,19	12,21
504,677	12,59
505,164	12,92
505,651	13,16
506,139	13,44
506,625	13,15
507,112	13,46
507,599	13,66
508,086	14,03
508,572	14,25
509,058	14,62
509,545	14,58
510,031	15,32
510,517	15,43
511,003	15,42
511,489	15,93
511,974	15,98
512,46	16,28
512,946	16,56
513,431	17,18
513,916	17,67
514,401	17,72
514,887	17,93
515,371	18,53
515,856	18,89
516,341	18,98
516,826	19,41
517,31	19,96
517,795	20,31
518,279	20,26
518,763	20,99
519,247	21,26
519,731	21,78
520,215	21,77
520,699	22,45
521,182	22,68
521,666	23,04
522,149	23,66
522,633	24,02
523,116	24,03
523,599	24,77
524,082	24,56
524,565	25,01
525,048	25,44
525,53	25,88
526,013	26,78
526,495	26,88
526,978	27,02
527,46	27,13
527,942	27,31
528,424	27,9
528,906	27,68
529,388	28,03
529,87	28,72
530,351	28,33
530,833	29,32
531,314	29,22
531,795	29,32
532,277	29,51
532,758	29,58
533,238	30,15
533,719	29,93
534,2	29,9
534,681	30,47
535,161	30,52
535,642	31,16
536,122	30,44
536,602	30,84
537,082	31,25
537,562	30,82
538,042	31,01
538,522	31,36
539,001	31,42
539,481	31,6
539,96	31,12
540,44	31,48
540,919	31,7
541,398	31,9
541,877	31,35
542,356	31,67
542,835	31,39
543,313	32,09
543,792	32,02
544,27	31,85
544,749	32,36
545,227	32,12
545,705	32,38
546,183	32,59
546,661	32,14
547,139	32,32
547,616	31,97
548,094	32,45
548,571	32,46
549,049	32,9
549,526	32,23
550,003	32,75
550,48	32,42
550,957	32,39
551,434	32,46
551,911	32,67
552,387	32,56
552,864	32,29
553,34	32,7
553,817	32,76
554,293	32,97
554,769	32,62
555,245	33,01
555,721	33,19
556,197	32,73
556,672	32,82
557,148	32,33
557,623	32,64
558,099	32,57
558,574	32,73
559,049	32,28
559,524	32,49
559,999	32,5
560,474	31,54
560,948	31,81
561,423	32,3
561,897	32,08
562,372	32,44
562,846	31,92
563,32	31,55
563,794	31,97
564,268	31,88
564,742	31,34
565,216	31,03
565,69	30,74
566,163	30,97
566,636	30,65
567,11	30,6
567,583	29,95
568,056	30,18
568,529	30,23
569,002	29,91
569,475	29,3
569,947	29,05
570,42	29,25
570,892	29,29
571,365	28,64
571,837	28,57
572,309	28,51
572,781	27,75
573,253	27,96
573,725	27,57
574,197	27,47
574,668	27,56
575,14	27,2
575,611	26,91
576,082	26,35
576,554	26,72
577,025	26,3
577,496	26,15
577,967	25,62
578,437	25,93
578,908	25,72
579,379	25,45
579,849	25,27
580,319	24,75
580,79	24,73
581,26	24,9
581,73	24,69
582,2	24,54
582,669	24,41
583,139	24,19
583,609	23,79
584,078	24,22
584,548	23,92
585,017	23,75
585,486	23,39
585,955	23,82
586,424	23,4
586,893	23,18
587,362	23,3
587,83	23,15
588,299	22,99
588,767	22,89
589,236	22,96
589,704	22,7
590,172	22,56
590,64	22,72
591,108	22,47
591,576	22,43
592,043	22,48
592,511	22,27
592,978	22,57
593,446	22,06
593,913	21,92
594,38	21,94
594,847	22,14
595,314	22,11
595,781	21,71
596,248	22,01
596,715	21,76
597,181	21,56
597,647	22,02
598,114	21,76
598,58	21,5
599,046	21,62
599,512	21,39
599,978	21,64
600,444	21,41
600,91	21,45
601,375	21,34
601,841	21,39
602,306	21,36
602,771	21,05
603,236	21,05
603,702	21,39
604,167	20,93
604,631	20,92
605,096	20,73
605,561	20,42
606,025	20,78
606,49	20,53
606,954	20,42
607,418	20,31
607,882	20,23
608,347	20,15
608,81	19,91
609,274	19,62
609,738	19,75
610,202	19,69
610,665	19,69
611,128	19,46
611,592	19,37
612,055	19,1
612,518	18,88
612,981	19,16
613,444	18,91
613,907	18,56
614,369	18,74
614,832	18,64
615,294	18,35
615,757	18,43
616,219	18,53
616,681	17,83
617,143	18,11
617,605	17,99
618,067	17,86
618,529	17,68
618,99	17,49
619,452	17,27
619,913	17,49
620,375	17,36
620,836	17,46
621,297	17,49
621,758	17,25
622,219	17,15
622,68	17,07
623,14	16,89
623,601	16,92
624,061	17
624,522	16,81
624,982	16,95
625,442	16,98
625,902	16,82
626,362	16,7
626,822	16,82
627,282	16,92
627,742	16,94
628,201	16,76
628,661	16,53
629,12	16,56
629,579	16,67
630,038	16,58
630,497	16,8
630,956	16,58
631,415	16,48
631,874	16,64
632,332	16,61
632,791	16,43
633,249	16,29
633,708	16,24
634,166	16,33
634,624	16,03
635,082	16,03
635,54	16,08
635,998	15,85
636,455	15,8
636,913	15,65
637,37	15,6
637,828	15,28
638,285	15,34
638,742	15,03
639,199	15,13
639,656	14,99
640,113	14,91
640,57	14,76
641,027	14,51
641,483	14,44
641,94	14,27
642,396	14,24
642,852	14,23
643,309	13,88
643,765	13,8
644,221	13,61
644,676	13,3
645,132	13,3
645,588	13,35
646,043	12,97
646,499	12,93
646,954	12,8
647,409	12,69
647,864	12,54
648,319	12,39
648,774	12,35
649,229	12,34
649,684	12,08
650,139	12,23
650,593	11,88
651,047	12,03
651,502	11,79
651,956	11,81
652,41	11,69
652,864	11,52
653,318	11,68
653,772	11,46
654,225	11,42
654,679	11,29
655,133	11,17
655,586	11,16
656,039	11,09
656,492	10,93
656,946	10,97
657,399	10,85
657,851	10,79
658,304	10,69
658,757	10,72
659,209	10,58
659,662	10,36
660,114	10,31
660,567	10,38
661,019	10,15
661,471	10,1
661,923	10,12
662,375	9,9
662,826	9,83
663,278	9,71
663,73	9,66
664,181	9,7
664,632	9,61
665,084	9,63
665,535	9,42
665,986	9,53
666,437	9,43
666,888	9,36
667,338	9,28
667,789	9,43
668,24	9,18
668,69	9,33
669,14	9,35
669,591	9,39
670,041	9,52
670,491	9,33
670,941	9,4
671,391	9,51
671,84	9,5
672,29	9,45
672,74	9,58
673,189	9,63
673,638	9,75
674,088	9,76
674,537	9,89
674,986	10,05
675,435	10,1
675,883	10,1
676,332	10,23
676,781	10,3
677,229	10,42
677,678	10,43
678,126	10,54
678,574	10,82
679,022	10,85
679,47	10,97
679,918	11,21
680,366	11,32
680,814	11,39
681,261	11,57
681,709	11,76
682,156	11,76
682,604	12,06
683,051	12,14
683,498	12,33
683,945	12,37
684,392	12,62
684,839	12,58
685,286	13,02
685,732	13,01
686,179	13,2
686,625	13,4
687,071	13,61
687,518	13,83
687,964	14,02
688,41	14,15
688,856	14,66
689,301	15,05
689,747	15,43
690,193	15,6
690,638	15,98
691,084	16,49
691,529	16,89
691,974	17,65
692,419	18,08
692,864	18,7
693,309	19,1
693,754	19,86
694,199	20,51
694,643	20,88
695,088	21,5
695,532	22,31
695,977	22,87
696,421	23,55
696,865	24,01
697,309	24,51
697,753	25,23
698,197	26,12
698,64	26,62
699,084	27,38
699,527	27,82
699,971	28,57
700,414	29,17
700,857	29,55
701,3	30,37
701,743	31,08
702,186	31,48
702,629	32,05
703,072	32,46
703,515	33,16
703,957	33,46
704,399	34,02
704,842	34,67
705,284	35,12
705,726	35,72
706,168	36,07
706,61	36,54
707,052	36,67
707,494	37,36
707,935	37,93
708,377	38,63
708,818	39,03
709,26	39,23
709,701	39,81
710,142	40,46
710,583	40,24
711,024	40,88
711,465	41,51
711,905	41,44
712,346	41,58
712,787	42,07
713,227	42,72
713,667	43,06
714,108	43,67
714,548	43,85
714,988	44,22
715,428	44,91
715,868	44,93
716,307	44,96
716,747	45,17
717,186	45,83
717,626	45,98
718,065	46,28
718,504	46,51
718,944	46,98
719,383	46,96
719,822	47,18
720,261	47,56
720,699	47,83
721,138	47,69
721,576	48,19
722,015	48,67
722,453	48,6
722,892	48,82
723,33	49,21
723,768	49,72
724,206	49,68
724,644	49,3
725,081	49,85
725,519	49,9
725,957	50,41
726,394	50,58
726,832	50,23
727,269	50,41
727,706	50,58
728,143	50,7
728,58	51,44
729,017	50,9
729,454	51,45
729,89	51,49
730,327	51,19
730,764	51,75
731,2	51,54
731,636	51,75
732,072	52,24
732,509	52,3
732,945	52,18
733,38	51,82
733,816	52,34
734,252	52,06
734,688	52,59
735,123	52,44
735,559	52,63
735,994	52,58
736,429	52,77
736,864	52,86
737,299	52,68
737,734	53,02
738,169	52,81
738,604	52,93
739,038	52,63
739,473	53,04
739,907	53,1
740,342	52,94
740,776	53,23
741,21	52,6
741,644	53,04
742,078	53,11
742,512	53,06
742,946	53,18
743,379	52,85
743,813	52,91
744,246	52,71
744,68	52,99
745,113	52,58
745,546	52,75
745,979	53,01
746,412	52,89
746,845	52,72
747,278	52,64
747,711	52,46
748,143	52,93
748,576	53,01
749,008	53,07
749,441	52,29
749,873	52,4
750,305	52,89
750,737	52,28
751,169	52,29
751,601	52,32
752,032	52,33
752,464	51,99
752,896	51,68
753,327	52,28
753,758	52,05
754,19	52,2
754,621	51,79
755,052	51,61
755,483	52,08
755,914	52,36
756,344	51,88
756,775	52,09
757,206	51,92
757,636	51,92
758,066	51,82
758,497	51,71
758,927	52,05
759,357	51,66
759,787	51,67
760,217	51,45
760,647	51,51
761,076	51,48
761,506	51,42
761,935	51,27
762,365	51,5
762,794	51,46
763,223	51,6
763,653	51,71
764,082	51,14
764,51	51,3
764,939	51,14
765,368	51
765,797	51,07
766,225	51,06
766,654	50,91
767,082	50,65
767,51	51,29
767,938	50,79
768,367	50,53
768,795	50,78
769,222	51,06
769,65	51,14
770,078	50,47
770,505	50,69
770,933	50,58
771,36	51,08
771,788	50,62
772,215	50,81
772,642	51
773,069	50,56
773,496	50,42
773,923	50,48
774,349	50,38
774,776	50,55
775,203	50,34
775,629	50,56
776,055	50,05
776,482	50,29
776,908	50,41
777,334	50,26
777,76	50,41
778,186	50,48
778,611	50,64
779,037	50,21
779,463	50,21
779,888	50,22
780,314	50,2
780,739	50,45
781,164	50,39
781,589	50,13
782,014	50,09
782,439	50,15
782,864	50,06
783,289	50,22
783,713	49,92
784,138	50,37
784,562	49,9
784,987	49,83
785,411	49,63
785,835	49,78
786,259	49,82
786,683	50,31
787,107	49,97
787,531	50,21
787,954	50,04
788,378	49,53
788,802	50,04
789,225	49,88
789,648	50,08
790,071	49,49
790,495	50,08
790,918	49,91
791,34	49,87
791,763	49,71
792,186	49,9
792,609	49,85
793,031	49,97
793,454	49,97
793,876	49,98
794,298	49,56
794,721	49,67
795,143	49,9
795,565	49,49
795,986	49,56
796,408	49,5
796,83	49,53
797,252	49,59
797,673	49,75
798,094	50,3
798,516	49,84
798,937	50,02
799,358	49,45
799,779	49,56
800,2	49,73
800,621	49,17
801,042	49,19
801,462	49,84
801,883	49,46
802,303	49,33
802,724	49,73
803,144	49,6
803,564	49,78
803,984	49,75
804,404	49,77
804,824	49,78
805,244	49,79
805,664	49,71
806,084	49,72
806,503	49,85
806,923	49,42
807,342	49,56
807,761	49,21
808,18	49,32
808,599	49,13
809,018	49,61
809,437	49,44
809,856	49,43
810,275	49,56
810,693	49,18
811,112	49,62
811,53	49,93
811,949	49,19
812,367	49,62
812,785	49,89
813,203	49,64
813,621	49,63
814,039	49,25
814,457	49,39
814,874	49,04
815,292	49,44
815,709	49,34
816,127	49,47
816,544	49,32
816,961	49,22
817,378	49,98
817,795	49,55
818,212	49,61
818,629	49,74
819,046	49,34
819,462	49,19
819,879	49,07
820,295	49,24
820,712	49,54
821,128	49,54
821,544	49,3
821,96	49,23
822,376	49,27
822,792	49,35
823,208	49,19
823,624	49,66
824,039	49,07
824,455	49,66
824,87	49,01
825,286	49,41
825,701	49,23
826,116	49
826,531	49,56
826,946	49,09
827,361	49,46
827,776	48,99
828,19	49,03
828,605	48,67
829,02	49,2
829,434	49,03
829,848	49,4
830,263	49,38
830,677	48,93
831,091	49,07
831,505	48,94
831,919	49,41
832,332	49,18
832,746	48,91
833,16	48,83
