Data from E4___Relative__7__00089.txt Node

Date: Wed Jan 31 18:25:54 CET 2024
User: diatiterra
Spectrometer: HDX00911
Trigger mode: 0
Integration Time (sec): 6,000000E-3
Scans to average: 2
Nonlinearity correction enabled: false
Boxcar width: 0
Storing dark spectrum: false
XAxis mode: Wavelengths
Number of Pixels in Spectrum: 2068
>>>>>Begin Spectral Data<<<<<
194,468	228,3
195,025	158,18
195,581	229,27
196,138	229,49
196,694	155,56
197,251	121,21
197,807	107,48
198,363	103,6
198,919	92,41
199,474	106,25
200,03	114,75
200,586	122,77
201,141	90,32
201,696	101,01
202,251	98,48
202,806	87,76
203,361	101,48
203,916	98,26
204,471	106,2
205,025	120,97
205,58	100,71
206,134	103,2
206,688	105,38
207,242	110,62
207,796	99,25
208,35	104,35
208,904	101,72
209,457	95,14
210,011	90,78
210,564	99,65
211,117	99,25
211,67	100,37
212,223	104,45
212,776	112,1
213,329	100,67
213,881	125,98
214,434	94,08
214,986	116,94
215,538	104,41
216,09	94,37
216,642	116,53
217,194	110,61
217,746	96,99
218,297	106,11
218,849	98,9
219,4	117,23
219,951	106,85
220,502	99,66
221,053	111,45
221,604	101,68
222,155	105,56
222,705	90,81
223,256	105,22
223,806	104,33
224,356	110,38
224,906	116,13
225,456	114,73
226,006	108,73
226,556	93,51
227,106	111,29
227,655	94,79
228,204	105,42
228,754	96,83
229,303	101,07
229,852	97,12
230,401	107,09
230,949	100,72
231,498	90,49
232,047	86,36
232,595	97,93
233,143	104,33
233,691	108,91
234,239	96,43
234,787	100
235,335	104,1
235,883	90,21
236,43	97,73
236,978	106,92
237,525	102,92
238,072	95,39
238,619	102,27
239,166	96,81
239,713	98,54
240,26	93,57
240,806	98,61
241,353	100
241,899	92,66
242,445	101,09
242,991	97,71
243,537	91,67
244,083	107,63
244,629	106,54
245,174	111,95
245,72	98,89
246,265	94,84
246,81	103,2
247,355	114,68
247,9	91,79
248,445	110,71
248,99	105,3
249,534	120
250,079	100,38
250,623	99,63
251,168	108,68
251,712	102,34
252,256	106,97
252,8	111,54
253,343	100,71
253,887	97,98
254,43	100,38
254,974	100,76
255,517	101,03
256,06	115
256,603	91,85
257,146	105,04
257,689	111,81
258,232	124,58
258,774	95,74
259,317	105,08
259,859	123,39
260,401	114,34
260,943	92,91
261,485	100,71
262,027	102,8
262,569	105,97
263,11	97,69
263,652	119,69
264,193	106,2
264,734	100,73
265,275	120,08
265,816	104,58
266,357	103,88
266,898	96,15
267,438	103,15
267,979	102,16
268,519	102,99
269,059	128,97
269,6	109,02
270,14	114,92
270,68	106,16
271,219	114,83
271,759	105,64
272,298	101,88
272,838	105,38
273,377	106,35
273,916	100,72
274,455	101,46
274,994	107,2
275,533	103,62
276,072	108,54
276,61	103,26
277,149	101,25
277,687	106,02
278,225	94,33
278,763	124,56
279,301	110,83
279,839	110,89
280,377	111,89
280,914	101,05
281,452	112,39
281,989	103,72
282,526	107,48
283,064	117,23
283,601	99,32
284,137	102,48
284,674	114,17
285,211	130,26
285,747	106,44
286,284	130,63
286,82	106,2
287,356	94,41
287,892	105,81
288,428	108,68
288,964	120,17
289,5	117,36
290,035	105,2
290,571	117,65
291,106	117,48
291,641	115,62
292,176	112,89
292,711	104,47
293,246	113,46
293,781	114,46
294,315	94,72
294,85	117,59
295,384	109,43
295,918	103,31
296,453	97,76
296,987	99,59
297,52	110,74
298,054	104,58
298,588	107,08
299,121	98,88
299,655	102,19
300,188	105
300,721	111,38
301,254	106,05
301,787	102,34
302,32	115,04
302,853	106
303,385	106,43
303,918	104,65
304,45	102,69
304,982	91,84
305,514	110,47
306,046	98,76
306,578	99,22
307,11	110,85
307,641	113,79
308,173	101,65
308,704	100,41
309,236	92,86
309,767	98,23
310,298	103,63
310,829	112,61
311,359	104,84
311,89	111,76
312,421	117,12
312,951	114,63
313,481	97,93
314,012	92,91
314,542	111,02
315,072	106,11
315,601	112
316,131	112,99
316,661	102,08
317,19	101,48
317,72	105,37
318,249	111,9
318,778	110,94
319,307	99,22
319,836	113,27
320,365	101,74
320,893	98,76
321,422	111,38
321,95	105,64
322,479	106,87
323,007	114,09
323,535	96,43
324,063	103,6
324,591	106,8
325,118	103,65
325,646	119,75
326,173	110
326,701	111,38
327,228	117,67
327,755	98,5
328,282	97,33
328,809	105,51
329,336	118,11
329,862	96,69
330,389	97,66
330,915	102,36
331,441	106,11
331,968	109,46
332,494	102,27
333,02	102,92
333,545	99,25
334,071	118,6
334,597	94,37
335,122	96,3
335,648	112,5
336,173	93,56
336,698	91,46
337,223	95,96
337,748	93,06
338,272	91,1
338,797	103,26
339,322	94,16
339,846	89,71
340,37	111,29
340,894	86,46
341,419	90,23
341,942	96,85
342,466	91,35
342,99	81,88
343,514	85,92
344,037	89,56
344,56	103,33
345,084	92,47
345,607	96,53
346,13	99,3
346,653	94
347,175	91,67
347,698	79,25
348,221	87,86
348,743	90,37
349,265	81,29
349,787	81,9
350,309	79,75
350,831	87,04
351,353	82,62
351,875	80,41
352,397	90,56
352,918	88,49
353,439	89,07
353,961	72,38
354,482	78,95
355,003	84,88
355,524	78,33
356,044	75
356,565	88,25
357,086	84,18
357,606	63,19
358,126	74,2
358,646	72,45
359,167	81,08
359,687	76,27
360,206	76,5
360,726	70,14
361,246	79,26
361,765	76,27
362,285	72,75
362,804	79,21
363,323	71,22
363,842	80,77
364,361	71,39
364,88	70,2
365,398	66,38
365,917	71,7
366,435	79,43
366,954	74,55
367,472	66,75
367,99	68,48
368,508	61,34
369,026	76,36
369,544	70,39
370,061	67,02
370,579	65,37
371,096	73,62
371,613	69,83
372,131	61,61
372,648	65,55
373,165	63,87
373,681	64,77
374,198	71,29
374,715	64,29
375,231	63,26
375,747	62,59
376,264	55,78
376,78	64,39
377,296	62,27
377,812	59,63
378,327	62,09
378,843	64,51
379,359	61,75
379,874	57,44
380,389	56,94
380,905	54,93
381,42	57,45
381,935	58,08
382,449	54,13
382,964	54,14
383,479	50,57
383,993	55,4
384,508	54,59
385,022	50,78
385,536	51,84
386,05	50,79
386,564	50,87
387,078	52,03
387,592	50,36
388,105	48,23
388,619	46,65
389,132	47,3
389,645	47,59
390,158	45,28
390,671	42,57
391,184	44,94
391,697	44,19
392,21	41,99
392,722	42,96
393,235	44,09
393,747	44,07
394,259	43,73
394,771	38,57
395,283	41,3
395,795	38,81
396,307	41,31
396,818	37,89
397,33	36,48
397,841	37,52
398,353	36,29
398,864	36,07
399,375	35,81
399,886	36,3
400,397	34,01
400,907	33,1
401,418	33,86
401,928	32,55
402,439	33,31
402,949	31,06
403,459	31,19
403,969	30,45
404,479	29,95
404,989	27,67
405,498	27,77
406,008	26,63
406,517	25,53
407,027	23,91
407,536	24,22
408,045	24,93
408,554	23,17
409,063	21,86
409,572	21,19
410,08	21,4
410,589	19,93
411,097	19,45
411,606	19,01
412,114	18,69
412,622	18,46
413,13	17,32
413,638	17,07
414,145	15,81
414,653	16,79
415,16	14,8
415,668	16,08
416,175	14,47
416,682	14,08
417,189	13,47
417,696	14,1
418,203	13,08
418,71	13,43
419,216	13,43
419,723	12,37
420,229	12,61
420,735	12,41
421,242	12,47
421,748	12,52
422,254	11,76
422,759	11,67
423,265	12,38
423,771	11,79
424,276	11,66
424,781	11,38
425,287	11,06
425,792	11,3
426,297	11
426,802	10,55
427,306	10,63
427,811	10,82
428,316	10,9
428,82	10,39
429,324	10,34
429,829	10,37
430,333	10,4
430,837	10,22
431,34	10,48
431,844	9,82
432,348	9,96
432,851	9,92
433,355	9,63
433,858	10,13
434,361	9,77
434,864	9,9
435,367	9,46
435,87	9,67
436,373	10,23
436,876	9,98
437,378	9,64
437,88	9,26
438,383	9,73
438,885	9,25
439,387	9,53
439,889	9,38
440,391	9,38
440,892	9,23
441,394	9,46
441,896	9,12
442,397	9,63
442,898	8,73
443,399	9,28
443,9	8,95
444,401	9,29
444,902	8,91
445,403	8,89
445,903	9,35
446,404	9,52
446,904	9,49
447,405	9,43
447,905	8,98
448,405	9,25
448,905	9,52
449,404	9,41
449,904	9,23
450,404	9,15
450,903	9,75
451,403	9,05
451,902	9,45
452,401	9,71
452,9	9,53
453,399	9,76
453,898	9,43
454,396	9,35
454,895	9,2
455,393	9,39
455,892	9,38
456,39	9,69
456,888	10
457,386	9,15
457,884	9,45
458,382	9,63
458,879	9,72
459,377	9,62
459,874	9,45
460,372	9,64
460,869	9,2
461,366	9,28
461,863	9,13
462,36	9,7
462,857	9,55
463,353	9,21
463,85	9,4
464,346	9,28
464,843	9,58
465,339	9,69
465,835	9,63
466,331	9,55
466,827	9,06
467,323	9,29
467,818	9,49
468,314	9,5
468,809	9,26
469,305	9,24
469,8	9,33
470,295	9,48
470,79	9,41
471,285	9,28
471,78	8,87
472,274	8,93
472,769	8,81
473,263	9,11
473,758	9,7
474,252	8,98
474,746	9,2
475,24	9,54
475,734	9,26
476,228	9,4
476,721	9,24
477,215	9,07
477,708	9,26
478,202	9,59
478,695	9,33
479,188	9,4
479,681	9,13
480,174	9,3
480,667	9,38
481,159	9,21
481,652	9,5
482,144	9,2
482,637	9,51
483,129	9,27
483,621	9,43
484,113	9,58
484,605	9,68
485,097	9,66
485,588	9,62
486,08	9,52
486,571	9,5
487,063	9,67
487,554	9,48
488,045	9,71
488,536	9,83
489,027	9,81
489,518	9,97
490,008	9,75
490,499	9,92
490,989	9,83
491,48	9,87
491,97	10,34
492,46	10,08
492,95	10,23
493,44	10,45
493,93	10,2
494,419	10,33
494,909	10,58
495,398	10,46
495,888	10,47
496,377	10,95
496,866	11,05
497,355	11,15
497,844	11,07
498,333	11,58
498,821	11,45
499,31	11,51
499,798	11,89
500,287	11,6
500,775	12,28
501,263	12,36
501,751	12,4
502,239	12,36
502,727	12,37
503,215	12,64
503,702	13,15
504,19	13,31
504,677	13
505,164	13,58
505,651	13,82
506,139	13,78
506,625	14,18
507,112	14,43
507,599	14,8
508,086	14,83
508,572	15,1
509,058	15,45
509,545	15,68
510,031	16,03
510,517	16,27
511,003	16,02
511,489	17,04
511,974	17,31
512,46	17,39
512,946	17,73
513,431	18,15
513,916	18,54
514,401	19,13
514,887	19,21
515,371	19,39
515,856	20,18
516,341	20,17
516,826	20,4
517,31	20,93
517,795	21,43
518,279	21,43
518,763	22,38
519,247	22,39
519,731	22,88
520,215	22,83
520,699	23,65
521,182	23,75
521,666	23,91
522,149	24,29
522,633	25,07
523,116	25,51
523,599	25,92
524,082	26,26
524,565	26,34
525,048	26,91
525,53	26,91
526,013	27,53
526,495	27,68
526,978	27,75
527,46	28,48
527,942	27,91
528,424	28,75
528,906	29,06
529,388	29
529,87	29,84
530,351	29,19
530,833	30,1
531,314	30,21
531,795	30,23
532,277	30,9
532,758	30,95
533,238	31,12
533,719	30,82
534,2	30,63
534,681	31,18
535,161	31,27
535,642	31,9
536,122	31,51
536,602	31,63
537,082	31,92
537,562	31,99
538,042	32,01
538,522	32,41
539,001	31,96
539,481	32,54
539,96	32,31
540,44	32,66
540,919	32,69
541,398	32,48
541,877	32,51
542,356	32,7
542,835	32,51
543,313	32,91
543,792	33,22
544,27	32,73
544,749	32,86
545,227	33,18
545,705	33,22
546,183	33,37
546,661	33,16
547,139	32,91
547,616	33,05
548,094	33,17
548,571	33,16
549,049	33,65
549,526	33,14
550,003	33,42
550,48	32,56
550,957	33,1
551,434	33,27
551,911	33,95
552,387	33,23
552,864	34,04
553,34	33,86
553,817	33,45
554,293	33,77
554,769	33,72
555,245	33,31
555,721	33,64
556,197	33,86
556,672	33,58
557,148	33,57
557,623	33,86
558,099	33,29
558,574	33,65
559,049	33,18
559,524	33,71
559,999	33
560,474	33,28
560,948	33,18
561,423	33,25
561,897	33,03
562,372	32,93
562,846	32,9
563,32	32,79
563,794	32,68
564,268	32,88
564,742	32,69
565,216	32,44
565,69	31,9
566,163	32,32
566,636	31,8
567,11	31,82
567,583	31,52
568,056	31,67
568,529	31,39
569,002	31,26
569,475	31,22
569,947	30,9
570,42	30,69
570,892	30,34
571,365	30,36
571,837	30,35
572,309	29,65
572,781	29,91
573,253	29,69
573,725	29,2
574,197	29,24
574,668	29,18
575,14	28,79
575,611	28,71
576,082	28,42
576,554	28,19
577,025	28,15
577,496	28,28
577,967	27,44
578,437	27,66
578,908	27,6
579,379	27,53
579,849	27,36
580,319	26,97
580,79	26,83
581,26	26,9
581,73	26,82
582,2	26,49
582,669	26,4
583,139	26,35
583,609	25,91
584,078	26,27
584,548	25,55
585,017	25,61
585,486	25,55
585,955	25,46
586,424	25,35
586,893	25,31
587,362	25,35
587,83	25,07
588,299	24,73
588,767	24,87
589,236	25,05
589,704	24,82
590,172	24,47
590,64	24,45
591,108	24,26
591,576	24,49
592,043	24,11
592,511	24,24
592,978	24,08
593,446	24,44
593,913	24,05
594,38	24,08
594,847	23,91
595,314	23,69
595,781	23,69
596,248	23,34
596,715	23,53
597,181	23,7
597,647	23,64
598,114	23,39
598,58	23,39
599,046	23,44
599,512	23,27
599,978	23,24
600,444	23,04
600,91	23,09
601,375	23,19
601,841	23,24
602,306	23,01
602,771	23,07
603,236	23
603,702	23,1
604,167	23,13
604,631	22,9
605,096	22,76
605,561	22,76
606,025	22,72
606,49	22,54
606,954	22,33
607,418	22,12
607,882	21,99
608,347	21,92
608,81	21,93
609,274	21,84
609,738	21,77
610,202	22,13
610,665	21,64
611,128	21,44
611,592	21,38
612,055	21,53
612,518	21,6
612,981	21,2
613,444	21,19
613,907	20,87
614,369	20,91
614,832	21,06
615,294	20,66
615,757	20,47
616,219	20,52
616,681	19,99
617,143	20,29
617,605	20,2
618,067	19,86
618,529	19,86
618,99	19,67
619,452	19,9
619,913	19,83
620,375	19,72
620,836	19,68
621,297	19,81
621,758	19,42
622,219	19,2
622,68	19,47
623,14	19,35
623,601	19,1
624,061	19,3
624,522	19,22
624,982	19,11
625,442	19,34
625,902	19,11
626,362	18,95
626,822	18,92
627,282	19,09
627,742	19,02
628,201	18,71
628,661	18,99
629,12	18,7
629,579	18,76
630,038	19,02
630,497	18,89
630,956	18,8
631,415	18,58
631,874	18,4
632,332	18,26
632,791	18,4
633,249	18,4
633,708	18,58
634,166	18,18
634,624	18,05
635,082	18,18
635,54	17,8
635,998	17,69
636,455	17,62
636,913	17,45
637,37	17,24
637,828	17,09
638,285	17,1
638,742	16,81
639,199	16,68
639,656	16,42
640,113	16,4
640,57	15,96
641,027	15,88
641,483	16
641,94	15,45
642,396	15,61
642,852	15,26
643,309	15,2
643,765	14,91
644,221	14,74
644,676	14,54
645,132	14,22
645,588	14,18
646,043	14,19
646,499	13,89
646,954	13,57
647,409	13,58
647,864	13,53
648,319	13,24
648,774	13,21
649,229	12,97
649,684	13,02
650,139	12,98
650,593	12,67
651,047	12,67
651,502	12,7
651,956	12,59
652,41	12,33
652,864	12,22
653,318	12,5
653,772	12,27
654,225	12,33
654,679	12,38
655,133	12,21
655,586	12,11
656,039	12,16
656,492	12,11
656,946	12,01
657,399	11,82
657,851	11,75
658,304	11,69
658,757	11,65
659,209	11,33
659,662	11,44
660,114	11,21
660,567	11,26
661,019	11,08
661,471	10,85
661,923	10,89
662,375	10,77
662,826	10,54
663,278	10,74
663,73	10,52
664,181	10,44
664,632	10,4
665,084	10,33
665,535	10,17
665,986	10,07
666,437	10
666,888	9,86
667,338	9,97
667,789	9,88
668,24	9,9
668,69	9,76
669,14	9,86
669,591	9,55
670,041	9,77
670,491	9,78
670,941	9,64
671,391	9,72
671,84	9,74
672,29	9,85
672,74	9,71
673,189	9,85
673,638	9,89
674,088	9,96
674,537	9,99
674,986	10,05
675,435	10,07
675,883	10,15
676,332	10,34
676,781	10,39
677,229	10,39
677,678	10,43
678,126	10,64
678,574	10,78
679,022	10,87
679,47	10,9
679,918	11,24
680,366	11,29
680,814	11,37
681,261	11,53
681,709	11,56
682,156	11,71
682,604	12,17
683,051	12,14
683,498	12,36
683,945	12,4
684,392	12,86
684,839	13
685,286	13,3
685,732	13,4
686,179	13,68
686,625	14,04
687,071	14,2
687,518	14,58
687,964	14,98
688,41	15,2
688,856	15,68
689,301	16,35
689,747	16,53
690,193	16,9
690,638	17,36
691,084	18,03
691,529	18,55
691,974	19,12
692,419	19,9
692,864	20,59
693,309	20,8
693,754	21,38
694,199	22,16
694,643	22,68
695,088	23,21
695,532	24,16
695,977	24,74
696,421	25,33
696,865	25,81
697,309	26,41
697,753	27,02
698,197	27,8
698,64	28,65
699,084	28,86
699,527	29,6
699,971	30,06
700,414	30,56
700,857	31,12
701,3	31,52
701,743	32,41
702,186	32,85
702,629	33,29
703,072	34,08
703,515	34,26
703,957	34,48
704,399	35,28
704,842	35,81
705,284	36,05
705,726	36,11
706,168	36,75
706,61	37,52
707,052	37,48
707,494	38,18
707,935	38,29
708,377	38,97
708,818	39,31
709,26	39,57
709,701	39,83
710,142	40,57
710,583	40,49
711,024	41,05
711,465	41,42
711,905	41,39
712,346	41,49
712,787	41,88
713,227	42,41
713,667	42,71
714,108	42,95
714,548	43,17
714,988	43,97
715,428	43,99
715,868	44,36
716,307	44,37
716,747	44,44
717,186	44,94
717,626	44,87
718,065	45,36
718,504	45,61
718,944	46
719,383	45,96
719,822	46,01
720,261	46,12
720,699	46,41
721,138	46,13
721,576	46,76
722,015	47,09
722,453	47,16
722,892	47,13
723,33	47,47
723,768	48,08
724,206	47,8
724,644	47,81
725,081	48,2
725,519	48,09
725,957	48
726,394	48,63
726,832	48,47
727,269	48,64
727,706	48,47
728,143	48,94
728,58	49,2
729,017	48,9
729,454	49,07
729,89	49,38
730,327	49,49
730,764	49,36
731,2	49,65
731,636	49,56
732,072	50,18
732,509	50,01
732,945	49,71
733,38	49,65
733,816	50,12
734,252	49,97
734,688	49,97
735,123	49,93
735,559	49,81
735,994	49,88
736,429	50,35
736,864	50,31
737,299	50,29
737,734	50,23
738,169	49,92
738,604	50,33
739,038	50,45
739,473	50,17
739,907	50,27
740,342	50,1
740,776	50,52
741,21	50,22
741,644	50,44
742,078	50,31
742,512	50,04
742,946	50,28
743,379	49,81
743,813	50,07
744,246	50,25
744,68	50,16
745,113	49,88
745,546	49,83
745,979	50,14
746,412	50,17
746,845	49,95
747,278	49,78
747,711	49,88
748,143	49,64
748,576	49,94
749,008	50,17
749,441	49,76
749,873	49,48
750,305	49,99
750,737	49,59
751,169	49,65
751,601	49,65
752,032	49,59
752,464	49,59
752,896	49,14
753,327	49,29
753,758	49,23
754,19	49,45
754,621	49,37
755,052	49,19
755,483	49,27
755,914	49,12
756,344	49,27
756,775	49,33
757,206	49
757,636	49,26
758,066	49,07
758,497	48,99
758,927	49,38
759,357	49,48
759,787	48,93
760,217	49,1
760,647	48,98
761,076	48,92
761,506	48,74
761,935	48,83
762,365	48,62
762,794	48,47
763,223	48,8
763,653	48,79
764,082	48,67
764,51	48,71
764,939	48,63
765,368	48,27
765,797	48,47
766,225	48,6
766,654	48,36
767,082	48,35
767,51	48,39
767,938	48,1
768,367	48,03
768,795	48,16
769,222	48,52
769,65	48,3
770,078	47,98
770,505	47,98
770,933	48,34
771,36	48,54
771,788	47,97
772,215	48,08
772,642	48,1
773,069	48,21
773,496	47,85
773,923	47,79
774,349	47,79
774,776	48,13
775,203	47,69
775,629	47,95
776,055	47,66
776,482	47,71
776,908	47,39
777,334	47,71
777,76	47,75
778,186	47,74
778,611	47,81
779,037	47,91
779,463	47,53
779,888	47,65
780,314	47,47
780,739	47,69
781,164	47,84
781,589	47,28
782,014	47,99
782,439	47,64
782,864	47,78
783,289	47,74
783,713	47,12
784,138	47,58
784,562	47,28
784,987	47,37
785,411	47,35
785,835	47,37
786,259	47,36
786,683	47,59
787,107	47,42
787,531	47,31
787,954	47,4
788,378	47,38
788,802	47,22
789,225	47,18
789,648	47,38
790,071	46,93
790,495	47,4
790,918	47,58
791,34	47,09
791,763	47,33
792,186	47,15
792,609	46,97
793,031	47,13
793,454	47,05
793,876	47,34
794,298	47,15
794,721	47
795,143	47,21
795,565	46,83
795,986	46,92
796,408	47,15
796,83	47,08
797,252	47,28
797,673	47,24
798,094	47,67
798,516	47,15
798,937	47,17
799,358	46,73
799,779	47,01
800,2	47,52
800,621	47,06
801,042	47,08
801,462	46,9
801,883	46,92
802,303	46,7
802,724	46,85
803,144	46,68
803,564	47,03
803,984	47,38
804,404	47,35
804,824	47,05
805,244	47,09
805,664	47,66
806,084	47,2
806,503	46,89
806,923	47,03
807,342	47,02
807,761	46,93
808,18	46,9
808,599	46,74
809,018	46,9
809,437	47,04
809,856	46,62
810,275	47,09
810,693	47,01
811,112	47,32
811,53	47,24
811,949	47,1
812,367	47,56
812,785	47,01
813,203	47,19
813,621	46,98
814,039	47
814,457	47,26
814,874	46,74
815,292	46,81
815,709	47,01
816,127	47,12
816,544	46,91
816,961	47,01
817,378	47,33
817,795	46,9
818,212	46,87
818,629	47,35
819,046	46,79
819,462	46,84
819,879	46,81
820,295	46,7
820,712	46,73
821,128	46,53
821,544	46,92
821,96	47,14
822,376	46,79
822,792	46,62
823,208	46,7
823,624	47,06
824,039	46,79
824,455	46,9
824,87	46,46
825,286	46,84
825,701	46,71
826,116	46,84
826,531	46,89
826,946	46,75
827,361	46,7
827,776	46,83
828,19	46,36
828,605	46,4
829,02	46,76
829,434	46,59
829,848	46,72
830,263	46,64
830,677	46,62
831,091	46,78
831,505	46,53
831,919	46,84
832,332	46,75
832,746	46,41
833,16	46,37
