Data from E4___Relative__3__00085.txt Node

Date: Wed Jan 31 18:25:33 CET 2024
User: diatiterra
Spectrometer: HDX00911
Trigger mode: 0
Integration Time (sec): 6,000000E-3
Scans to average: 2
Nonlinearity correction enabled: false
Boxcar width: 0
Storing dark spectrum: false
XAxis mode: Wavelengths
Number of Pixels in Spectrum: 2068
>>>>>Begin Spectral Data<<<<<
194,468	220,75
195,025	150,91
195,581	212,2
196,138	208,97
196,694	132,1
197,251	103,03
197,807	95,67
198,363	88,4
198,919	82,07
199,474	87,87
200,03	89,75
200,586	100
201,141	77,1
201,696	88,26
202,251	87,5
202,806	85,66
203,361	86,67
203,916	87,85
204,471	87,96
205,025	100
205,58	88,93
206,134	95,6
206,688	89,62
207,242	98,23
207,796	87,97
208,35	86,96
208,904	85,17
209,457	79,51
210,011	78,01
210,564	84,51
211,117	91,73
211,67	91,42
212,223	90,41
212,776	97,98
213,329	81,33
213,881	107,84
214,434	82,24
214,986	94,63
215,538	89,71
216,09	76,76
216,642	101,24
217,194	94,7
217,746	89,1
218,297	87,4
218,849	97,06
219,4	99,16
219,951	95,16
220,502	93,58
221,053	100
221,604	87,25
222,155	93,65
222,705	86,76
223,256	94,78
223,806	92,91
224,356	95,77
224,906	95,16
225,456	93,8
226,006	89,29
226,556	71,43
227,106	91,94
227,655	79,86
228,204	94,17
228,754	84,15
229,303	82,5
229,852	79,14
230,401	93,28
230,949	85,97
231,498	79,93
232,047	79,87
232,595	83,1
233,143	97,64
233,691	88,76
234,239	78,21
234,787	88
235,335	86,57
235,883	77,97
236,43	86,74
236,978	88,08
237,525	82,85
238,072	86,17
238,619	88,64
239,166	78,01
239,713	85,4
240,26	82,14
240,806	81,94
241,353	88,1
241,899	76,22
242,445	85,4
242,991	83,97
243,537	80,68
244,083	88,93
244,629	85,38
245,174	96,46
245,72	87,78
246,265	86,11
246,81	89,2
247,355	90,08
247,9	80,97
248,445	91,67
248,99	84,47
249,534	99,57
250,079	91,73
250,623	85,56
251,168	99,59
251,712	87,89
252,256	95,9
252,8	93,08
253,343	79,29
253,887	80,24
254,43	86,26
254,974	90,84
255,517	78,42
256,06	98,46
256,603	75,19
257,146	89,92
257,689	92,13
258,232	99,15
258,774	85,82
259,317	88,98
259,859	102,29
260,401	93,02
260,943	83,33
261,485	86,17
262,027	95,6
262,569	83,96
263,11	81,54
263,652	105,12
264,193	98,35
264,734	91,97
265,275	95,49
265,816	88,93
266,357	93,41
266,898	94,23
267,438	98,43
267,979	89,57
268,519	89,55
269,059	105,14
269,6	96,62
270,14	102,02
270,68	87,68
271,219	105,08
271,759	83,46
272,298	90,98
272,838	92,31
273,377	92,06
273,916	82,73
274,455	90,51
274,994	85,6
275,533	85,87
276,072	84,15
276,61	84,06
277,149	93,33
277,687	84,59
278,225	81,67
278,763	106,14
279,301	85,83
279,839	88,31
280,377	88,93
280,914	82,52
281,452	108,55
281,989	88,43
282,526	89,76
283,064	89,5
283,601	86,15
284,137	91,32
284,674	93,75
285,211	103,07
285,747	81,44
286,284	107,66
286,82	92,56
287,356	84,54
287,892	86,05
288,428	102,48
288,964	101,68
289,5	107,02
290,035	88,8
290,571	96,22
291,106	98,78
291,641	105,36
292,176	94,14
292,711	89,84
293,246	85
293,781	102,48
294,315	84,86
294,85	107,87
295,384	100
295,918	89,34
296,453	85,07
296,987	89,26
297,52	96,69
298,054	90,08
298,588	98,75
299,121	81,34
299,655	93,43
300,188	92,08
300,721	86,18
301,254	83,06
301,787	92,19
302,32	102,44
302,853	87,6
303,385	87,86
303,918	84,88
304,45	93,08
304,982	86,17
305,514	87,21
306,046	81,4
306,578	84,11
307,11	91,86
307,641	92,24
308,173	92,98
308,704	88,02
309,236	83,08
309,767	85,46
310,298	89,92
310,829	96,09
311,359	90,73
311,89	84,87
312,421	94,14
312,951	88,21
313,481	75,86
314,012	81,72
314,542	91,95
315,072	87,02
315,601	96
316,131	94,88
316,661	81,67
317,19	91,85
317,72	98,76
318,249	102,38
318,778	93,75
319,307	91,8
319,836	103,1
320,365	89,13
320,893	100,83
321,422	99,59
321,95	97,37
322,479	93,51
323,007	100
323,535	87,14
324,063	97,2
324,591	92,8
325,118	93,8
325,646	95,8
326,173	90,42
326,701	100,41
327,228	94,4
327,755	89,85
328,282	86,64
328,809	101,27
329,336	86,61
329,862	86,76
330,389	88,28
330,915	94,49
331,441	87,4
331,968	94,59
332,494	93,56
333,02	95
333,545	88,43
334,071	102,48
334,597	77,46
335,122	83,33
335,648	93,1
336,173	81,44
336,698	76,9
337,223	84,93
337,748	81,6
338,272	77,05
338,797	82,97
339,322	77,01
339,846	79,04
340,37	89,92
340,894	80,21
341,419	84,59
341,942	78,67
342,466	83,65
342,99	74,83
343,514	80,28
344,037	76,9
344,56	84,07
345,084	78,08
345,607	74,31
346,13	75,7
346,653	79,33
347,175	69,87
347,698	71,07
348,221	65,36
348,743	69,57
349,265	73,38
349,787	66,26
350,309	69,3
350,831	64,81
351,353	68,6
351,875	70,76
352,397	68,53
352,918	67,11
353,439	78,15
353,961	59,59
354,482	69,01
355,003	70,93
355,524	63,33
356,044	61,93
356,565	71,39
357,086	66,38
357,606	56,59
358,126	62,5
358,646	55,87
359,167	63,24
359,687	61,3
360,206	57,1
360,726	52,37
361,246	63,83
361,765	59,6
362,285	53,75
362,804	61,32
363,323	48,54
363,842	57,69
364,361	55,97
364,88	53,2
365,398	53,06
365,917	56,37
366,435	58,85
366,954	56,25
367,472	52,12
367,99	55,45
368,508	52,83
369,026	56,59
369,544	51,75
370,061	49,16
370,579	46,93
371,096	54,82
371,613	46,55
372,131	46,65
372,648	49,21
373,165	42,97
373,681	46,2
374,198	51,37
374,715	50,38
375,231	49,81
375,747	44,66
376,264	43,54
376,78	45,14
377,296	45,35
377,812	43,02
378,327	42,55
378,843	45,22
379,359	44,21
379,874	44,81
380,389	43,69
380,905	39,1
381,42	37,54
381,935	41,31
382,449	39,38
382,964	40,71
383,479	37,64
383,993	40,03
384,508	39,24
385,022	34,33
385,536	33,55
386,05	35,3
386,564	36,07
387,078	34,57
387,592	31,75
388,105	34,04
388,619	34,82
389,132	32,47
389,645	36,32
390,158	31,65
390,671	29,94
391,184	28,85
391,697	28,06
392,21	26,78
392,722	29,07
393,235	29,92
393,747	30,54
394,259	29,87
394,771	28,34
395,283	27,11
395,795	27,15
396,307	29,35
396,818	27,28
397,33	23,55
397,841	24,16
398,353	25,98
398,864	24,54
399,375	24,12
399,886	23,9
400,397	23,33
400,907	22,32
401,418	22,27
401,928	20,05
402,439	22,12
402,949	19,75
403,459	20,9
403,969	21,36
404,479	17,75
404,989	18,93
405,498	17,7
406,008	17,51
406,517	16,54
407,027	14,87
407,536	14,47
408,045	15,43
408,554	14,53
409,063	14,69
409,572	13,78
410,08	13,2
410,589	12,46
411,097	12,49
411,606	12,09
412,114	12,27
412,622	12,1
413,13	11,71
413,638	11,06
414,145	9,73
414,653	10,73
415,16	10,14
415,668	10
416,175	8,84
416,682	9,54
417,189	8,7
417,696	9,15
418,203	8,62
418,71	8,93
419,216	8,04
419,723	8,05
420,229	8,03
420,735	7,89
421,242	7,83
421,748	8,04
422,254	7,37
422,759	7,4
423,265	8,13
423,771	7,96
424,276	7,44
424,781	7,25
425,287	7,09
425,792	7,16
426,297	7,3
426,802	6,88
427,306	6,68
427,811	6,8
428,316	6,83
428,82	6,38
429,324	6,84
429,829	6,89
430,333	6,39
430,837	6,26
431,34	6,31
431,844	6,3
432,348	6,23
432,851	6,27
433,355	6,09
433,858	6,36
434,361	6,2
434,864	5,94
435,367	6,15
435,87	6,38
436,373	5,93
436,876	6,2
437,378	6,06
437,88	6,12
438,383	5,86
438,885	5,91
439,387	5,95
439,889	5,9
440,391	5,72
440,892	5,94
441,394	5,84
441,896	5,52
442,397	5,77
442,898	5,48
443,399	6,02
443,9	5,5
444,401	5,65
444,902	5,5
445,403	5,47
445,903	5,77
446,404	5,9
446,904	5,67
447,405	5,46
447,905	5,6
448,405	5,94
448,905	5,87
449,404	5,72
449,904	5,83
450,404	5,57
450,903	5,95
451,403	5,38
451,902	5,84
452,401	5,73
452,9	5,77
453,399	5,67
453,898	5,47
454,396	5,86
454,895	5,24
455,393	5,8
455,892	5,45
456,39	5,7
456,888	5,83
457,386	5,42
457,884	5,78
458,382	5,79
458,879	5,58
459,377	6,08
459,874	5,6
460,372	5,66
460,869	5,57
461,366	5,6
461,863	5,25
462,36	5,51
462,857	5,58
463,353	5,72
463,85	5,42
464,346	5,56
464,843	5,54
465,339	5,42
465,835	5,61
466,331	5,48
466,827	5,21
467,323	5,38
467,818	5,75
468,314	5,58
468,809	5,49
469,305	5,21
469,8	5,26
470,295	5,39
470,79	5,43
471,285	5,53
471,78	5,22
472,274	5,27
472,769	5,19
473,263	5,26
473,758	5,43
474,252	5,3
474,746	5,25
475,24	5,61
475,734	5,3
476,228	5,45
476,721	5,36
477,215	5,2
477,708	5,34
478,202	5,27
478,695	5,32
479,188	5,38
479,681	5,33
480,174	5,32
480,667	5,58
481,159	5,19
481,652	5,26
482,144	5,42
482,637	5,44
483,129	5,05
483,621	5,5
484,113	5,54
484,605	5,19
485,097	5,65
485,588	5,27
486,08	5,4
486,571	5,43
487,063	5,51
487,554	5,42
488,045	5,62
488,536	5,52
489,027	5,52
489,518	5,88
490,008	5,33
490,499	5,4
490,989	5,45
491,48	5,43
491,97	5,63
492,46	5,64
492,95	5,88
493,44	5,64
493,93	5,49
494,419	5,58
494,909	5,79
495,398	5,78
495,888	5,84
496,377	5,84
496,866	5,95
497,355	5,94
497,844	6
498,333	6,13
498,821	6,14
499,31	6,15
499,798	6,45
500,287	6,33
500,775	6,49
501,263	6,67
501,751	6,56
502,239	6,89
502,727	6,89
503,215	7,02
503,702	7,14
504,19	6,73
504,677	7,37
505,164	7,41
505,651	7,5
506,139	7,53
506,625	7,68
507,112	7,75
507,599	8,09
508,086	8,09
508,572	8,69
509,058	8,72
509,545	8,63
510,031	8,88
510,517	8,9
511,003	9,21
511,489	9,38
511,974	9,61
512,46	9,65
512,946	10,08
513,431	10,13
513,916	10,59
514,401	10,36
514,887	10,49
515,371	11,34
515,856	11,43
516,341	11,58
516,826	11,65
517,31	11,97
517,795	12,33
518,279	12,29
518,763	12,76
519,247	13,22
519,731	13,6
520,215	13,68
520,699	13,57
521,182	14,12
521,666	14,45
522,149	14,53
522,633	14,85
523,116	15,4
523,599	15,47
524,082	15,52
524,565	15,75
525,048	15,92
525,53	16,02
526,013	16,39
526,495	16,61
526,978	16,95
527,46	17,06
527,942	17,12
528,424	17,56
528,906	17,6
529,388	17,55
529,87	18,28
530,351	17,42
530,833	18,54
531,314	18,47
531,795	18,82
532,277	18,66
532,758	18,64
533,238	18,82
533,719	19,11
534,2	18,9
534,681	19,22
535,161	19,35
535,642	19,53
536,122	19,29
536,602	19,36
537,082	19,42
537,562	19,77
538,042	19,58
538,522	19,76
539,001	19,55
539,481	19,87
539,96	19,65
540,44	19,93
540,919	19,53
541,398	19,82
541,877	20,17
542,356	19,75
542,835	19,67
543,313	20,34
543,792	20,21
544,27	20,03
544,749	20,59
545,227	20,31
545,705	20,18
546,183	20,52
546,661	20,39
547,139	20,64
547,616	20,1
548,094	20,43
548,571	20,3
549,049	20,81
549,526	20,39
550,003	20,76
550,48	20,05
550,957	20,58
551,434	20,55
551,911	20,64
552,387	20,74
552,864	20,78
553,34	20,7
553,817	20,32
554,293	20,44
554,769	20,56
555,245	20,43
555,721	20,55
556,197	20,79
556,672	20,75
557,148	20,65
557,623	20,6
558,099	20,74
558,574	20,67
559,049	20,3
559,524	20,35
559,999	20,04
560,474	20,39
560,948	19,93
561,423	20,06
561,897	20,05
562,372	19,98
562,846	20,04
563,32	19,73
563,794	19,74
564,268	19,57
564,742	19,7
565,216	19,47
565,69	19,05
566,163	19,36
566,636	18,96
567,11	18,71
567,583	18,81
568,056	18,41
568,529	18,53
569,002	18,29
569,475	18,22
569,947	18
570,42	18
570,892	17,95
571,365	17,64
571,837	17,78
572,309	17,35
572,781	17,12
573,253	16,97
573,725	17,04
574,197	16,74
574,668	16,79
575,14	16,68
575,611	16,67
576,082	16,13
576,554	16,05
577,025	16,22
577,496	15,7
577,967	15,74
578,437	15,82
578,908	15,52
579,379	15,41
579,849	15,46
580,319	15,38
580,79	15,16
581,26	14,98
581,73	14,69
582,2	14,92
582,669	14,74
583,139	14,74
583,609	14,61
584,078	14,64
584,548	14,39
585,017	14,57
585,486	14,17
585,955	14,21
586,424	14,05
586,893	14,13
587,362	13,71
587,83	13,96
588,299	13,75
588,767	14,08
589,236	13,87
589,704	13,42
590,172	13,7
590,64	13,4
591,108	13,48
591,576	13,51
592,043	13,38
592,511	13,2
592,978	13,3
593,446	13,2
593,913	13,13
594,38	13,18
594,847	13,09
595,314	12,94
595,781	12,9
596,248	13
596,715	12,8
597,181	12,73
597,647	12,93
598,114	13,03
598,58	12,69
599,046	12,72
599,512	12,61
599,978	12,63
600,444	12,65
600,91	12,69
601,375	12,67
601,841	12,7
602,306	12,58
602,771	12,35
603,236	12,48
603,702	12,45
604,167	12,63
604,631	12,19
605,096	12,11
605,561	12,17
606,025	12,06
606,49	12,16
606,954	11,99
607,418	11,9
607,882	11,92
608,347	11,82
608,81	11,83
609,274	11,58
609,738	11,66
610,202	11,8
610,665	11,38
611,128	11,32
611,592	11,18
612,055	11,27
612,518	11,01
612,981	11,27
613,444	11,1
613,907	10,85
614,369	10,67
614,832	11,01
615,294	10,58
615,757	10,62
616,219	10,72
616,681	10,45
617,143	10,4
617,605	10,47
618,067	10,21
618,529	10,19
618,99	10,38
619,452	10,09
619,913	10,12
620,375	10,02
620,836	10,07
621,297	10,02
621,758	10,02
622,219	10,02
622,68	9,92
623,14	9,79
623,601	9,83
624,061	9,86
624,522	9,88
624,982	9,81
625,442	9,71
625,902	9,7
626,362	9,68
626,822	9,79
627,282	9,59
627,742	9,78
628,201	9,73
628,661	9,57
629,12	9,8
629,579	9,53
630,038	9,54
630,497	9,7
630,956	9,54
631,415	9,4
631,874	9,47
632,332	9,36
632,791	9,37
633,249	9,52
633,708	9,52
634,166	9,28
634,624	9,28
635,082	9,3
635,54	9,22
635,998	8,95
636,455	9,09
636,913	8,94
637,37	8,86
637,828	8,86
638,285	8,73
638,742	8,6
639,199	8,61
639,656	8,35
640,113	8,35
640,57	8,29
641,027	8,16
641,483	8,2
641,94	8,02
642,396	7,97
642,852	7,85
643,309	7,61
643,765	7,49
644,221	7,51
644,676	7,28
645,132	7,34
645,588	7,23
646,043	6,94
646,499	7,03
646,954	6,85
647,409	6,99
647,864	6,81
648,319	6,79
648,774	6,7
649,229	6,48
649,684	6,31
650,139	6,55
650,593	6,44
651,047	6,39
651,502	6,37
651,956	6,35
652,41	6,21
652,864	6,24
653,318	6,28
653,772	6,2
654,225	6,28
654,679	6,12
655,133	6,21
655,586	6,04
656,039	6,05
656,492	5,88
656,946	5,94
657,399	5,97
657,851	5,9
658,304	5,9
658,757	5,77
659,209	5,73
659,662	5,67
660,114	5,68
660,567	5,61
661,019	5,5
661,471	5,45
661,923	5,46
662,375	5,35
662,826	5,36
663,278	5,32
663,73	5,36
664,181	5,23
664,632	5,2
665,084	5,21
665,535	5,16
665,986	5,19
666,437	5,16
666,888	5,21
667,338	5,22
667,789	5,24
668,24	5,18
668,69	5,19
669,14	5,22
669,591	5,15
670,041	5,34
670,491	5,35
670,941	5,24
671,391	5,37
671,84	5,41
672,29	5,3
672,74	5,41
673,189	5,55
673,638	5,55
674,088	5,65
674,537	5,73
674,986	5,72
675,435	5,9
675,883	5,85
676,332	6,06
676,781	6,1
677,229	6,17
677,678	6,2
678,126	6,24
678,574	6,46
679,022	6,56
679,47	6,72
679,918	6,71
680,366	6,72
680,814	6,92
681,261	7,01
681,709	7,2
682,156	7,23
682,604	7,3
683,051	7,46
683,498	7,53
683,945	7,72
684,392	7,72
684,839	7,85
685,286	7,92
685,732	8,07
686,179	8,19
686,625	8,27
687,071	8,26
687,518	8,52
687,964	8,71
688,41	8,77
688,856	8,97
689,301	9,2
689,747	9,51
690,193	9,64
690,638	9,8
691,084	10,08
691,529	10,39
691,974	10,84
692,419	11,21
692,864	11,57
693,309	11,92
693,754	12,24
694,199	12,67
694,643	13,02
695,088	13,31
695,532	13,84
695,977	14,51
696,421	15,02
696,865	15,17
697,309	15,66
697,753	16,19
698,197	16,58
698,64	17,14
699,084	17,5
699,527	17,96
699,971	18,22
700,414	18,75
700,857	19,2
701,3	19,43
701,743	20,05
702,186	20,52
702,629	20,98
703,072	21,27
703,515	21,6
703,957	21,8
704,399	22,45
704,842	22,85
705,284	23,08
705,726	23,4
706,168	23,59
706,61	24,35
707,052	24,31
707,494	24,9
707,935	24,88
708,377	25,52
708,818	26
709,26	25,99
709,701	26,25
710,142	26,81
710,583	26,64
711,024	27,05
711,465	27,67
711,905	27,76
712,346	27,98
712,787	28,07
713,227	28,51
713,667	28,57
714,108	28,91
714,548	29,09
714,988	29,48
715,428	29,85
715,868	30,13
716,307	30,16
716,747	30,37
717,186	30,62
717,626	30,82
718,065	31,19
718,504	31,36
718,944	31,39
719,383	31,56
719,822	31,73
720,261	32
720,699	32,16
721,138	31,96
721,576	32,55
722,015	32,72
722,453	32,52
722,892	33,12
723,33	33,34
723,768	33,52
724,206	33,31
724,644	33,41
725,081	33,55
725,519	33,73
725,957	33,86
726,394	34,35
726,832	34,05
727,269	34,12
727,706	34,29
728,143	34,22
728,58	34,39
729,017	34,4
729,454	34,38
729,89	35,04
730,327	34,67
730,764	35,12
731,2	35,34
731,636	35,13
732,072	35,23
732,509	35,26
732,945	35,38
733,38	35,25
733,816	35,41
734,252	35,6
734,688	35,56
735,123	35,57
735,559	35,71
735,994	35,76
736,429	35,65
736,864	35,82
737,299	35,76
737,734	35,76
738,169	35,76
738,604	35,78
739,038	35,77
739,473	36,19
739,907	36,02
740,342	35,65
740,776	36,18
741,21	36,11
741,644	35,97
742,078	35,93
742,512	35,77
742,946	36,23
743,379	35,93
743,813	35,87
744,246	35,85
744,68	35,75
745,113	35,63
745,546	35,66
745,979	36,06
746,412	35,71
746,845	35,68
747,278	35,92
747,711	35,68
748,143	35,71
748,576	35,94
749,008	35,83
749,441	35,59
749,873	35,59
750,305	35,74
750,737	35,78
751,169	35,42
751,601	35,58
752,032	35,56
752,464	35,61
752,896	35,34
753,327	35,39
753,758	35,64
754,19	35,5
754,621	35,16
755,052	35,18
755,483	35,44
755,914	35,41
756,344	35,23
756,775	35,23
757,206	35,47
757,636	35,01
758,066	35,22
758,497	35,25
758,927	35,39
759,357	35,06
759,787	35,08
760,217	35,1
760,647	34,98
761,076	34,93
761,506	35,02
761,935	34,9
762,365	35,09
762,794	34,78
763,223	34,81
763,653	34,96
764,082	34,43
764,51	34,75
764,939	34,84
765,368	34,63
765,797	34,75
766,225	34,83
766,654	34,43
767,082	34,6
767,51	34,83
767,938	34,38
768,367	34,49
768,795	34,31
769,222	34,73
769,65	34,72
770,078	34,48
770,505	34,44
770,933	34,53
771,36	34,41
771,788	34,38
772,215	34,27
772,642	34,51
773,069	34,12
773,496	34,22
773,923	34,17
774,349	34,16
774,776	34,16
775,203	34,18
775,629	34,47
776,055	33,91
776,482	33,98
776,908	34
777,334	34,24
777,76	34,24
778,186	34,17
778,611	34,22
779,037	34,17
779,463	33,93
779,888	33,97
780,314	33,87
780,739	34,07
781,164	34,3
781,589	33,9
782,014	34,06
782,439	33,9
782,864	34,08
783,289	33,95
783,713	33,75
784,138	33,98
784,562	33,58
784,987	33,94
785,411	33,84
785,835	33,78
786,259	33,84
786,683	34,07
787,107	33,81
787,531	33,95
787,954	34,03
788,378	33,73
788,802	33,98
789,225	33,74
789,648	33,97
790,071	33,41
790,495	33,86
790,918	34,06
791,34	33,78
791,763	33,64
792,186	33,75
792,609	33,8
793,031	33,57
793,454	33,68
793,876	33,98
794,298	33,7
794,721	33,5
795,143	33,77
795,565	33,57
795,986	33,57
796,408	33,47
796,83	33,55
797,252	33,84
797,673	33,85
798,094	34
798,516	33,77
798,937	33,86
799,358	33,53
799,779	33,43
800,2	33,91
800,621	33,67
801,042	33,5
801,462	33,63
801,883	33,5
802,303	33,48
802,724	33,41
803,144	33,88
803,564	33,64
803,984	33,87
804,404	33,49
804,824	33,86
805,244	33,69
805,664	33,85
806,084	33,93
806,503	33,77
806,923	33,43
807,342	33,77
807,761	33,31
808,18	33,46
808,599	33,37
809,018	33,65
809,437	33,56
809,856	33,45
810,275	33,66
810,693	33,4
811,112	33,83
811,53	33,97
811,949	33,75
812,367	34,01
812,785	33,64
813,203	33,56
813,621	33,53
814,039	33,52
814,457	33,52
814,874	33,21
815,292	33,32
815,709	33,42
816,127	33,6
816,544	33,62
816,961	33,64
817,378	33,41
817,795	33,67
818,212	33,52
818,629	33,9
819,046	33,26
819,462	33,34
819,879	33,23
820,295	33,38
820,712	33,45
821,128	33,27
821,544	33,38
821,96	33,71
822,376	33,46
822,792	33,76
823,208	33,43
823,624	33,57
824,039	33,36
824,455	33,56
824,87	33,18
825,286	33,52
825,701	33,33
826,116	33,34
826,531	33,48
826,946	33,31
827,361	33,05
827,776	33,33
828,19	33,35
828,605	33,32
829,02	33,2
829,434	33,39
829,848	33,32
830,263	33,54
830,677	33,17
831,091	33,37
831,505	33,45
831,919	33,54
832,332	33,51
832,746	33,2
833,16	33,27
833,573	33,22
833,987	33,58
834,4	33,09
834,813	32,93
835,226	33,07
835,639	33,43
836,052	32,98
836,465	33,18
836,878	33,08
837,29	33,32
837,703	33,03
838,116	33,29
838,528	33,57
838,94	33,33
839,352	33,37
839,765	33,41
840,177	33,37
840,589	33,31
841	33
841,412	33,41
841,824	33,1
842,235	32,88
842,647	33,27
843,058	33,46
843,47	33,38
843,881	33,29
