Data from E6___Relative__0__00091.txt Node

Date: Wed Jan 31 18:26:10 CET 2024
User: diatiterra
Spectrometer: HDX00911
Trigger mode: 0
Integration Time (sec): 6,000000E-3
Scans to average: 2
Nonlinearity correction enabled: false
Boxcar width: 0
Storing dark spectrum: false
XAxis mode: Wavelengths
Number of Pixels in Spectrum: 2068
>>>>>Begin Spectral Data<<<<<
194,468	250
195,025	188,18
195,581	257,32
196,138	243,59
196,694	161,11
197,251	148,99
197,807	126,77
198,363	130,4
198,919	107,24
199,474	120,96
200,03	129,51
200,586	136,61
201,141	108,39
201,696	115,44
202,251	121,97
202,806	116,08
203,361	127,04
203,916	117,01
204,471	119,71
205,025	145,16
205,58	121,43
206,134	130
206,688	135
207,242	139,38
207,796	125,56
208,35	121,38
208,904	123,79
209,457	107,64
210,011	110,99
210,564	121,83
211,117	122,18
211,67	135,07
212,223	117,81
212,776	126,61
213,329	116,33
213,881	161,76
214,434	112,17
214,986	136,36
215,538	131,99
216,09	121,83
216,642	145,04
217,194	126,14
217,746	130,83
218,297	124,43
218,849	127,57
219,4	139,08
219,951	128,23
220,502	115,2
221,053	135,5
221,604	117,45
222,155	132,94
222,705	120,59
223,256	126,87
223,806	124,02
224,356	125
224,906	138,71
225,456	129,84
226,006	129,37
226,556	105,19
227,106	127,02
227,655	113,54
228,204	128,33
228,754	111,27
229,303	114,29
229,852	106,83
230,401	117,91
230,949	118,71
231,498	116,9
232,047	110,39
232,595	118,62
233,143	130,71
233,691	121,32
234,239	112,86
234,787	129,2
235,335	125,37
235,883	116,78
236,43	118,56
236,978	127,31
237,525	118,98
238,072	115,6
238,619	129,17
239,166	108,87
239,713	110,22
240,26	114,29
240,806	118,4
241,353	126,59
241,899	117,13
242,445	118,61
242,991	129,01
243,537	120,45
244,083	129,01
244,629	126,92
245,174	136,28
245,72	123,33
246,265	129,76
246,81	124
247,355	132,94
247,9	114,93
248,445	133,33
248,99	127,65
249,534	138,26
250,079	122,18
250,623	112,96
251,168	130,99
251,712	119,92
252,256	131,15
252,8	140,38
253,343	122,5
253,887	127,02
254,43	122,14
254,974	130,92
255,517	108,22
256,06	135,38
256,603	119,63
257,146	129,46
257,689	135,83
258,232	144,49
258,774	123,76
259,317	133,9
259,859	137,16
260,401	132,95
260,943	119,86
261,485	125,53
262,027	130,8
262,569	134,33
263,11	116,15
263,652	136,61
264,193	136,36
264,734	126,28
265,275	129,51
265,816	121,76
266,357	131,4
266,898	127,69
267,438	127,56
267,979	116,55
268,519	113,43
269,059	160,28
269,6	130,83
270,14	146,37
270,68	126,81
271,219	140,25
271,759	120,68
272,298	125,56
272,838	126,92
273,377	128,97
273,916	109,71
274,455	127,37
274,994	119,2
275,533	127,54
276,072	125,61
276,61	116,67
277,149	130,42
277,687	123,68
278,225	114,67
278,763	143,42
279,301	137,5
279,839	129,84
280,377	124,59
280,914	110,49
281,452	133,76
281,989	129,75
282,526	131,1
283,064	140,34
283,601	113,85
284,137	127,27
284,674	131,67
285,211	143,86
285,747	124,24
286,284	142,79
286,82	131,82
287,356	107,24
287,892	122,87
288,428	124,79
288,964	139,92
289,5	134,3
290,035	124,4
290,571	131,51
291,106	132,93
291,641	142,41
292,176	131,25
292,711	134,96
293,246	120,77
293,781	128,51
294,315	111,62
294,85	144,44
295,384	126,23
295,918	119,12
296,453	112,69
296,987	120,25
297,52	128,51
298,054	117,94
298,588	129,58
299,121	118,66
299,655	113,5
300,188	127,5
300,721	128,46
301,254	119,35
301,787	128,91
302,32	133,33
302,853	116,8
303,385	110
303,918	125,19
304,45	117,31
304,982	114,54
305,514	119,77
306,046	116,53
306,578	123,64
307,11	124,81
307,641	127,59
308,173	116,94
308,704	111,57
309,236	113,91
309,767	111,35
310,298	115,73
310,829	133,48
311,359	124,19
311,89	128,15
312,421	133,33
312,951	133,33
313,481	110
314,012	110,82
314,542	122,88
315,072	120,99
315,601	128,8
316,131	132,68
316,661	115,42
317,19	114,07
317,72	125,21
318,249	134,13
318,778	123,44
319,307	117,19
319,836	124,34
320,365	130,87
320,893	116,53
321,422	134,96
321,95	121,43
322,479	114,89
323,007	130
323,535	111,79
324,063	129,2
324,591	122,4
325,118	116,79
325,646	134,87
326,173	123,75
326,701	130,08
327,228	140,52
327,755	116,92
328,282	113,74
328,809	131,78
329,336	122,83
329,862	116,18
330,389	108,59
330,915	120,87
331,441	115,65
331,968	134,68
332,494	106,44
333,02	122,92
333,545	116,79
334,071	135,12
334,597	107,39
335,122	117,78
335,648	134,48
336,173	110,98
336,698	96,2
337,223	109,56
337,748	110,42
338,272	113,01
338,797	107,97
339,322	98,91
339,846	100,37
340,37	121,77
340,894	106,25
341,419	110,53
341,942	112,24
342,466	100,32
342,99	101,34
343,514	104,23
344,037	95,89
344,56	117,04
345,084	103,08
345,607	104,51
346,13	104,58
346,653	103,33
347,175	108,97
347,698	92,45
348,221	103,93
348,743	99,07
349,265	104,68
349,787	95,09
350,309	98,1
350,831	91,36
351,353	97,56
351,875	94,74
352,397	101,05
352,918	95,39
353,439	102,98
353,961	87,21
354,482	91,23
355,003	91,28
355,524	89,17
356,044	88,07
356,565	99,1
357,086	95,76
357,606	83,79
358,126	84,57
358,646	81,89
359,167	91,08
359,687	91,24
360,206	87,16
360,726	77,96
361,246	89,36
361,765	87,01
362,285	76,5
362,804	83,68
363,323	81,71
363,842	84,07
364,361	81,34
364,88	76,85
365,398	75,98
365,917	74,53
366,435	85,16
366,954	78,79
367,472	71,23
367,99	78,44
368,508	74,7
369,026	83,41
369,544	73,68
370,061	69,75
370,579	68,03
371,096	76,83
371,613	65,52
372,131	67,72
372,648	67,52
373,165	67,38
373,681	67,72
374,198	73,24
374,715	69,55
375,231	63,64
375,747	61,38
376,264	61,9
376,78	65,65
377,296	66,73
377,812	60,13
378,327	66,72
378,843	63,65
379,359	62,42
379,874	63,84
380,389	60,73
380,905	55,97
381,42	55,02
381,935	58,23
382,449	53,69
382,964	56,43
383,479	54,6
383,993	54,43
384,508	54,2
385,022	51,94
385,536	51,18
386,05	53,41
386,564	53,23
387,078	48,92
387,592	47,93
388,105	52,48
388,619	45,42
389,132	44,04
389,645	51,15
390,158	44,42
390,671	44,81
391,184	43,12
391,697	43,19
392,21	39,25
392,722	40,97
393,235	41,65
393,747	42,9
394,259	41,76
394,771	41,41
395,283	40,57
395,795	40,67
396,307	40,56
396,818	40,35
397,33	34,86
397,841	39,2
398,353	37,9
398,864	38,31
399,375	35,06
399,886	34,55
400,397	30,89
400,907	33,59
401,418	31,23
401,928	32,16
402,439	30,96
402,949	28,44
403,459	31,52
403,969	30,45
404,479	28,89
404,989	28,43
405,498	26,71
406,008	26,24
406,517	24,37
407,027	22,69
407,536	23,1
408,045	22,97
408,554	22,26
409,063	21,64
409,572	22,05
410,08	21,27
410,589	19,81
411,097	19,22
411,606	18,83
412,114	18,51
412,622	17,81
413,13	17,29
413,638	17,27
414,145	15,84
414,653	16,59
415,16	15,34
415,668	15,04
416,175	14,22
416,682	14,53
417,189	13,7
417,696	14,23
418,203	13,88
418,71	13,71
419,216	12,99
419,723	12,94
420,229	12,76
420,735	12,48
421,242	12,69
421,748	12,27
422,254	12,03
422,759	11,83
423,265	11,76
423,771	11,51
424,276	11,78
424,781	10,62
425,287	11,81
425,792	11,66
426,297	10,85
426,802	10,57
427,306	10,63
427,811	10,89
428,316	10,75
428,82	11,5
429,324	10,54
429,829	10,32
430,333	10,87
430,837	10,53
431,34	10,54
431,844	10,24
432,348	10,24
432,851	9,89
433,355	10,61
433,858	10,28
434,361	9,77
434,864	9,54
435,367	9,62
435,87	10,21
436,373	9,82
436,876	10,09
437,378	10,02
437,88	10
438,383	9,63
438,885	9,78
439,387	9,59
439,889	9,95
440,391	10,02
440,892	9,6
441,394	9,35
441,896	9,62
442,397	9,78
442,898	9,6
443,399	9,65
443,9	9,86
444,401	8,89
444,902	9,14
445,403	9,45
445,903	9,13
446,404	9,46
446,904	9,86
447,405	9,26
447,905	9,32
448,405	9,66
448,905	9,62
449,404	9,74
449,904	9,36
450,404	9,02
450,903	9,7
451,403	9,23
451,902	9,33
452,401	9,35
452,9	9,2
453,399	9,53
453,898	8,96
454,396	9,2
454,895	9,48
455,393	9,24
455,892	9,15
456,39	9,14
456,888	9,13
457,386	9,26
457,884	9,12
458,382	9,56
458,879	9,36
459,377	9,73
459,874	8,99
460,372	9,36
460,869	9,12
461,366	9,16
461,863	9,42
462,36	9,23
462,857	9,38
463,353	9,13
463,85	9,04
464,346	9,19
464,843	9,06
465,339	9,3
465,835	9,34
466,331	9,36
466,827	8,9
467,323	9,33
467,818	9,44
468,314	8,91
468,809	9,24
469,305	9,35
469,8	9,17
470,295	9,06
470,79	8,93
471,285	9,03
471,78	9,15
472,274	9,04
472,769	9,26
473,263	8,93
473,758	8,98
474,252	8,9
474,746	9,11
475,24	9,11
475,734	8,88
476,228	9,01
476,721	9,02
477,215	8,78
477,708	8,94
478,202	9,15
478,695	9,06
479,188	8,8
479,681	8,83
480,174	9,15
480,667	9
481,159	8,95
481,652	9,36
482,144	9,1
482,637	9,22
483,129	8,94
483,621	9,22
484,113	9,18
484,605	9,32
485,097	9,09
485,588	9,27
486,08	9,08
486,571	9,42
487,063	9,3
487,554	9,34
488,045	9,18
488,536	9,32
489,027	9,14
489,518	9,55
490,008	9,17
490,499	9,13
490,989	9,13
491,48	9,04
491,97	9,32
492,46	9,1
492,95	9,34
493,44	9,7
493,93	9,41
494,419	9,58
494,909	9,39
495,398	9,37
495,888	9,5
496,377	9,73
496,866	9,51
497,355	9,66
497,844	9,78
498,333	9,79
498,821	9,67
499,31	9,78
499,798	9,97
500,287	10,02
500,775	10,02
501,263	10,08
501,751	10,32
502,239	10,35
502,727	10,4
503,215	10,04
503,702	10,87
504,19	10,56
504,677	11,24
505,164	11,28
505,651	11,13
506,139	11,17
506,625	11,37
507,112	11,35
507,599	11,61
508,086	11,84
508,572	12,29
509,058	12,43
509,545	12,29
510,031	12,4
510,517	12,76
511,003	12,86
511,489	12,87
511,974	13,55
512,46	13,77
512,946	13,85
513,431	14,03
513,916	14,63
514,401	14,79
514,887	15
515,371	15,38
515,856	16,3
516,341	15,93
516,826	16,28
517,31	16,57
517,795	17,04
518,279	17,44
518,763	17,98
519,247	18,04
519,731	18,57
520,215	18,99
520,699	19,36
521,182	19,45
521,666	19,85
522,149	20,3
522,633	20,99
523,116	21,37
523,599	21,68
524,082	21,78
524,565	22,19
525,048	22,84
525,53	22,8
526,013	23,55
526,495	23,82
526,978	24,19
527,46	24,79
527,942	24,61
528,424	25,35
528,906	25,2
529,388	25,87
529,87	25,96
530,351	25,99
530,833	26,9
531,314	26,91
531,795	26,71
532,277	27,56
532,758	27,62
533,238	27,62
533,719	27,75
534,2	27,76
534,681	28,1
535,161	28,21
535,642	29,15
536,122	28,82
536,602	28,78
537,082	28,72
537,562	29,12
538,042	29,08
538,522	29,44
539,001	29,17
539,481	29,67
539,96	29,34
540,44	29,89
540,919	30,06
541,398	29,84
541,877	29,95
542,356	29,59
542,835	29,71
543,313	30,42
543,792	30,32
544,27	30,14
544,749	30,32
545,227	30,54
545,705	30,6
546,183	30,8
546,661	30,54
547,139	30,63
547,616	30,46
548,094	30,67
548,571	30,84
549,049	30,97
549,526	30,66
550,003	31,34
550,48	31,29
550,957	31,28
551,434	31,2
551,911	31,06
552,387	31,18
552,864	31,36
553,34	31,41
553,817	31,09
554,293	31,14
554,769	31,04
555,245	31,18
555,721	31,28
556,197	31,66
556,672	31,03
557,148	30,88
557,623	31,51
558,099	30,75
558,574	30,82
559,049	30,5
559,524	31,37
559,999	30,5
560,474	30,36
560,948	30,16
561,423	30,37
561,897	29,46
562,372	29,92
562,846	30,02
563,32	29,82
563,794	29,67
564,268	29,62
564,742	29,38
565,216	29,03
565,69	28,68
566,163	28,72
566,636	27,95
567,11	28,06
567,583	27,52
568,056	27,65
568,529	27,47
569,002	27,36
569,475	26,79
569,947	26,67
570,42	26,73
570,892	26,12
571,365	25,91
571,837	26,01
572,309	25,85
572,781	25,21
573,253	25,36
573,725	24,9
574,197	24,53
574,668	24,49
575,14	24,02
575,611	24,23
576,082	23,32
576,554	23,41
577,025	23,36
577,496	23,1
577,967	23,09
578,437	22,79
578,908	22,62
579,379	22,51
579,849	22,49
580,319	22,02
580,79	22,02
581,26	21,72
581,73	21,48
582,2	21,01
582,669	21,12
583,139	21,08
583,609	20,99
584,078	20,96
584,548	20,5
585,017	20,91
585,486	20,23
585,955	20,56
586,424	20,41
586,893	20,26
587,362	19,92
587,83	19,93
588,299	19,88
588,767	20,03
589,236	19,68
589,704	19,43
590,172	19,54
590,64	19,33
591,108	19,37
591,576	19,22
592,043	18,98
592,511	19,06
592,978	19,21
593,446	19
593,913	18,83
594,38	18,85
594,847	18,76
595,314	18,83
595,781	18,47
596,248	18,48
596,715	18,67
597,181	18,62
597,647	18,34
598,114	18,41
598,58	18,4
599,046	18,37
599,512	18,4
599,978	18,26
600,444	18,35
600,91	18,16
601,375	18,13
601,841	18,48
602,306	18,15
602,771	18,07
603,236	17,87
603,702	17,99
604,167	17,86
604,631	17,88
605,096	17,61
605,561	17,82
606,025	17,57
606,49	17,61
606,954	17,34
607,418	17,24
607,882	16,96
608,347	16,91
608,81	16,9
609,274	16,78
609,738	16,61
610,202	16,75
610,665	16,57
611,128	16,49
611,592	16,25
612,055	16,08
612,518	16,21
612,981	15,96
613,444	15,85
613,907	15,89
614,369	15,5
614,832	15,54
615,294	15,59
615,757	15,29
616,219	15,36
616,681	15,24
617,143	15,22
617,605	15,06
618,067	14,73
618,529	14,97
618,99	14,7
619,452	14,52
619,913	14,55
620,375	14,56
620,836	14,66
621,297	14,73
621,758	14,22
622,219	14,42
622,68	14,32
623,14	14,13
623,601	13,97
624,061	14,17
624,522	14,06
624,982	14,15
625,442	14,04
625,902	13,99
626,362	13,9
626,822	13,85
627,282	14,01
627,742	14,01
628,201	13,92
628,661	14
629,12	13,89
629,579	13,76
630,038	13,74
630,497	14,11
630,956	13,7
631,415	13,65
631,874	13,66
632,332	13,71
632,791	13,57
633,249	13,56
633,708	13,85
634,166	13,51
634,624	13,42
635,082	13,51
635,54	13,31
635,998	13,05
636,455	13,12
636,913	13,25
637,37	13,1
637,828	12,59
638,285	12,66
638,742	12,66
639,199	12,67
639,656	12,37
640,113	12,28
640,57	12,25
641,027	11,91
641,483	12,17
641,94	11,91
642,396	11,75
642,852	11,76
643,309	11,59
643,765	11,38
644,221	11,35
644,676	11,33
645,132	11,18
645,588	10,89
646,043	10,94
646,499	10,72
646,954	10,67
647,409	10,66
647,864	10,62
648,319	10,44
648,774	10,41
649,229	10,31
649,684	10,23
650,139	10,21
650,593	10,1
651,047	10,17
651,502	10,1
651,956	9,99
652,41	9,93
652,864	9,86
653,318	9,99
653,772	9,85
654,225	9,77
654,679	9,84
655,133	9,57
655,586	9,61
656,039	9,54
656,492	9,55
656,946	9,5
657,399	9,33
657,851	9,56
658,304	9,36
658,757	9,43
659,209	9,25
659,662	9,12
660,114	9,26
660,567	9,04
661,019	9,05
661,471	9,07
661,923	8,98
662,375	8,83
662,826	8,81
663,278	8,91
663,73	8,78
664,181	8,93
664,632	8,79
665,084	8,78
665,535	8,73
665,986	8,68
666,437	8,74
666,888	8,5
667,338	8,84
667,789	8,78
668,24	8,73
668,69	8,68
669,14	8,79
669,591	8,85
670,041	8,99
670,491	8,88
670,941	8,93
671,391	8,98
671,84	8,98
672,29	8,99
672,74	9,16
673,189	9,22
673,638	9,11
674,088	9,32
674,537	9,21
674,986	9,3
675,435	9,48
675,883	9,67
676,332	9,62
676,781	9,7
677,229	9,88
677,678	9,79
678,126	10,05
678,574	10,19
679,022	10,3
679,47	10,18
679,918	10,42
680,366	10,51
680,814	10,58
681,261	10,72
681,709	10,92
682,156	10,89
682,604	11,06
683,051	11,09
683,498	11,31
683,945	11,21
684,392	11,4
684,839	11,47
685,286	11,71
685,732	11,61
686,179	11,73
686,625	11,76
687,071	11,95
687,518	12,14
687,964	12,15
688,41	12,41
688,856	12,43
689,301	12,69
689,747	13,03
690,193	13,31
690,638	13,42
691,084	13,8
691,529	14,14
691,974	14,47
692,419	14,96
692,864	15,55
693,309	16
693,754	16,4
694,199	17,13
694,643	17,42
695,088	18,21
695,532	18,97
695,977	19,53
696,421	20,35
696,865	20,97
697,309	21,4
697,753	22,24
698,197	23,25
698,64	24
699,084	24,78
699,527	25,42
699,971	26,34
700,414	26,82
700,857	27,68
701,3	28,31
701,743	29,54
702,186	30,14
702,629	30,89
703,072	31,87
703,515	32,07
703,957	33,02
704,399	34,03
704,842	34,91
705,284	35,42
705,726	36,34
706,168	36,85
706,61	37,83
707,052	38,17
707,494	39,24
707,935	40,03
708,377	40,53
708,818	41,33
709,26	42,15
709,701	42,86
710,142	43,75
710,583	44,01
711,024	45,05
711,465	45,94
711,905	46,17
712,346	46,79
712,787	47,25
713,227	48,33
713,667	49,12
714,108	49,81
714,548	50,59
714,988	51,4
715,428	51,63
715,868	52,79
716,307	52,78
716,747	53,29
717,186	54,35
717,626	54,42
718,065	55,9
718,504	56,1
718,944	56,72
719,383	57,1
719,822	57,91
720,261	58
720,699	58,96
721,138	59,19
721,576	60,07
722,015	60,43
722,453	60,86
722,892	61,57
723,33	62,14
723,768	62,76
724,206	63,15
724,644	63,21
725,081	63,86
725,519	64,06
725,957	64,1
726,394	65,11
726,832	65,51
727,269	65,27
727,706	66,06
728,143	66,05
728,58	67,02
729,017	66,7
729,454	67,35
729,89	67,96
730,327	68,44
730,764	68,64
731,2	68,75
731,636	68,97
732,072	69,63
732,509	69,63
732,945	69,79
733,38	69,48
733,816	70,55
734,252	69,95
734,688	70,58
735,123	70,57
735,559	71,21
735,994	71,1
736,429	71,34
736,864	71,84
737,299	71,76
737,734	72,16
738,169	72,04
738,604	71,95
739,038	72
739,473	72,37
739,907	72,54
740,342	72,67
740,776	72,62
741,21	72,47
741,644	73,16
742,078	73,18
742,512	72,73
742,946	73,1
743,379	72,83
743,813	73,09
744,246	73
744,68	73,01
745,113	73,21
745,546	73,18
745,979	73,53
746,412	73,01
746,845	73,15
747,278	73,41
747,711	72,91
748,143	73,3
748,576	73,24
749,008	73,76
749,441	73,34
749,873	72,98
750,305	73,19
750,737	73,05
751,169	72,96
751,601	73,03
752,032	73,04
752,464	73,01
752,896	72,59
753,327	72,85
753,758	72,99
754,19	72,99
754,621	72,85
755,052	72,36
755,483	73,15
755,914	73,2
756,344	72,68
756,775	73,22
757,206	72,82
757,636	72,81
758,066	72,52
758,497	72,62
758,927	73,21
759,357	72,6
759,787	72,2
760,217	72,43
760,647	72,71
761,076	72,45
761,506	72,05
761,935	71,96
762,365	72,88
762,794	71,96
763,223	72,1
763,653	72,34
764,082	71,63
764,51	72,5
764,939	72,2
765,368	71,88
765,797	72,19
766,225	71,94
766,654	71,73
767,082	71,59
767,51	71,79
767,938	71,64
768,367	71,48
768,795	71,32
769,222	72,27
769,65	72,1
770,078	71,2
770,505	71,62
770,933	71,77
771,36	71,72
771,788	71,29
772,215	71,48
772,642	71,68
773,069	71,33
773,496	71,41
773,923	70,88
774,349	71,23
774,776	71,36
775,203	70,86
775,629	71,23
776,055	70,89
776,482	71,01
776,908	70,83
777,334	70,82
777,76	70,58
778,186	70,9
778,611	71,22
779,037	71,14
779,463	70,6
779,888	70,88
780,314	70,91
780,739	71,44
781,164	70,86
781,589	70,54
782,014	71,08
782,439	70,72
782,864	70,74
783,289	71,26
783,713	70,43
784,138	70,91
784,562	70,47
784,987	70,75
785,411	70,39
785,835	70,1
786,259	70,33
786,683	70,95
787,107	70,46
787,531	70,42
787,954	70,6
788,378	70,26
788,802	70,73
789,225	70,53
789,648	70,51
790,071	69,78
790,495	70,7
790,918	70,65
791,34	70,57
791,763	70,63
792,186	70,56
792,609	70,68
793,031	70,55
793,454	70,33
793,876	71,19
794,298	70,54
794,721	69,97
795,143	70,59
795,565	70,28
795,986	69,65
796,408	70,5
796,83	70,28
797,252	70,47
797,673	70,47
798,094	71,16
798,516	70,24
798,937	70,44
799,358	69,66
799,779	70,21
800,2	70,59
800,621	70,51
801,042	69,97
801,462	70,06
801,883	69,96
802,303	70,1
802,724	70,18
803,144	69,96
803,564	70,12
803,984	70,52
804,404	70,06
804,824	70,52
805,244	70,82
805,664	71,02
806,084	70,4
806,503	70,66
806,923	70,4
807,342	70,16
807,761	69,99
808,18	69,7
808,599	69,9
809,018	70,01
809,437	70,17
809,856	69,71
810,275	70,14
810,693	70,21
811,112	70,44
811,53	70,58
811,949	70,2
812,367	70,65
812,785	70,18
813,203	70,03
813,621	70,07
814,039	70,08
814,457	69,94
814,874	69,66
815,292	69,83
815,709	69,87
816,127	70,3
816,544	70,38
816,961	69,96
817,378	70,81
817,795	70,02
818,212	70,36
818,629	70,69
819,046	69,85
819,462	70,13
819,879	69,64
820,295	69,91
820,712	70,06
821,128	70,05
821,544	69,94
821,96	70,01
822,376	69,65
822,792	69,76
823,208	70,44
823,624	70,29
824,039	69,76
824,455	70,51
824,87	69,33
825,286	70,13
825,701	70,06
826,116	69,58
826,531	70,32
826,946	69,61
827,361	69,62
827,776	69,99
828,19	69,5
828,605	69,61
829,02	69,99
829,434	69,37
829,848	70,04
830,263	70,06
830,677	69,47
831,091	69,32
831,505	69,74
