Data from F1__Relative__3__00102.txt Node

Date: Wed Jan 31 18:29:50 CET 2024
User: diatiterra
Spectrometer: HDX00911
Trigger mode: 0
Integration Time (sec): 6,000000E-3
Scans to average: 2
Nonlinearity correction enabled: false
Boxcar width: 0
Storing dark spectrum: false
XAxis mode: Wavelengths
Number of Pixels in Spectrum: 2068
>>>>>Begin Spectral Data<<<<<
194,468	221,7
195,025	149,09
195,581	212,2
196,138	215,38
196,694	128,4
197,251	108,08
197,807	81,1
198,363	91,2
198,919	83,45
199,474	85,29
200,03	96,31
200,586	104,91
201,141	82,9
201,696	83,22
202,251	87,5
202,806	80,77
203,361	94,81
203,916	87,5
204,471	89,05
205,025	100
205,58	85
206,134	96
206,688	83,85
207,242	98,23
207,796	90,98
208,35	94,93
208,904	83,45
209,457	74,65
210,011	82,27
210,564	89,44
211,117	88,35
211,67	93,66
212,223	93,49
212,776	96,77
213,329	92
213,881	118,63
214,434	82,89
214,986	108,26
215,538	98,16
216,09	84,51
216,642	101,24
217,194	96,21
217,746	92,48
218,297	88,55
218,849	91,18
219,4	100,42
219,951	94,35
220,502	87,84
221,053	98,09
221,604	93,96
222,155	92,46
222,705	83,82
223,256	101,49
223,806	98,82
224,356	95,38
224,906	95,97
225,456	96,51
226,006	96,03
226,556	75
227,106	97,98
227,655	87,15
228,204	94,58
228,754	82,75
229,303	90,36
229,852	80,58
230,401	89,55
230,949	96,76
231,498	85,21
232,047	79,22
232,595	85,52
233,143	96,06
233,691	88,76
234,239	78,93
234,787	86
235,335	89,55
235,883	83,92
236,43	84,47
236,978	91,92
237,525	87,23
238,072	85,11
238,619	98,48
239,166	87,94
239,713	87,59
240,26	82,86
240,806	97,92
241,353	94,44
241,899	85,31
242,445	87,23
242,991	91,22
243,537	82,58
244,083	96,18
244,629	96,15
245,174	96,9
245,72	93,33
246,265	86,11
246,81	93,6
247,355	88,1
247,9	88,06
248,445	100,79
248,99	88,26
249,534	111,3
250,079	92,11
250,623	86,67
251,168	100,41
251,712	92,58
252,256	96,72
252,8	96,92
253,343	93,21
253,887	92,34
254,43	90,84
254,974	98,85
255,517	86,3
256,06	107,69
256,603	83,7
257,146	96,9
257,689	100,39
258,232	106,36
258,774	94,33
259,317	102,97
259,859	109,17
260,401	99,22
260,943	90,07
261,485	90,07
262,027	96,4
262,569	92,91
263,11	93,46
263,652	112,2
264,193	98,35
264,734	97,45
265,275	104,1
265,816	90,46
266,357	95,35
266,898	97,69
267,438	108,27
267,979	86,69
268,519	89,55
269,059	102,34
269,6	96,99
270,14	110,89
270,68	90,94
271,219	102,97
271,759	92,48
272,298	94,74
272,838	93,46
273,377	92,46
273,916	86,69
274,455	90,15
274,994	91,2
275,533	92,03
276,072	95,53
276,61	88,41
277,149	98,75
277,687	98,12
278,225	90,33
278,763	110,53
279,301	100,42
279,839	98,39
280,377	95,9
280,914	81,12
281,452	103,85
281,989	96,69
282,526	94,88
283,064	102,1
283,601	83,78
284,137	98,35
284,674	94,17
285,211	100
285,747	88,64
286,284	110,81
286,82	92,98
287,356	84,87
287,892	93,41
288,428	98,76
288,964	105,46
289,5	101,24
290,035	91,2
290,571	92,02
291,106	98,37
291,641	108,04
292,176	96,48
292,711	90,65
293,246	85,77
293,781	98,35
294,315	82,39
294,85	113,89
295,384	94,26
295,918	86,03
296,453	80,22
296,987	86,36
297,52	91,74
298,054	90,46
298,588	87,5
299,121	88,81
299,655	95,99
300,188	98,33
300,721	92,68
301,254	91,53
301,787	89,84
302,32	102,44
302,853	95,6
303,385	95,36
303,918	93,41
304,45	91,92
304,982	82,98
305,514	89,15
306,046	88,02
306,578	84,11
307,11	90,7
307,641	96,98
308,173	90,91
308,704	83,06
309,236	78,2
309,767	87,94
310,298	87,5
310,829	97,83
311,359	95,56
311,89	96,64
312,421	100
312,951	94,31
313,481	84,14
314,012	93,28
314,542	95,76
315,072	85,88
315,601	90
316,131	99,61
316,661	94,58
317,19	88,15
317,72	104,13
318,249	100
318,778	95,31
319,307	89,45
319,836	101,33
320,365	95,22
320,893	96,69
321,422	94,31
321,95	101,13
322,479	91,22
323,007	106,82
323,535	95,36
324,063	94,8
324,591	92,8
325,118	94,16
325,646	95,38
326,173	97,5
326,701	99,19
327,228	100,86
327,755	88,35
328,282	94,27
328,809	108,05
329,336	98,43
329,862	96,32
330,389	87,89
330,915	99,61
331,441	84,73
331,968	110,36
332,494	90,53
333,02	96,67
333,545	84,7
334,071	100,83
334,597	76,41
335,122	88,15
335,648	99,57
336,173	82,58
336,698	79,43
337,223	92,28
337,748	85,07
338,272	83,56
338,797	85,51
339,322	78,47
339,846	86,03
340,37	97,98
340,894	80,21
341,419	92,48
341,942	81,12
342,466	84,94
342,99	83,22
343,514	89,44
344,037	78,48
344,56	95,56
345,084	86,64
345,607	88,19
346,13	84,15
346,653	83,33
347,175	80,13
347,698	75,16
348,221	84,29
348,743	79,5
349,265	84,89
349,787	73,31
350,309	77,53
350,831	77,16
351,353	72,26
351,875	76,02
352,397	83,22
352,918	75
353,439	83,77
353,961	69,19
354,482	70,76
355,003	76,16
355,524	68,61
356,044	71,59
356,565	78,31
357,086	71,47
357,606	62,64
358,126	61,7
358,646	67,35
359,167	70
359,687	67,23
360,206	60,66
360,726	61,14
361,246	68,09
361,765	70,9
362,285	63
362,804	66,84
363,323	58,78
363,842	65,66
364,361	66,67
364,88	64,53
365,398	56,33
365,917	61,56
366,435	68,49
366,954	62,28
367,472	56,13
367,99	62,09
368,508	55,06
369,026	64,32
369,544	59,65
370,061	56,3
370,579	53,89
371,096	61,47
371,613	55,39
372,131	53,74
372,648	57,68
373,165	55,86
373,681	56,12
374,198	57,42
374,715	55,45
375,231	52,84
375,747	52,07
376,264	50,17
376,78	54,68
377,296	54,46
377,812	50,66
378,327	52,15
378,843	56,14
379,359	52,32
379,874	55,88
380,389	51,58
380,905	47,76
381,42	48,78
381,935	50,15
382,449	50,29
382,964	46,71
383,479	47,7
383,993	47,51
384,508	45,14
385,022	43,39
385,536	45,26
386,05	43,31
386,564	44,03
387,078	42,22
387,592	41
388,105	43,74
388,619	40,4
389,132	39,89
389,645	41,15
390,158	37,55
390,671	39,31
391,184	35,73
391,697	35,67
392,21	36,98
392,722	37,3
393,235	37,8
393,747	38,23
394,259	34,27
394,771	33,55
395,283	35,53
395,795	33,77
396,307	35,14
396,818	34,74
397,33	30,61
397,841	32,12
398,353	32,88
398,864	34,25
399,375	31,22
399,886	29,38
400,397	29,87
400,907	28,16
401,418	27,01
401,928	27,02
402,439	27,68
402,949	24,75
403,459	26,02
403,969	25,09
404,479	24,65
404,989	22,98
405,498	22,95
406,008	23,42
406,517	21,11
407,027	20,07
407,536	20,47
408,045	20,47
408,554	19,52
409,063	17,9
409,572	18,11
410,08	17,07
410,589	16,61
411,097	16,55
411,606	17,01
412,114	14,59
412,622	15,43
413,13	14,9
413,638	14,21
414,145	13,78
414,653	13,63
415,16	12,68
415,668	12,7
416,175	12,45
416,682	12,25
417,189	11,16
417,696	11,57
418,203	12,13
418,71	10,82
419,216	11,3
419,723	10,58
420,229	9,97
420,735	10,27
421,242	10,08
421,748	10,11
422,254	10,13
422,759	10,16
423,265	9,56
423,771	9,84
424,276	9,72
424,781	9,35
425,287	9,39
425,792	9,62
426,297	9,47
426,802	8,74
427,306	9,34
427,811	8,66
428,316	9,01
428,82	8,63
429,324	9,39
429,829	8,49
430,333	8,54
430,837	8,68
431,34	8,23
431,844	8,85
432,348	7,95
432,851	7,74
433,355	8,19
433,858	8,45
434,361	8,3
434,864	7,99
435,367	8,3
435,87	8,9
436,373	8,31
436,876	8,58
437,378	8,2
437,88	7,78
438,383	7,87
438,885	8,21
439,387	8,34
439,889	8,13
440,391	7,6
440,892	7,71
441,394	7,83
441,896	7,63
442,397	7,99
442,898	7,67
443,399	7,82
443,9	7,93
444,401	7,44
444,902	7,79
445,403	7,85
445,903	7,5
446,404	8,01
446,904	7,6
447,405	7,51
447,905	7,75
448,405	8,01
448,905	8,13
449,404	8,07
449,904	7,7
450,404	7,38
450,903	8,17
451,403	7,8
451,902	7,84
452,401	8,01
452,9	8,07
453,399	7,79
453,898	7,68
454,396	7,84
454,895	7,68
455,393	7,96
455,892	7,73
456,39	8,18
456,888	7,99
457,386	7,85
457,884	7,81
458,382	8,21
458,879	7,71
459,377	8,05
459,874	7,74
460,372	7,96
460,869	7,75
461,366	7,73
461,863	7,79
462,36	7,85
462,857	7,74
463,353	7,73
463,85	7,6
464,346	7,81
464,843	7,9
465,339	7,65
465,835	7,91
466,331	8,08
466,827	7,55
467,323	7,81
467,818	7,81
468,314	7,94
468,809	7,92
469,305	7,57
469,8	8,03
470,295	7,81
470,79	7,74
471,285	7,91
471,78	7,45
472,274	7,68
472,769	7,62
473,263	7,87
473,758	7,7
474,252	7,59
474,746	7,74
475,24	7,64
475,734	7,62
476,228	7,47
476,721	7,64
477,215	7,72
477,708	7,57
478,202	7,44
478,695	7,58
479,188	7,8
479,681	7,58
480,174	7,73
480,667	7,79
481,159	7,9
481,652	7,68
482,144	8,04
482,637	7,75
483,129	7,64
483,621	7,91
484,113	7,9
484,605	7,92
485,097	7,73
485,588	8
486,08	7,84
486,571	7,96
487,063	7,81
487,554	7,92
488,045	8,12
488,536	8,05
489,027	7,96
489,518	7,91
490,008	7,71
490,499	8,02
490,989	7,97
491,48	8,1
491,97	7,89
492,46	7,97
492,95	7,99
493,44	8,14
493,93	8,36
494,419	8,38
494,909	8,33
495,398	8,43
495,888	8,59
496,377	8,58
496,866	8,76
497,355	8,65
497,844	8,64
498,333	8,69
498,821	8,98
499,31	8,8
499,798	8,94
500,287	9,11
500,775	9,38
501,263	9,45
501,751	9,47
502,239	9,41
502,727	9,54
503,215	9,99
503,702	9,98
504,19	9,78
504,677	10,06
505,164	10,58
505,651	10,49
506,139	10,45
506,625	10,52
507,112	10,83
507,599	11,07
508,086	11,25
508,572	11,12
509,058	11,5
509,545	11,4
510,031	11,56
510,517	11,73
511,003	12
511,489	12,1
511,974	12,64
512,46	12,55
512,946	12,94
513,431	13,02
513,916	13,21
514,401	13,57
514,887	13,62
515,371	13,96
515,856	14,03
516,341	14,39
516,826	14,56
517,31	14,68
517,795	15,05
518,279	14,93
518,763	15,75
519,247	15,61
519,731	16,21
520,215	16,55
520,699	16,15
521,182	16,27
521,666	16,79
522,149	17,27
522,633	17,43
523,116	17,75
523,599	17,8
524,082	17,98
524,565	18,17
525,048	18,26
525,53	18,39
526,013	18,42
526,495	19,21
526,978	19,23
527,46	19,36
527,942	19,37
528,424	19,51
528,906	19,7
529,388	19,88
529,87	20,09
530,351	19,98
530,833	20,16
531,314	20,46
531,795	20,21
532,277	20,58
532,758	20,6
533,238	20,72
533,719	20,9
534,2	20,86
534,681	21,48
535,161	21,16
535,642	21,68
536,122	21,06
536,602	21,19
537,082	21,67
537,562	21,51
538,042	21,36
538,522	21,69
539,001	21,43
539,481	21,48
539,96	21,45
540,44	21,65
540,919	21,72
541,398	21,62
541,877	21,68
542,356	21,74
542,835	21,53
543,313	21,75
543,792	21,92
544,27	21,76
544,749	22,26
545,227	21,98
545,705	22
546,183	22,21
546,661	22,23
547,139	21,74
547,616	21,99
548,094	22,04
548,571	22,61
549,049	22,59
549,526	22,06
550,003	21,78
550,48	22,13
550,957	22,06
551,434	22,22
551,911	22,45
552,387	22,06
552,864	22,16
553,34	22,52
553,817	22,25
554,293	22,1
554,769	22,29
555,245	22,35
555,721	22,23
556,197	21,99
556,672	22,01
557,148	22,34
557,623	22,24
558,099	22,37
558,574	22,25
559,049	22
559,524	22,25
559,999	22,21
560,474	21,98
560,948	21,7
561,423	22,22
561,897	21,82
562,372	22,17
562,846	21,86
563,32	21,8
563,794	21,61
564,268	21,84
564,742	21,82
565,216	21,31
565,69	21,46
566,163	21,4
566,636	21,19
567,11	21,06
567,583	20,92
568,056	20,97
568,529	20,91
569,002	20,77
569,475	20,9
569,947	20,32
570,42	20,66
570,892	19,94
571,365	20,18
571,837	20,38
572,309	20,37
572,781	19,84
573,253	19,83
573,725	19,84
574,197	19,34
574,668	19,45
575,14	18,99
575,611	19,26
576,082	18,98
576,554	19,13
577,025	19,03
577,496	18,62
577,967	18,67
578,437	18,65
578,908	18,29
579,379	18,33
579,849	18,24
580,319	18,01
580,79	18,12
581,26	18,07
581,73	17,94
582,2	17,77
582,669	17,7
583,139	17,6
583,609	17,74
584,078	17,54
584,548	17,29
585,017	17,48
585,486	17,14
585,955	17,42
586,424	17,23
586,893	17,05
587,362	16,91
587,83	17,05
588,299	16,99
588,767	17,3
589,236	16,91
589,704	16,6
590,172	16,99
590,64	16,47
591,108	16,7
591,576	16,55
592,043	16,33
592,511	16,26
592,978	16,47
593,446	16,32
593,913	16,22
594,38	16,06
594,847	16,11
595,314	16,17
595,781	15,98
596,248	16,03
596,715	16,15
597,181	15,95
597,647	16,03
598,114	16,17
598,58	15,66
599,046	15,88
599,512	15,87
599,978	15,83
600,444	15,94
600,91	15,84
601,375	15,88
601,841	15,79
602,306	15,95
602,771	15,65
603,236	15,46
603,702	15,86
604,167	15,6
604,631	15,57
605,096	15,38
605,561	15,25
606,025	15,44
606,49	15,34
606,954	15,32
607,418	15,16
607,882	14,98
608,347	15,01
608,81	15,09
609,274	14,73
609,738	14,87
610,202	15
610,665	14,62
611,128	14,54
611,592	14,36
612,055	14,54
612,518	14,52
612,981	14,52
613,444	14,41
613,907	14,19
614,369	14,17
614,832	14,07
615,294	14,03
615,757	14,01
616,219	14,01
616,681	13,88
617,143	13,84
617,605	13,87
618,067	13,63
618,529	13,43
618,99	13,58
619,452	13,47
619,913	13,63
620,375	13,59
620,836	13,4
621,297	13,45
621,758	13,31
622,219	13,3
622,68	13,39
623,14	13,24
623,601	13,22
624,061	13,21
624,522	13,16
624,982	13,28
625,442	13,41
625,902	13,19
626,362	13,05
626,822	13,17
627,282	13,21
627,742	13,11
628,201	13,09
628,661	13,04
629,12	13,17
629,579	12,78
630,038	13,03
630,497	12,95
630,956	12,82
631,415	12,91
631,874	12,7
632,332	12,69
632,791	12,66
633,249	12,57
633,708	12,77
634,166	12,52
634,624	12,48
635,082	12,61
635,54	12,49
635,998	12,08
636,455	12,53
636,913	12,32
637,37	12,02
637,828	11,99
638,285	12,15
638,742	11,66
639,199	11,85
639,656	11,72
640,113	11,59
640,57	11,6
641,027	11,38
641,483	11,3
641,94	11,16
642,396	11,11
642,852	11,05
643,309	10,97
643,765	10,71
644,221	10,6
644,676	10,48
645,132	10,58
645,588	10,47
646,043	10,22
646,499	10,3
646,954	10,13
647,409	10,16
647,864	9,92
648,319	9,79
648,774	9,86
649,229	9,61
649,684	9,77
650,139	9,71
650,593	9,53
651,047	9,44
651,502	9,42
651,956	9,33
652,41	9,5
652,864	9,23
653,318	9,33
653,772	9,23
654,225	9,22
654,679	9,33
655,133	9,11
655,586	9,14
656,039	9,05
656,492	8,96
656,946	8,93
657,399	8,8
657,851	8,8
658,304	8,77
658,757	8,6
659,209	8,48
659,662	8,55
660,114	8,29
660,567	8,28
661,019	8,21
661,471	8,17
661,923	8,14
662,375	8,03
662,826	7,87
663,278	7,87
663,73	7,77
664,181	7,86
664,632	7,74
665,084	7,62
665,535	7,57
665,986	7,56
666,437	7,47
666,888	7,47
667,338	7,44
667,789	7,6
668,24	7,42
668,69	7,35
669,14	7,49
669,591	7,34
670,041	7,35
670,491	7,37
670,941	7,23
671,391	7,32
671,84	7,4
672,29	7,37
672,74	7,41
673,189	7,59
673,638	7,5
674,088	7,55
674,537	7,5
674,986	7,61
675,435	7,72
675,883	7,78
676,332	7,79
676,781	7,87
677,229	7,97
677,678	8,1
678,126	8,04
678,574	8,25
679,022	8,28
679,47	8,29
679,918	8,44
680,366	8,45
680,814	8,58
681,261	8,69
681,709	8,78
682,156	8,81
682,604	9,14
683,051	9,11
683,498	9,24
683,945	9,36
684,392	9,48
684,839	9,68
685,286	9,86
685,732	9,83
686,179	10,1
686,625	10,2
687,071	10,21
687,518	10,7
687,964	10,6
688,41	10,9
688,856	11,08
689,301	11,39
689,747	11,7
690,193	11,78
690,638	12,14
691,084	12,39
691,529	12,75
691,974	13,09
692,419	13,57
692,864	13,88
693,309	14,06
693,754	14,41
694,199	14,84
694,643	15,19
695,088	15,49
695,532	16,05
695,977	16,4
696,421	16,75
696,865	17,03
697,309	17,38
697,753	17,7
698,197	18,16
698,64	18,58
699,084	18,8
699,527	19,14
699,971	19,59
700,414	19,77
700,857	20,15
701,3	20,53
701,743	20,85
702,186	21,15
702,629	21,48
703,072	21,69
703,515	21,98
703,957	22,21
704,399	22,24
704,842	22,74
705,284	23,06
705,726	23,31
706,168	23,52
706,61	23,87
707,052	24,04
707,494	24,48
707,935	24,48
708,377	24,73
708,818	25,11
709,26	25,24
709,701	25,33
710,142	25,74
710,583	25,78
711,024	25,98
711,465	26,16
711,905	26,45
712,346	26,47
712,787	26,5
713,227	26,79
713,667	27,38
714,108	27,43
714,548	27,33
714,988	27,97
715,428	28,1
715,868	28,27
716,307	28,22
716,747	28,58
717,186	28,56
717,626	28,6
718,065	28,88
718,504	28,93
718,944	29,33
719,383	29,51
719,822	29,31
720,261	29,41
720,699	29,55
721,138	29,51
721,576	29,65
722,015	29,99
722,453	29,89
722,892	29,92
723,33	30,36
723,768	30,47
724,206	30,46
724,644	30,32
725,081	30,85
725,519	30,69
725,957	30,75
726,394	30,99
726,832	30,97
727,269	30,83
727,706	31,16
728,143	30,92
728,58	31,61
729,017	31,19
729,454	31,16
729,89	31,59
730,327	31,41
730,764	31,71
731,2	31,59
731,636	31,55
732,072	31,86
732,509	31,71
732,945	31,76
733,38	31,79
733,816	32,15
734,252	31,86
734,688	32,15
735,123	31,99
735,559	32,04
735,994	32,18
736,429	32,19
736,864	32,14
737,299	32,05
737,734	32,49
738,169	32,26
738,604	32,07
739,038	31,9
739,473	32,27
739,907	32,19
740,342	31,96
740,776	32,26
741,21	32,06
741,644	32,28
742,078	32,34
742,512	32,06
742,946	32,17
743,379	32,01
743,813	32,22
744,246	32,01
744,68	32,07
745,113	31,93
745,546	32,1
745,979	32,1
746,412	32,06
746,845	32,07
747,278	31,91
747,711	31,73
748,143	31,75
748,576	32,03
749,008	32,09
749,441	31,8
749,873	31,86
750,305	32,03
750,737	31,68
751,169	31,79
751,601	31,8
752,032	31,53
752,464	31,67
752,896	31,56
753,327	31,67
753,758	31,64
754,19	31,52
754,621	31,41
755,052	31,41
755,483	31,81
755,914	31,46
756,344	31,49
756,775	31,63
757,206	31,37
757,636	31,68
758,066	31,23
758,497	31,41
758,927	31,75
759,357	31,34
759,787	31,36
760,217	31,27
760,647	31,19
761,076	31,1
761,506	31,05
761,935	31,05
762,365	31,31
762,794	30,89
763,223	31,31
763,653	31,2
764,082	30,9
764,51	31,14
764,939	31
765,368	30,82
765,797	30,85
766,225	30,99
766,654	30,62
767,082	30,68
767,51	30,85
767,938	30,74
768,367	30,89
768,795	30,7
769,222	30,96
769,65	30,97
770,078	30,75
770,505	30,65
770,933	30,81
771,36	30,79
771,788	30,72
772,215	30,73
772,642	30,83
773,069	30,67
773,496	30,62
773,923	30,65
774,349	30,48
774,776	30,68
775,203	30,39
775,629	30,76
776,055	30,28
776,482	30,42
776,908	30,44
777,334	30,12
777,76	30,52
778,186	30,53
778,611	30,62
779,037	30,47
779,463	30,37
779,888	30,2
780,314	30,17
780,739	30,51
781,164	30,41
781,589	30,3
782,014	30,44
782,439	30,14
782,864	30,49
783,289	30,52
783,713	30,12
784,138	30,34
784,562	30,17
784,987	30,23
785,411	30,2
785,835	29,98
786,259	30,1
786,683	30,36
787,107	30,19
787,531	30,16
787,954	30,28
788,378	30,35
788,802	30,1
789,225	30,16
789,648	30,25
790,071	30,06
790,495	30,26
790,918	30,35
791,34	30,06
791,763	30,22
792,186	29,95
792,609	30,11
793,031	29,93
793,454	30,14
793,876	30,1
794,298	30,09
794,721	30,19
795,143	30,19
795,565	29,99
795,986	30,01
796,408	30,09
796,83	30,06
797,252	30,09
797,673	30,16
798,094	30,28
798,516	30,16
798,937	30,41
799,358	29,82
799,779	29,92
800,2	29,92
800,621	30,1
801,042	30,01
801,462	30,3
801,883	29,75
802,303	29,9
802,724	30,08
803,144	29,82
803,564	30,03
803,984	30,15
804,404	30,19
804,824	29,74
805,244	29,88
805,664	30,27
806,084	30,3
806,503	30,1
806,923	29,92
807,342	29,82
807,761	29,64
808,18	29,83
808,599	29,76
809,018	29,8
809,437	29,91
809,856	29,58
810,275	30,04
810,693	29,87
811,112	30,12
811,53	29,94
811,949	30,02
812,367	30,16
812,785	29,77
813,203	30,11
813,621	29,89
814,039	29,88
814,457	29,89
814,874	29,85
815,292	29,66
815,709	29,57
816,127	29,76
816,544	30
816,961	29,88
817,378	30,2
817,795	29,72
818,212	29,97
818,629	30,19
819,046	29,73
819,462	29,74
819,879	29,85
820,295	29,65
820,712	29,79
821,128	29,72
821,544	29,75
821,96	29,76
822,376	29,92
822,792	29,7
823,208	29,81
823,624	30
824,039	29,76
824,455	29,57
824,87	29,85
825,286	29,67
825,701	29,87
826,116	29,65
826,531	29,98
826,946	29,56
827,361	29,64
827,776	29,69
828,19	29,87
828,605	29,57
829,02	29,58
829,434	29,6
829,848	29,82
830,263	29,87
830,677	29,64
831,091	29,66
831,505	29,39
831,919	29,9
832,332	29,99
832,746	30,03
833,16	29,56
833,573	29,82
833,987	29,76
834,4	29,67
834,813	29,13
835,226	29,48
835,639	29,62
836,052	29,7
836,465	29,68
836,878	29,85
837,29	29,59
837,703	29,57
838,116	29,8
838,528	29,56
838,94	29,68
839,352	29,42
839,765	29,57
840,177	29,57
840,589	29,87
