Data from G2__Relative__1__00116.txt Node

Date: Wed Jan 31 18:36:44 CET 2024
User: diatiterra
Spectrometer: HDX00911
Trigger mode: 0
Integration Time (sec): 6,000000E-3
Scans to average: 2
Nonlinearity correction enabled: false
Boxcar width: 0
Storing dark spectrum: false
XAxis mode: Wavelengths
Number of Pixels in Spectrum: 2068
>>>>>Begin Spectral Data<<<<<
194,468	234,91
195,025	158,18
195,581	217,07
196,138	216,67
196,694	135,8
197,251	121,21
197,807	100,39
198,363	93,6
198,919	90,34
199,474	95,22
200,03	102,05
200,586	105,36
201,141	77,74
201,696	87,25
202,251	86,74
202,806	82,52
203,361	91,85
203,916	88,19
204,471	90,51
205,025	97,58
205,58	86,43
206,134	95,6
206,688	102,31
207,242	105,31
207,796	95,86
208,35	96,01
208,904	92,76
209,457	80,21
210,011	88,3
210,564	97,89
211,117	91,73
211,67	97,01
212,223	93,84
212,776	105,24
213,329	91,67
213,881	115,69
214,434	92,43
214,986	108,68
215,538	98,16
216,09	84,15
216,642	102,07
217,194	95,83
217,746	90,23
218,297	100,76
218,849	96,69
219,4	104,62
219,951	96,77
220,502	96,28
221,053	106,49
221,604	94,63
222,155	96,43
222,705	92,28
223,256	92,91
223,806	103,54
224,356	95
224,906	109,27
225,456	96,9
226,006	96,83
226,556	78,57
227,106	93,55
227,655	77,43
228,204	94,17
228,754	88,38
229,303	85
229,852	88,13
230,401	90,3
230,949	91,37
231,498	84,15
232,047	80,19
232,595	93,1
233,143	101,57
233,691	94,96
234,239	83,93
234,787	90,8
235,335	94,4
235,883	87,76
236,43	87,88
236,978	98,85
237,525	94,16
238,072	82,98
238,619	94,7
239,166	86,52
239,713	91,61
240,26	89,64
240,806	96,18
241,353	93,25
241,899	82,87
242,445	90,51
242,991	100,38
243,537	89,02
244,083	102,29
244,629	95,77
245,174	96,9
245,72	90,37
246,265	78,97
246,81	92
247,355	100
247,9	84,33
248,445	93,25
248,99	96,59
249,534	101,74
250,079	89,47
250,623	90,74
251,168	102,48
251,712	93,75
252,256	97,95
252,8	98,08
253,343	85,71
253,887	89,92
254,43	89,31
254,974	98,09
255,517	81,85
256,06	102,69
256,603	87,04
257,146	95,35
257,689	97,64
258,232	115,25
258,774	95,04
259,317	95,76
259,859	106,88
260,401	100
260,943	86,17
261,485	88,3
262,027	100,8
262,569	98,88
263,11	91,54
263,652	109,45
264,193	104,13
264,734	92,7
265,275	98,36
265,816	90,46
266,357	100,78
266,898	101,54
267,438	101,97
267,979	84,89
268,519	89,55
269,059	114,49
269,6	102,63
270,14	100,81
270,68	96,01
271,219	105,08
271,759	93,98
272,298	96,62
272,838	96,92
273,377	98,02
273,916	85,61
274,455	92,34
274,994	93,2
275,533	99,28
276,072	98,37
276,61	86,59
277,149	100,42
277,687	93,23
278,225	86
278,763	114,91
279,301	98,33
279,839	100,4
280,377	97,95
280,914	89,51
281,452	110,68
281,989	95,04
282,526	95,28
283,064	109,24
283,601	86,15
284,137	92,15
284,674	102,92
285,211	109,65
285,747	92,05
286,284	110,81
286,82	105,79
287,356	79,93
287,892	98,84
288,428	101,65
288,964	109,24
289,5	105,79
290,035	100,8
290,571	97,9
291,106	100,81
291,641	103,12
292,176	96,48
292,711	104,88
293,246	101,15
293,781	101,24
294,315	80,99
294,85	112,5
295,384	97,95
295,918	87,87
296,453	83,21
296,987	92,56
297,52	91,32
298,054	92,75
298,588	97,5
299,121	98,13
299,655	95,99
300,188	97,92
300,721	100,41
301,254	96,37
301,787	96,09
302,32	100
302,853	94,4
303,385	90
303,918	99,22
304,45	98,85
304,982	84,04
305,514	99,61
306,046	90,08
306,578	98,84
307,11	98,45
307,641	100
308,173	99,59
308,704	94,63
309,236	84,59
309,767	93,26
310,298	95,16
310,829	105,65
311,359	109,68
311,89	98,74
312,421	102,25
312,951	95,93
313,481	86,55
314,012	92,54
314,542	101,69
315,072	101,53
315,601	96,8
316,131	109,06
316,661	89,58
317,19	93,33
317,72	103,72
318,249	107,54
318,778	101,56
319,307	91,8
319,836	103,1
320,365	105,65
320,893	102,89
321,422	107,32
321,95	105,64
322,479	97,71
323,007	105,45
323,535	90,36
324,063	96,8
324,591	100,4
325,118	101,82
325,646	99,58
326,173	96,25
326,701	107,72
327,228	106,9
327,755	87,22
328,282	91,6
328,809	108,47
329,336	102,36
329,862	95,22
330,389	91,8
330,915	103,15
331,441	97,33
331,968	106,31
332,494	94,32
333,02	93,33
333,545	90,67
334,071	109,92
334,597	84,86
335,122	89,26
335,648	100,86
336,173	93,56
336,698	84,18
337,223	87,13
337,748	85,76
338,272	86,64
338,797	92,75
339,322	84,67
339,846	84,56
340,37	104,44
340,894	82,99
341,419	92,86
341,942	88,81
342,466	83,01
342,99	83,56
343,514	82,39
344,037	79,43
344,56	92,96
345,084	85,27
345,607	86,46
346,13	88,03
346,653	90
347,175	84,62
347,698	79,56
348,221	81,43
348,743	79,81
349,265	83,81
349,787	76,99
350,309	74,68
350,831	69,44
351,353	78,35
351,875	74,27
352,397	79,37
352,918	77,63
353,439	75,17
353,961	65,41
354,482	71,93
355,003	71,51
355,524	68,61
356,044	67,05
356,565	76,2
357,086	70,62
357,606	63,19
358,126	63,83
358,646	59,44
359,167	65,41
359,687	73,73
360,206	65,3
360,726	57,35
361,246	67,29
361,765	62,43
362,285	57,5
362,804	58,42
363,323	57,56
363,842	58,24
364,361	59,2
364,88	58,13
365,398	60,92
365,917	58,02
366,435	64,06
366,954	56,25
367,472	50,47
367,99	59,48
368,508	50
369,026	61,14
369,544	50,44
370,061	52,52
370,579	49,8
371,096	60,78
371,613	47,2
372,131	50,39
372,648	47,05
373,165	51,56
373,681	45,36
374,198	50,78
374,715	47,18
375,231	48,86
375,747	46,21
376,264	43,03
376,78	43,71
377,296	45,54
377,812	42,03
378,327	43,38
378,843	46,42
379,359	44,54
379,874	45,5
380,389	40,85
380,905	38,36
381,42	41,03
381,935	40,85
382,449	40,41
382,964	37
383,479	37,07
383,993	36,15
384,508	35,3
385,022	34,2
385,536	35,79
386,05	36,22
386,564	35,82
387,078	32,66
387,592	31,14
388,105	33,69
388,619	30,47
389,132	30,22
389,645	30,8
390,158	29,29
390,671	29,53
391,184	25,71
391,697	27,05
392,21	24,04
392,722	25,79
393,235	29,08
393,747	26,46
394,259	25,19
394,771	23,58
395,283	24,91
395,795	24,53
396,307	28,79
396,818	25
397,33	21,77
397,841	23,54
398,353	23,68
398,864	21,64
399,375	22,29
399,886	22,68
400,397	20,2
400,907	21,57
401,418	18,05
401,928	19,92
402,439	20,88
402,949	17,44
403,459	19,27
403,969	19,18
404,479	17,81
404,989	17,12
405,498	17,48
406,008	17,17
406,517	15,76
407,027	14,58
407,536	14,13
408,045	14,54
408,554	13,39
409,063	12,62
409,572	12,35
410,08	12,61
410,589	11,82
411,097	11,29
411,606	11,18
412,114	11,06
412,622	10,77
413,13	10,25
413,638	9,97
414,145	9,13
414,653	10,23
415,16	9,01
415,668	9,01
416,175	8,14
416,682	7,86
417,189	7,82
417,696	8,01
418,203	8,48
418,71	7,68
419,216	7,62
419,723	7,44
420,229	7,22
420,735	6,91
421,242	6,91
421,748	7,4
422,254	7,01
422,759	6,68
423,265	6,82
423,771	6,62
424,276	6,24
424,781	6,37
425,287	6,54
425,792	6,31
426,297	6,46
426,802	6,02
427,306	6,42
427,811	5,93
428,316	6,15
428,82	5,89
429,324	5,99
429,829	5,73
430,333	5,56
430,837	5,63
431,34	5,52
431,844	5,24
432,348	5,29
432,851	5,37
433,355	5,01
433,858	5,28
434,361	5,12
434,864	5,02
435,367	5,01
435,87	5,49
436,373	5
436,876	5,09
437,378	5,08
437,88	4,79
438,383	5,28
438,885	5,09
439,387	5,03
439,889	4,78
440,391	4,84
440,892	5,01
441,394	4,67
441,896	4,57
442,397	4,62
442,898	4,84
443,399	4,76
443,9	4,34
444,401	4,52
444,902	4,47
445,403	4,91
445,903	4,64
446,404	4,81
446,904	4,93
447,405	4,62
447,905	4,7
448,405	4,43
448,905	4,32
449,404	4,67
449,904	4,57
450,404	4,41
450,903	4,77
451,403	4,32
451,902	4,64
452,401	4,5
452,9	4,55
453,399	4,68
453,898	4,16
454,396	4,69
454,895	4,39
455,393	4,34
455,892	4,49
456,39	4,38
456,888	4,27
457,386	4,54
457,884	4,33
458,382	4,57
458,879	4,69
459,377	4,72
459,874	4,43
460,372	4,52
460,869	4,54
461,366	4,21
461,863	4,29
462,36	4,51
462,857	4,58
463,353	4,29
463,85	4,36
464,346	4,09
464,843	4,4
465,339	4
465,835	4,45
466,331	4,05
466,827	4,25
467,323	4,32
467,818	4,23
468,314	4,25
468,809	4,23
469,305	3,97
469,8	4,24
470,295	4,15
470,79	4,2
471,285	4,06
471,78	4,1
472,274	3,97
472,769	3,87
473,263	3,86
473,758	4,06
474,252	4,06
474,746	4,05
475,24	4
475,734	3,93
476,228	4,05
476,721	3,94
477,215	3,71
477,708	4,01
478,202	3,93
478,695	4,06
479,188	3,95
479,681	3,94
480,174	4,13
480,667	4,16
481,159	4
481,652	4,05
482,144	3,96
482,637	4,21
483,129	3,74
483,621	4,03
484,113	4,01
484,605	4,09
485,097	4,08
485,588	4,03
486,08	4,11
486,571	3,87
487,063	4,14
487,554	4,14
488,045	3,99
488,536	4,03
489,027	3,93
489,518	4,17
490,008	3,85
490,499	4,14
490,989	4,04
491,48	3,87
491,97	3,92
492,46	4,03
492,95	4,06
493,44	4,03
493,93	4,11
494,419	4,09
494,909	4,12
495,398	4,28
495,888	4,13
496,377	4,42
496,866	4,45
497,355	4,23
497,844	4,18
498,333	4,48
498,821	4,48
499,31	4,28
499,798	4,56
500,287	4,57
500,775	4,57
501,263	4,58
501,751	4,57
502,239	4,59
502,727	4,91
503,215	4,76
503,702	4,97
504,19	5
504,677	5,17
505,164	5,25
505,651	5,27
506,139	5,29
506,625	5,23
507,112	5,41
507,599	5,68
508,086	5,6
508,572	5,76
509,058	6
509,545	5,86
510,031	6,16
510,517	6,36
511,003	6,04
511,489	6,71
511,974	6,53
512,46	6,66
512,946	7,14
513,431	7,08
513,916	7,22
514,401	7,33
514,887	7,36
515,371	7,79
515,856	7,84
516,341	8,1
516,826	7,93
517,31	8,44
517,795	8,65
518,279	8,71
518,763	9,09
519,247	8,9
519,731	9,56
520,215	9,66
520,699	9,85
521,182	9,6
521,666	10,18
522,149	10,42
522,633	10,54
523,116	10,68
523,599	11,16
524,082	10,94
524,565	11,3
525,048	11,62
525,53	11,46
526,013	11,91
526,495	12,09
526,978	12,21
527,46	12,25
527,942	12,54
528,424	12,94
528,906	12,57
529,388	12,74
529,87	13,43
530,351	12,84
530,833	13,5
531,314	13,38
531,795	13,32
532,277	13,7
532,758	13,68
533,238	13,69
533,719	13,95
534,2	13,76
534,681	14,09
535,161	14,07
535,642	14,57
536,122	13,98
536,602	14,27
537,082	14,38
537,562	14,53
538,042	14,37
538,522	14,56
539,001	14,63
539,481	14,53
539,96	14,62
540,44	14,5
540,919	14,8
541,398	14,72
541,877	14,72
542,356	14,55
542,835	14,63
543,313	15,03
543,792	14,94
544,27	15,04
544,749	15,24
545,227	14,98
545,705	15,08
546,183	15,08
546,661	14,72
547,139	15,12
547,616	14,84
548,094	15,17
548,571	15,15
549,049	15,29
549,526	15,2
550,003	15,19
550,48	15,12
550,957	15,03
551,434	15,24
551,911	15,23
552,387	15,33
552,864	15,3
553,34	15
553,817	14,98
554,293	15,18
554,769	15,23
555,245	15,36
555,721	15,22
556,197	15,2
556,672	15,24
557,148	15,41
557,623	15,3
558,099	15,24
558,574	15,24
559,049	14,78
559,524	14,92
559,999	15,06
560,474	14,98
560,948	14,55
561,423	14,95
561,897	14,71
562,372	14,8
562,846	14,69
563,32	14,58
563,794	14,52
564,268	14,51
564,742	14,48
565,216	14,08
565,69	14,01
566,163	14,1
566,636	13,87
567,11	13,73
567,583	13,62
568,056	13,6
568,529	13,71
569,002	13,45
569,475	13,31
569,947	13,32
570,42	13,04
570,892	13
571,365	12,83
571,837	12,87
572,309	12,57
572,781	12,73
573,253	12,63
573,725	12,41
574,197	12,09
574,668	12
575,14	11,96
575,611	11,73
576,082	11,65
576,554	11,64
577,025	11,54
577,496	11,51
577,967	11,33
578,437	11,18
578,908	11,23
579,379	11,13
579,849	10,98
580,319	10,72
580,79	10,76
581,26	10,85
581,73	10,48
582,2	10,47
582,669	10,49
583,139	10,23
583,609	10,32
584,078	10,28
584,548	10,21
585,017	10,22
585,486	10,11
585,955	9,95
586,424	9,95
586,893	9,83
587,362	9,74
587,83	9,8
588,299	9,85
588,767	9,75
589,236	9,68
589,704	9,5
590,172	9,54
590,64	9,55
591,108	9,46
591,576	9,39
592,043	9,36
592,511	9,42
592,978	9,37
593,446	9,48
593,913	9,22
594,38	9,25
594,847	9,2
595,314	9,1
595,781	9,14
596,248	9,04
596,715	9,09
597,181	9,03
597,647	9,02
598,114	9,01
598,58	9,06
599,046	8,93
599,512	9
599,978	8,95
600,444	8,9
600,91	8,82
601,375	8,71
601,841	8,91
602,306	8,8
602,771	8,83
603,236	8,82
603,702	8,69
604,167	8,78
604,631	8,53
605,096	8,49
605,561	8,55
606,025	8,49
606,49	8,31
606,954	8,27
607,418	8,41
607,882	8,28
608,347	8,17
608,81	8,17
609,274	8,17
609,738	8,04
610,202	7,91
610,665	7,94
611,128	7,91
611,592	7,67
612,055	7,65
612,518	7,62
612,981	7,67
613,444	7,44
613,907	7,52
614,369	7,57
614,832	7,39
615,294	7,28
615,757	7,3
616,219	7,25
616,681	7,1
617,143	7,06
617,605	7,13
618,067	6,97
618,529	6,96
618,99	6,95
619,452	6,88
619,913	6,88
620,375	6,83
620,836	6,69
621,297	6,86
621,758	6,83
622,219	6,59
622,68	6,63
623,14	6,73
623,601	6,81
624,061	6,61
624,522	6,57
624,982	6,52
625,442	6,43
625,902	6,53
626,362	6,42
626,822	6,37
627,282	6,59
627,742	6,47
628,201	6,51
628,661	6,58
629,12	6,39
629,579	6,38
630,038	6,51
630,497	6,29
630,956	6,28
631,415	6,38
631,874	6,31
632,332	6,21
632,791	6,23
633,249	6,21
633,708	6,17
634,166	6,18
634,624	6,12
635,082	6,04
635,54	6,1
635,998	5,94
636,455	6
636,913	5,96
637,37	5,82
637,828	5,9
638,285	5,91
638,742	5,79
639,199	5,71
639,656	5,76
640,113	5,49
640,57	5,55
641,027	5,39
641,483	5,34
641,94	5,34
642,396	5,24
642,852	5,19
643,309	5,13
643,765	5,03
644,221	5,07
644,676	4,92
645,132	4,87
645,588	4,74
646,043	4,68
646,499	4,69
646,954	4,53
647,409	4,48
647,864	4,44
648,319	4,42
648,774	4,52
649,229	4,36
649,684	4,29
650,139	4,3
650,593	4,23
651,047	4,2
651,502	4,17
651,956	4,07
652,41	4,12
652,864	4,15
653,318	4,07
653,772	4,04
654,225	4,08
654,679	4,03
655,133	3,96
655,586	4
656,039	3,86
656,492	3,89
656,946	3,86
657,399	3,93
657,851	3,87
658,304	3,75
658,757	3,69
659,209	3,64
659,662	3,62
660,114	3,62
660,567	3,54
661,019	3,58
661,471	3,53
661,923	3,38
662,375	3,41
662,826	3,36
663,278	3,4
663,73	3,29
664,181	3,31
664,632	3,32
665,084	3,27
665,535	3,27
665,986	3,23
666,437	3,26
666,888	3,25
667,338	3,23
667,789	3,27
668,24	3,31
668,69	3,32
669,14	3,29
669,591	3,35
670,041	3,36
670,491	3,45
670,941	3,37
671,391	3,47
671,84	3,45
672,29	3,47
672,74	3,5
673,189	3,66
673,638	3,62
674,088	3,67
674,537	3,7
674,986	3,76
675,435	3,83
675,883	3,91
676,332	3,89
676,781	4,02
677,229	4,04
677,678	4,09
678,126	4,1
678,574	4,32
679,022	4,35
679,47	4,35
679,918	4,55
680,366	4,51
680,814	4,62
681,261	4,73
681,709	4,77
682,156	4,92
682,604	5,01
683,051	4,93
683,498	5,12
683,945	5,13
684,392	5,22
684,839	5,27
685,286	5,36
685,732	5,45
686,179	5,52
686,625	5,39
687,071	5,56
687,518	5,58
687,964	5,83
688,41	5,95
688,856	6,06
689,301	6,2
689,747	6,29
690,193	6,48
690,638	6,58
691,084	6,68
691,529	7
691,974	7,08
692,419	7,54
692,864	7,74
693,309	7,98
693,754	8,23
694,199	8,58
694,643	8,89
695,088	9,36
695,532	9,45
695,977	9,82
696,421	10,16
696,865	10,38
697,309	10,79
697,753	11,19
698,197	11,6
698,64	11,95
699,084	12,24
699,527	12,67
699,971	12,99
700,414	13,34
700,857	13,76
701,3	13,95
701,743	14,33
702,186	14,81
702,629	15,12
703,072	15,46
703,515	15,63
703,957	15,85
704,399	16,23
704,842	16,66
705,284	16,88
705,726	17,29
706,168	17,5
706,61	17,88
707,052	18,17
707,494	18,34
707,935	18,75
708,377	19,05
708,818	19,28
709,26	19,47
709,701	19,64
710,142	20,15
710,583	20,26
711,024	20,47
711,465	20,79
711,905	21,07
712,346	21,16
712,787	21,28
713,227	21,87
713,667	21,9
714,108	22,09
714,548	22,26
714,988	22,75
715,428	22,94
715,868	23,46
716,307	23,11
716,747	23,29
717,186	23,64
717,626	23,89
718,065	24,21
718,504	24,42
718,944	24,44
719,383	24,65
719,822	24,88
720,261	25,09
720,699	25,29
721,138	25
721,576	25,54
722,015	25,58
722,453	25,98
722,892	26,1
723,33	26,19
723,768	26,56
724,206	26,59
724,644	26,64
725,081	26,69
725,519	26,91
725,957	26,9
726,394	27,03
726,832	27,22
727,269	27,34
727,706	27,43
728,143	27,39
728,58	27,47
729,017	27,37
729,454	27,76
729,89	27,7
730,327	27,94
730,764	28,15
731,2	27,98
731,636	27,98
732,072	28,33
732,509	28,35
732,945	28,5
733,38	28,51
733,816	28,41
734,252	28,51
734,688	28,55
735,123	28,7
735,559	28,8
735,994	28,46
736,429	28,88
736,864	28,89
737,299	28,7
737,734	29,29
738,169	28,87
738,604	28,94
739,038	28,94
739,473	29,23
739,907	28,85
740,342	29
740,776	29,29
741,21	29,1
741,644	29,09
742,078	29,05
742,512	29,04
742,946	29,07
743,379	29,01
743,813	28,9
744,246	29,11
744,68	29,2
745,113	28,98
745,546	28,89
745,979	29,04
746,412	29,28
746,845	28,99
747,278	29,01
747,711	28,89
748,143	29,18
748,576	29,1
749,008	29,24
749,441	29,08
749,873	29,05
750,305	28,86
750,737	28,8
751,169	28,68
751,601	28,92
752,032	28,99
752,464	28,65
752,896	28,54
753,327	28,8
753,758	28,65
754,19	28,99
754,621	28,46
755,052	28,52
755,483	28,79
755,914	28,74
756,344	28,66
756,775	28,79
757,206	28,46
757,636	28,47
758,066	28,75
758,497	28,67
758,927	28,92
759,357	28,89
759,787	28,51
760,217	28,57
760,647	28,62
761,076	28,25
761,506	28,41
761,935	28,38
762,365	28,38
762,794	28,3
763,223	28,61
763,653	28,44
764,082	28,12
764,51	28,31
764,939	28,35
765,368	28,1
765,797	28,31
766,225	28,04
766,654	28,26
767,082	28,22
767,51	28,07
767,938	27,91
768,367	28,01
768,795	27,85
769,222	28,37
769,65	28,18
770,078	27,99
770,505	28,03
770,933	27,93
771,36	28
771,788	27,94
772,215	27,75
772,642	27,86
773,069	28,05
773,496	27,68
773,923	27,81
774,349	27,84
774,776	27,92
775,203	27,79
775,629	27,89
776,055	27,73
776,482	27,79
776,908	27,83
777,334	27,57
777,76	27,78
778,186	27,84
778,611	27,84
779,037	27,78
779,463	27,93
779,888	27,86
780,314	27,65
780,739	27,87
781,164	27,67
781,589	27,7
782,014	27,68
782,439	27,58
782,864	27,73
783,289	27,74
783,713	27,62
784,138	27,5
784,562	27,45
784,987	27,67
785,411	27,49
785,835	27,55
786,259	27,48
786,683	27,76
787,107	27,44
787,531	27,62
787,954	27,64
788,378	27,48
788,802	27,53
789,225	27,54
789,648	27,42
790,071	27,29
790,495	27,55
790,918	27,72
791,34	27,48
791,763	27,52
792,186	27,51
792,609	27,56
793,031	27,34
793,454	27,43
793,876	27,81
794,298	27,49
794,721	27,43
795,143	27,65
795,565	27,29
795,986	27,28
796,408	27,51
796,83	27,4
797,252	27,38
797,673	27,53
798,094	27,6
798,516	27,49
798,937	27,37
799,358	27,21
799,779	27,48
800,2	27,57
800,621	27,38
801,042	27,28
801,462	27,33
801,883	27,49
802,303	27,13
802,724	27,35
803,144	27,43
803,564	27,29
803,984	27,54
804,404	27,79
804,824	27,34
805,244	27,31
805,664	27,6
806,084	27,59
806,503	27,38
806,923	27,34
807,342	27,48
807,761	27,4
808,18	27,28
808,599	27,31
809,018	27,29
809,437	27,54
809,856	27,13
810,275	27,32
810,693	27,22
811,112	27,72
811,53	27,39
811,949	27,38
812,367	27,53
812,785	27,46
813,203	27,57
813,621	27,25
814,039	27,14
814,457	27,27
814,874	27,05
815,292	27,19
815,709	27,26
816,127	27,24
816,544	27,47
816,961	27,48
817,378	27,36
817,795	27,34
818,212	27,43
818,629	27,58
819,046	27,14
819,462	27,13
819,879	27,18
820,295	27,27
820,712	27,09
821,128	27
821,544	27,32
821,96	27,12
822,376	27,35
822,792	27,2
823,208	27,21
823,624	27,54
824,039	27,44
824,455	27,32
824,87	26,94
825,286	27,25
825,701	27,13
826,116	27,21
826,531	27,27
826,946	26,97
827,361	27,07
827,776	27,27
828,19	27,15
828,605	26,85
829,02	27,28
829,434	26,94
829,848	27,15
830,263	27,25
830,677	26,94
831,091	27,12
831,505	27,04
831,919	27,21
832,332	27,17
832,746	27,23
833,16	27,11
833,573	27,02
833,987	27,31
834,4	27,11
834,813	26,91
835,226	26,98
835,639	27,07
836,052	27,03
836,465	27,08
836,878	27,31
837,29	27,18
837,703	27,33
838,116	27,02
838,528	27,21
838,94	27,29
839,352	27,25
839,765	26,96
840,177	27,01
840,589	26,98
841	26,85
841,412	27,05
841,824	27
842,235	26,85
842,647	27,01
843,058	27,5
843,47	27,2
843,881	27,21
844,292	26,88
844,703	27,05
845,114	27,12
845,525	26,91
