Data from H1__Relative__2__00137.txt Node

Date: Wed Jan 31 18:40:06 CET 2024
User: diatiterra
Spectrometer: HDX00911
Trigger mode: 0
Integration Time (sec): 6,000000E-3
Scans to average: 2
Nonlinearity correction enabled: false
Boxcar width: 0
Storing dark spectrum: false
XAxis mode: Wavelengths
Number of Pixels in Spectrum: 2068
>>>>>Begin Spectral Data<<<<<
194,468	268,87
195,025	186,36
195,581	250
196,138	280,77
196,694	179,63
197,251	150
197,807	130,71
198,363	130,8
198,919	115,52
199,474	119,49
200,03	131,15
200,586	142,41
201,141	106,77
201,696	114,77
202,251	117,42
202,806	110,84
203,361	125,19
203,916	117,01
204,471	128,83
205,025	138,31
205,58	113,57
206,134	132
206,688	126,54
207,242	146,02
207,796	126,32
208,35	128,26
208,904	119,66
209,457	117,71
210,011	114,18
210,564	120,42
211,117	128,57
211,67	122,76
212,223	125,34
212,776	132,26
213,329	119
213,881	164,71
214,434	117,76
214,986	145,04
215,538	134,56
216,09	115,49
216,642	140,5
217,194	132,2
217,746	127,07
218,297	122,14
218,849	116,54
219,4	136,13
219,951	129,84
220,502	120,61
221,053	137,02
221,604	121,81
222,155	127,38
222,705	116,54
223,256	120,52
223,806	129,53
224,356	129,23
224,906	133,87
225,456	134,11
226,006	123,41
226,556	109,42
227,106	130,65
227,655	118,75
228,204	128,75
228,754	111,62
229,303	118,21
229,852	123,74
230,401	125,37
230,949	124,1
231,498	115,85
232,047	111,36
232,595	121,38
233,143	138,19
233,691	122,09
234,239	115
234,787	122,4
235,335	127,99
235,883	119,93
236,43	123,48
236,978	121,92
237,525	116,42
238,072	109,93
238,619	126,14
239,166	113,12
239,713	122,26
240,26	121,79
240,806	123,26
241,353	131,75
241,899	117,13
242,445	116,06
242,991	126,72
243,537	119,32
244,083	127,86
244,629	119,23
245,174	127,88
245,72	120,37
246,265	119,44
246,81	134
247,355	136,9
247,9	119,78
248,445	128,57
248,99	125
249,534	140
250,079	119,92
250,623	120
251,168	135,95
251,712	133,2
252,256	126,23
252,8	133,08
253,343	117,86
253,887	125,81
254,43	121,76
254,974	129,01
255,517	111,99
256,06	137,69
256,603	121,48
257,146	131,4
257,689	132,28
258,232	136,02
258,774	118,79
259,317	147,46
259,859	136,24
260,401	137,6
260,943	118,44
261,485	123,05
262,027	122,4
262,569	127,61
263,11	131,54
263,652	132,68
264,193	130,58
264,734	127,37
265,275	128,69
265,816	119,85
266,357	129,84
266,898	127,69
267,438	127,56
267,979	115,47
268,519	122,01
269,059	149,53
269,6	126,69
270,14	138,31
270,68	129,35
271,219	130,51
271,759	118,05
272,298	120,68
272,838	125,38
273,377	124,21
273,916	123,02
274,455	127,37
274,994	126,4
275,533	120,65
276,072	135,77
276,61	115,58
277,149	130
277,687	122,18
278,225	111,67
278,763	140,35
279,301	133,33
279,839	124,19
280,377	130,33
280,914	115,03
281,452	142,74
281,989	126,45
282,526	127,17
283,064	133,19
283,601	111,82
284,137	128,1
284,674	130,83
285,211	146,05
285,747	118,18
286,284	152,7
286,82	123,97
287,356	111,84
287,892	127,52
288,428	131,82
288,964	138,24
289,5	142,15
290,035	134,8
290,571	136,55
291,106	130,08
291,641	138,84
292,176	129,3
292,711	136,99
293,246	123,85
293,781	138,43
294,315	113,03
294,85	142,13
295,384	125,41
295,918	119,12
296,453	116,79
296,987	133,47
297,52	132,23
298,054	127,86
298,588	131,67
299,121	123,13
299,655	117,52
300,188	124,17
300,721	125,61
301,254	128,63
301,787	125
302,32	134,15
302,853	120,4
303,385	123,93
303,918	122,09
304,45	123,08
304,982	110,64
305,514	123,26
306,046	119,83
306,578	119,38
307,11	120,54
307,641	127,16
308,173	131,4
308,704	117,36
309,236	119,92
309,767	117,38
310,298	121,37
310,829	136,52
311,359	115,73
311,89	118,49
312,421	136,49
312,951	132,11
313,481	109,31
314,012	120,52
314,542	131,36
315,072	121,37
315,601	123,2
316,131	124,8
316,661	122,5
317,19	119,26
317,72	131,82
318,249	126,19
318,778	123,83
319,307	124,22
319,836	137,61
320,365	127,39
320,893	130,17
321,422	125,2
321,95	128,2
322,479	126,34
323,007	131,36
323,535	120,36
324,063	125,2
324,591	136
325,118	125,55
325,646	141,18
326,173	135,83
326,701	130,08
327,228	135,34
327,755	113,53
328,282	112,98
328,809	137,29
329,336	124,8
329,862	117,65
330,389	114,06
330,915	125,59
331,441	120,99
331,968	128,83
332,494	119,32
333,02	130
333,545	116,42
334,071	133,47
334,597	104,23
335,122	117,04
335,648	128,02
336,173	114,77
336,698	100,32
337,223	112,5
337,748	114,93
338,272	113,36
338,797	122,83
339,322	106,2
339,846	105,51
340,37	129,03
340,894	107,29
341,419	117,29
341,942	108,74
342,466	107,69
342,99	105,03
343,514	108,45
344,037	103,48
344,56	120
345,084	103,08
345,607	107,99
346,13	109,15
346,653	103,33
347,175	100
347,698	95,28
348,221	101,79
348,743	103,42
349,265	102,52
349,787	96,01
350,309	97,47
350,831	96,3
351,353	103,35
351,875	101,17
352,397	105,59
352,918	100,66
353,439	108,28
353,961	89,24
354,482	97,37
355,003	102,91
355,524	94,44
356,044	92,33
356,565	104,82
357,086	95,48
357,606	83,52
358,126	88,3
358,646	78,57
359,167	93,51
359,687	94,63
360,206	89,89
360,726	80,33
361,246	89,1
361,765	91,53
362,285	78,75
362,804	90,53
363,323	87,07
363,842	92,31
364,361	81,84
364,88	84,24
365,398	82,53
365,917	81,84
366,435	92,97
366,954	81,25
367,472	79,95
367,99	89,81
368,508	75,91
369,026	91,14
369,544	81,58
370,061	81,72
370,579	72,13
371,096	86,93
371,613	81,68
372,131	78,15
372,648	73,82
373,165	74,61
373,681	77,22
374,198	83,01
374,715	76,5
375,231	80,49
375,747	77,76
376,264	72,28
376,78	75,36
377,296	80,3
377,812	72,09
378,327	73,84
378,843	72,53
379,359	75,33
379,874	75,61
380,389	71,61
380,905	64,03
381,42	66,57
381,935	70,58
382,449	68,44
382,964	67,29
383,479	65,52
383,993	64,27
384,508	62,2
385,022	63,08
385,536	62,76
386,05	63,39
386,564	62,19
387,078	57,66
387,592	60,58
388,105	61,47
388,619	59,93
389,132	58,31
389,645	60,23
390,158	56,33
390,671	55,09
391,184	53,34
391,697	54,11
392,21	47,36
392,722	52,38
393,235	50
393,747	53,31
394,259	51,78
394,771	50,27
395,283	50,92
395,795	51,59
396,307	49,44
396,818	49,3
397,33	45,24
397,841	47,08
398,353	46,59
398,864	44,69
399,375	43,66
399,886	44,52
400,397	42,73
400,907	43,34
401,418	40,51
401,928	39,97
402,439	39,07
402,949	36,75
403,459	38,14
403,969	36,55
404,479	35,5
404,989	35,58
405,498	34,35
406,008	35,25
406,517	31,88
407,027	31,49
407,536	29,39
408,045	28,45
408,554	27,93
409,063	27,31
409,572	26,91
410,08	25,69
410,589	25,08
411,097	24,45
411,606	23,09
412,114	23,25
412,622	21,89
413,13	21,83
413,638	20,51
414,145	20,22
414,653	20,49
415,16	18,36
415,668	19,24
416,175	17,43
416,682	18,15
417,189	16,52
417,696	16,99
418,203	16,88
418,71	17,42
419,216	16,16
419,723	16,13
420,229	15,85
420,735	15,17
421,242	16,27
421,748	15,1
422,254	14,91
422,759	14,25
423,265	14,88
423,771	13,93
424,276	13,84
424,781	13,77
425,287	13,82
425,792	13,47
426,297	14,02
426,802	13,23
427,306	13,23
427,811	13,31
428,316	13,39
428,82	12,87
429,324	13,31
429,829	12,92
430,333	12,56
430,837	12,69
431,34	12,1
431,844	11,89
432,348	11,99
432,851	11,99
433,355	12,09
433,858	12,54
434,361	12,35
434,864	11,39
435,367	11,86
435,87	12,98
436,373	12,12
436,876	12,57
437,378	12,44
437,88	12,08
438,383	11,65
438,885	11,75
439,387	11,35
439,889	12,09
440,391	11,69
440,892	11,71
441,394	12
441,896	11,83
442,397	12,25
442,898	11,08
443,399	11,93
443,9	11,48
444,401	11,92
444,902	11,3
445,403	11,87
445,903	11,55
446,404	11,69
446,904	11,77
447,405	11,42
447,905	11,91
448,405	12,13
448,905	12,3
449,404	12,09
449,904	11,81
450,404	11,93
450,903	12,08
451,403	12
451,902	12,19
452,401	12,43
452,9	12,47
453,399	12,17
453,898	12,25
454,396	12,32
454,895	12,2
455,393	12,56
455,892	12,68
456,39	12,65
456,888	12,39
457,386	12,41
457,884	12,35
458,382	12,99
458,879	12,49
459,377	13,12
459,874	12,54
460,372	12,8
460,869	13,06
461,366	12,94
461,863	12,58
462,36	13,12
462,857	12,88
463,353	12,57
463,85	12,68
464,346	12,29
464,843	12,91
465,339	12,29
465,835	12,71
466,331	12,78
466,827	12,72
467,323	12,84
467,818	12,74
468,314	12,95
468,809	12,9
469,305	12,61
469,8	12,73
470,295	12,6
470,79	12,73
471,285	12,36
471,78	12,23
472,274	12,41
472,769	12,57
473,263	12,65
473,758	12,74
474,252	12,44
474,746	12,89
475,24	12,74
475,734	12,32
476,228	12,4
476,721	13,05
477,215	12,37
477,708	12,6
478,202	12,7
478,695	12,82
479,188	12,4
479,681	12,54
480,174	13
480,667	12,95
481,159	13,03
481,652	13,3
482,144	12,79
482,637	13,07
483,129	12,8
483,621	13,24
484,113	13,02
484,605	13,18
485,097	13,1
485,588	12,9
486,08	12,91
486,571	13,59
487,063	13,14
487,554	13,44
488,045	13,11
488,536	13,29
489,027	13,3
489,518	13,3
490,008	13,39
490,499	13,5
490,989	13,98
491,48	13,86
491,97	13,82
492,46	13,9
492,95	13,98
493,44	13,82
493,93	14,28
494,419	14,39
494,909	14,24
495,398	14,39
495,888	14,67
496,377	15,03
496,866	15,09
497,355	15,36
497,844	15,11
498,333	15,63
498,821	15,36
499,31	15,78
499,798	16,03
500,287	15,99
500,775	16,71
501,263	16,55
501,751	16,73
502,239	17,02
502,727	16,99
503,215	17,37
503,702	17,77
504,19	17,75
504,677	18,32
505,164	18,66
505,651	18,58
506,139	19
506,625	19,16
507,112	19,9
507,599	19,79
508,086	20,27
508,572	20,56
509,058	20,67
509,545	20,64
510,031	21,51
510,517	21,58
511,003	21,98
511,489	22,49
511,974	22,79
512,46	22,75
512,946	23,53
513,431	24,02
513,916	24,56
514,401	24,79
514,887	24,72
515,371	25,74
515,856	25,93
516,341	25,97
516,826	26,86
517,31	27,48
517,795	27,54
518,279	27,34
518,763	28,13
519,247	28,67
519,731	29,37
520,215	29,66
520,699	30,18
521,182	30,65
521,666	30,69
522,149	31,63
522,633	32,24
523,116	32,18
523,599	32,65
524,082	32,69
524,565	33,12
525,048	33,54
525,53	33,74
526,013	33,77
526,495	35
526,978	34,67
527,46	35,69
527,942	35,56
528,424	35,99
528,906	36,17
529,388	36,19
529,87	37,14
530,351	36,5
530,833	37,38
531,314	37,19
531,795	37,57
532,277	38,1
532,758	38,17
533,238	38,27
533,719	38,52
534,2	38,05
534,681	38,81
535,161	38,8
535,642	39,4
536,122	39,16
536,602	38,84
537,082	39,16
537,562	40,16
538,042	39,54
538,522	39,51
539,001	39,84
539,481	39,85
539,96	39,78
540,44	39,89
540,919	40,01
541,398	40,15
541,877	39,84
542,356	40,09
542,835	39,93
543,313	40,32
543,792	40,59
544,27	40,21
544,749	40,6
545,227	40,76
545,705	41,12
546,183	41,25
546,661	40,89
547,139	40,53
547,616	40,18
548,094	40,89
548,571	40,7
549,049	41,42
549,526	40,83
550,003	41,57
550,48	40,88
550,957	40,72
551,434	40,81
551,911	41,29
552,387	41,25
552,864	41,11
553,34	41,79
553,817	41,43
554,293	41,18
554,769	41,08
555,245	41,49
555,721	41,16
556,197	40,93
556,672	41,55
557,148	41,44
557,623	41,38
558,099	41,01
558,574	41,38
559,049	41,04
559,524	41,49
559,999	40,64
560,474	40,74
560,948	40,42
561,423	40,92
561,897	40,14
562,372	40,79
562,846	40,57
563,32	40,09
563,794	40,41
564,268	40,22
564,742	40,28
565,216	39,53
565,69	39,26
566,163	39,59
566,636	38,7
567,11	39,06
567,583	38,67
568,056	38,88
568,529	38,42
569,002	38,06
569,475	38,27
569,947	37,94
570,42	37,86
570,892	37,23
571,365	37,34
571,837	37,3
572,309	37,05
572,781	36,61
573,253	36,48
573,725	36,29
574,197	35,97
574,668	35,79
575,14	35,27
575,611	35,6
576,082	34,87
576,554	34,74
577,025	34,73
577,496	34,54
577,967	34,15
578,437	33,71
578,908	33,7
579,379	33,35
579,849	33,43
580,319	33,63
580,79	33,27
581,26	32,36
581,73	32,51
582,2	32,41
582,669	32,45
583,139	32,25
583,609	31,95
584,078	32,17
584,548	31,27
585,017	32,07
585,486	31,35
585,955	31,71
586,424	31,45
586,893	31,54
587,362	31,04
587,83	31,19
588,299	30,95
588,767	31,19
589,236	30,58
589,704	30,1
590,172	30,26
590,64	30,06
591,108	30,54
591,576	30,2
592,043	29,74
592,511	29,79
592,978	30,09
593,446	29,53
593,913	29,74
594,38	29,56
594,847	29,46
595,314	29,93
595,781	29,48
596,248	29,22
596,715	29,64
597,181	29,48
597,647	29,42
598,114	29,16
598,58	29,05
599,046	29,09
599,512	28,88
599,978	28,86
600,444	28,81
600,91	28,94
601,375	28,85
601,841	28,99
602,306	28,76
602,771	28,54
603,236	28,51
603,702	28,84
604,167	28,52
604,631	28,28
605,096	28,03
605,561	27,97
606,025	28,15
606,49	28,05
606,954	27,76
607,418	27,71
607,882	27,42
608,347	27,59
608,81	27,46
609,274	27,39
609,738	27,31
610,202	27,44
610,665	27
611,128	26,78
611,592	26,5
612,055	26,27
612,518	26,35
612,981	26,75
613,444	26,34
613,907	25,79
614,369	25,82
614,832	25,89
615,294	25,65
615,757	25,57
616,219	25,71
616,681	25,1
617,143	25,61
617,605	25,25
618,067	24,81
618,529	24,85
618,99	24,93
619,452	24,77
619,913	24,5
620,375	24,44
620,836	24,51
621,297	24,4
621,758	24,36
622,219	24,11
622,68	24,14
623,14	23,9
623,601	24,15
624,061	24,36
624,522	24,03
624,982	24
625,442	24,15
625,902	23,8
626,362	23,98
626,822	23,69
627,282	24,02
627,742	23,8
628,201	23,6
628,661	23,82
629,12	23,59
629,579	23,41
630,038	23,71
630,497	23,79
630,956	23,29
631,415	23,26
631,874	23,23
632,332	23,28
632,791	23,13
633,249	23,24
633,708	23,21
634,166	22,94
634,624	22,79
635,082	23,01
635,54	22,91
635,998	22,43
636,455	22,7
636,913	22,25
637,37	22,15
637,828	21,9
638,285	21,76
638,742	21,67
639,199	21,55
639,656	21,28
640,113	21,23
640,57	20,88
641,027	20,71
641,483	20,6
641,94	20,61
642,396	20,34
642,852	20,07
643,309	19,74
643,765	19,59
644,221	19,43
644,676	18,92
645,132	18,9
645,588	18,98
646,043	18,61
646,499	18,36
646,954	18,28
647,409	18,24
647,864	17,98
648,319	17,64
648,774	17,66
649,229	17,52
649,684	17,48
650,139	17,12
650,593	17,21
651,047	17,32
651,502	17,14
651,956	16,73
652,41	16,79
652,864	16,71
653,318	16,8
653,772	16,64
654,225	16,44
654,679	16,44
655,133	16,46
655,586	16,36
656,039	16,17
656,492	15,82
656,946	16,04
657,399	15,96
657,851	15,76
658,304	15,57
658,757	15,6
659,209	15,45
659,662	15,32
660,114	15,03
660,567	15,03
661,019	14,88
661,471	14,55
661,923	14,6
662,375	14,2
662,826	14,28
663,278	14,17
663,73	13,99
664,181	13,96
664,632	13,83
665,084	13,8
665,535	13,54
665,986	13,5
666,437	13,49
666,888	13,28
667,338	13,24
667,789	13,25
668,24	13,14
668,69	13,19
669,14	13,17
669,591	13,05
670,041	12,91
670,491	13,06
670,941	12,84
671,391	13,06
671,84	12,88
672,29	12,98
672,74	12,96
673,189	13,07
673,638	12,99
674,088	13,1
674,537	13,29
674,986	13,47
675,435	13,46
675,883	13,46
676,332	13,52
676,781	13,8
677,229	13,92
677,678	13,91
678,126	13,97
678,574	14,18
679,022	14,41
679,47	14,49
679,918	14,93
680,366	14,75
680,814	15,17
681,261	15,09
681,709	15,19
682,156	15,42
682,604	15,93
683,051	15,92
683,498	16,44
683,945	16,5
684,392	16,88
684,839	16,95
685,286	17,25
685,732	17,58
686,179	17,86
686,625	18,39
687,071	18,61
687,518	19,16
687,964	19,4
688,41	19,78
688,856	20,26
689,301	20,81
689,747	21,18
690,193	21,73
690,638	22,35
691,084	22,97
691,529	23,46
691,974	24,2
692,419	24,79
692,864	25,86
693,309	26,37
693,754	26,88
694,199	27,66
694,643	28,19
695,088	29,15
695,532	29,93
695,977	30,72
696,421	31,35
696,865	32,06
697,309	32,66
697,753	33,36
698,197	34,04
698,64	34,96
699,084	35,82
699,527	36,26
699,971	36,96
700,414	37,79
700,857	38,33
701,3	38,88
701,743	39,56
702,186	40,25
702,629	40,74
703,072	41,49
703,515	41,84
703,957	42,17
704,399	43,39
704,842	43,73
705,284	44,18
705,726	44,73
706,168	45,08
706,61	45,84
707,052	46
707,494	47,1
707,935	46,98
708,377	47,6
708,818	48,25
709,26	48,27
709,701	48,92
710,142	49,81
710,583	49,74
711,024	50,08
711,465	50,96
711,905	50,85
712,346	50,67
712,787	51,28
713,227	52,22
713,667	52,14
714,108	52,84
714,548	53,18
714,988	53,57
715,428	53,62
715,868	54,54
716,307	54,26
716,747	54,56
717,186	55,01
717,626	55,2
718,065	55,86
718,504	55,66
718,944	56,31
719,383	56,51
719,822	56,86
720,261	56,96
720,699	57,43
721,138	57,03
721,576	58,01
722,015	58,14
722,453	57,78
722,892	58,48
723,33	58,72
723,768	59,07
724,206	58,95
724,644	58,74
725,081	59,58
725,519	59,37
725,957	59,68
726,394	59,95
726,832	59,86
727,269	59,9
727,706	60,47
728,143	60,47
728,58	60,96
729,017	60,2
729,454	60,82
729,89	61,26
730,327	60,87
730,764	61,3
731,2	61,33
731,636	61,15
732,072	61,73
732,509	61,84
732,945	62
733,38	61,37
733,816	61,76
734,252	61,83
734,688	61,94
735,123	61,8
735,559	61,79
735,994	61,95
736,429	62,29
736,864	62,63
737,299	62,46
737,734	62,74
738,169	62,16
738,604	62,41
739,038	62,13
739,473	62,65
739,907	62,08
740,342	62,3
740,776	62,67
741,21	62,39
741,644	62,69
742,078	62,42
742,512	62,46
742,946	62,69
743,379	62,45
743,813	62,28
744,246	62,32
744,68	62,28
745,113	62,34
745,546	62,23
745,979	62,63
746,412	62,2
746,845	62,09
747,278	62,22
747,711	61,92
748,143	61,91
748,576	62,04
749,008	62,42
749,441	61,89
749,873	61,63
750,305	62,11
750,737	62,03
751,169	61,58
751,601	61,58
752,032	61,62
752,464	61,85
752,896	61,27
753,327	61,43
753,758	61,31
754,19	61,62
754,621	61,42
755,052	60,89
755,483	61,44
755,914	61,42
756,344	61,36
756,775	61,54
757,206	61,36
757,636	61,15
758,066	61,46
758,497	61,17
758,927	61,6
759,357	61,62
759,787	60,71
760,217	61
760,647	60,72
761,076	60,87
761,506	60,51
761,935	60,44
762,365	60,68
762,794	60,52
763,223	60,98
763,653	60,84
764,082	60,38
764,51	60,7
764,939	60,28
765,368	60,11
765,797	60,44
766,225	60,25
766,654	60,02
767,082	59,93
767,51	60,27
767,938	60,14
768,367	59,89
768,795	59,66
769,222	60,33
769,65	60,39
770,078	59,91
770,505	60,01
770,933	60,15
771,36	60,35
771,788	59,85
772,215	60,01
772,642	60,29
773,069	59,91
773,496	59,75
773,923	59,46
774,349	59,54
774,776	59,78
775,203	59,18
775,629	59,16
776,055	59,27
776,482	59,61
776,908	59,46
777,334	59,26
777,76	59,52
778,186	59,51
778,611	59,8
779,037	59,54
779,463	59,27
779,888	59,51
780,314	59,31
780,739	59,54
781,164	59,51
781,589	59,02
782,014	59,51
782,439	59,46
782,864	59,56
783,289	59,56
783,713	59,14
784,138	59,29
784,562	59,11
784,987	59,27
785,411	58,88
785,835	59,09
786,259	59,05
786,683	59,25
787,107	59
787,531	59,07
787,954	59,13
788,378	59,42
788,802	59,12
789,225	58,78
789,648	59,08
790,071	58,46
790,495	59,47
790,918	58,98
791,34	58,99
791,763	58,86
792,186	58,99
792,609	58,92
793,031	58,71
793,454	58,96
793,876	58,86
794,298	58,94
794,721	58,9
795,143	59,16
795,565	58,51
795,986	58,74
796,408	58,96
796,83	58,66
797,252	58,63
797,673	59,43
798,094	59,42
798,516	58,72
798,937	59,01
799,358	58,54
799,779	58,69
800,2	59,03
800,621	58,77
801,042	58,69
801,462	59,08
801,883	58,61
802,303	58,49
802,724	58,95
803,144	59,06
803,564	58,61
803,984	59,01
804,404	58,92
804,824	58,9
805,244	59,09
805,664	59,16
806,084	58,82
806,503	58,93
806,923	58,75
807,342	58,93
807,761	58,53
808,18	58,62
808,599	58,54
809,018	58,61
809,437	58,72
809,856	58,4
810,275	58,77
810,693	58,75
811,112	59,16
811,53	58,92
811,949	58,78
812,367	59,38
812,785	59,07
813,203	58,61
813,621	58,56
814,039	58,74
814,457	58,65
814,874	58,17
815,292	58,64
815,709	58,53
816,127	58,61
816,544	58,99
816,961	58,78
817,378	58,9
817,795	58,85
818,212	58,63
818,629	59,3
819,046	58,36
819,462	58,49
819,879	58,32
820,295	58,26
820,712	58,61
821,128	58,7
821,544	58,63
821,96	58,5
822,376	58,32
822,792	58,93
823,208	58,65
823,624	58,75
824,039	58,47
824,455	58,72
824,87	58,06
825,286	58,66
825,701	58,68
826,116	58,63
826,531	58,84
