Data from I2__Relative__0__00142.txt Node

Date: Wed Jan 31 18:40:48 CET 2024
User: diatiterra
Spectrometer: HDX00911
Trigger mode: 0
Integration Time (sec): 6,000000E-3
Scans to average: 2
Nonlinearity correction enabled: false
Boxcar width: 0
Storing dark spectrum: false
XAxis mode: Wavelengths
Number of Pixels in Spectrum: 2068
>>>>>Begin Spectral Data<<<<<
194,468	263,21
195,025	169,09
195,581	237,8
196,138	242,31
196,694	164,81
197,251	136,36
197,807	112,2
198,363	110,4
198,919	98,97
199,474	108,82
200,03	115,98
200,586	120,54
201,141	94,84
201,696	101,68
202,251	107,95
202,806	104,9
203,361	107,41
203,916	109,03
204,471	104,01
205,025	121,37
205,58	111,07
206,134	114
206,688	113,08
207,242	126,11
207,796	104,14
208,35	105,07
208,904	109,31
209,457	90,28
210,011	108,87
210,564	109,15
211,117	110,9
211,67	112,31
212,223	104,45
212,776	121,77
213,329	99,33
213,881	133,33
214,434	109,87
214,986	124,38
215,538	113,6
216,09	104,23
216,642	120,25
217,194	109,85
217,746	110,53
218,297	110,69
218,849	113,24
219,4	118,91
219,951	107,66
220,502	111,49
221,053	109,16
221,604	117,45
222,155	112,7
222,705	95,96
223,256	109,33
223,806	117,72
224,356	109,62
224,906	122,98
225,456	116,28
226,006	110,32
226,556	86,36
227,106	118,95
227,655	95,49
228,204	121,25
228,754	100
229,303	105,36
229,852	101,44
230,401	111,57
230,949	106,12
231,498	103,87
232,047	101,62
232,595	106,55
233,143	118,9
233,691	112,4
234,239	93,93
234,787	107,6
235,335	104,85
235,883	101,4
236,43	118,56
236,978	111,92
237,525	112,41
238,072	104,26
238,619	106,44
239,166	100
239,713	102,55
240,26	98,93
240,806	115,28
241,353	108,33
241,899	101,75
242,445	106,2
242,991	114,12
243,537	102,27
244,083	121,37
244,629	113,46
245,174	119,47
245,72	101,48
246,265	107,94
246,81	118
247,355	119,44
247,9	101,49
248,445	119,05
248,99	110,23
249,534	132,17
250,079	116,92
250,623	106,67
251,168	111,98
251,712	114,06
252,256	122,54
252,8	117,31
253,343	106,07
253,887	110,08
254,43	108,4
254,974	109,92
255,517	100,68
256,06	125,38
256,603	105,19
257,146	109,69
257,689	125,59
258,232	117,8
258,774	106,03
259,317	125
259,859	120,18
260,401	124,81
260,943	101,06
261,485	106,03
262,027	118
262,569	116,42
263,11	105
263,652	131,1
264,193	121,07
264,734	115,33
265,275	119,26
265,816	108,4
266,357	116,67
266,898	116,92
267,438	119,69
267,979	111,51
268,519	114,93
269,059	134,58
269,6	109,4
270,14	126,61
270,68	114,49
271,219	126,27
271,759	107,52
272,298	109,02
272,838	115
273,377	113,1
273,916	99,28
274,455	112,41
274,994	113,6
275,533	100
276,072	119,11
276,61	103,26
277,149	125
277,687	112,03
278,225	103
278,763	128,07
279,301	115,42
279,839	114,52
280,377	113,93
280,914	100,35
281,452	125,21
281,989	117,36
282,526	111,81
283,064	121,01
283,601	97,97
284,137	115,29
284,674	121,67
285,211	121,05
285,747	108,71
286,284	131,08
286,82	122,31
287,356	99,34
287,892	115,12
288,428	120,25
288,964	128,99
289,5	119,01
290,035	116,8
290,571	121,01
291,106	119,51
291,641	123,21
292,176	117,19
292,711	125,61
293,246	112,69
293,781	117,36
294,315	104,93
294,85	135,19
295,384	114,34
295,918	104,41
296,453	98,51
296,987	115,7
297,52	123,55
298,054	112,6
298,588	114,17
299,121	107,84
299,655	112,41
300,188	119,58
300,721	118,29
301,254	112,5
301,787	114,84
302,32	122,36
302,853	110,4
303,385	111,07
303,918	104,26
304,45	117,31
304,982	101,77
305,514	115,89
306,046	115,29
306,578	107,75
307,11	112,02
307,641	121,98
308,173	114,05
308,704	113,22
309,236	103,76
309,767	105,32
310,298	113,31
310,829	110
311,359	119,76
311,89	121,43
312,421	117,12
312,951	118,7
313,481	103,45
314,012	108,58
314,542	120,34
315,072	116,79
315,601	115,2
316,131	126,77
316,661	111,67
317,19	104,07
317,72	129,34
318,249	124,6
318,778	110,94
319,307	109,38
319,836	123,89
320,365	114,35
320,893	119,01
321,422	124,39
321,95	117,67
322,479	108,4
323,007	119,55
323,535	107,5
324,063	117,6
324,591	121,2
325,118	112,77
325,646	121,43
326,173	117,92
326,701	121,14
327,228	119,83
327,755	111,65
328,282	112,21
328,809	130,51
329,336	114,17
329,862	113,24
330,389	99,22
330,915	105,91
331,441	108,02
331,968	126,13
332,494	105,3
333,02	112,92
333,545	110,45
334,071	119,01
334,597	96,48
335,122	101,48
335,648	120,69
336,173	100,38
336,698	99,68
337,223	109,56
337,748	100,35
338,272	100,34
338,797	112,32
339,322	93,07
339,846	97,79
340,37	120,56
340,894	101,39
341,419	104,89
341,942	102,1
342,466	100,32
342,99	99,66
343,514	98,94
344,037	88,92
344,56	111,85
345,084	100,34
345,607	95,49
346,13	103,17
346,653	97,67
347,175	96,47
347,698	94,34
348,221	100
348,743	86,96
349,265	104,68
349,787	90,8
350,309	89,87
350,831	88,58
351,353	89,02
351,875	86,55
352,397	94,41
352,918	93,42
353,439	98,34
353,961	78,49
354,482	90,35
355,003	89,83
355,524	83,61
356,044	83,81
356,565	94,58
357,086	88,7
357,606	76,37
358,126	81,91
358,646	72,96
359,167	81,89
359,687	83,05
360,206	82,79
360,726	73,93
361,246	85,11
361,765	77,12
362,285	76,25
362,804	81,58
363,323	71,71
363,842	77,47
364,361	79,85
364,88	74,38
365,398	70,52
365,917	70,52
366,435	82,81
366,954	76,12
367,472	68,63
367,99	76,78
368,508	66,8
369,026	74,77
369,544	71,27
370,061	69,54
370,579	68,65
371,096	73,39
371,613	64,66
372,131	61,81
372,648	65,55
373,165	63,87
373,681	65,61
374,198	68,75
374,715	66,73
375,231	64,02
375,747	62,07
376,264	60,37
376,78	59,71
377,296	58,92
377,812	58,64
378,327	60,43
378,843	57,68
379,359	59,44
379,874	59,86
380,389	56,78
380,905	52,09
381,42	53,04
381,935	55,95
382,449	56,64
382,964	51,71
383,479	47,13
383,993	50,83
384,508	49,87
385,022	46,24
385,536	47,63
386,05	50
386,564	47,39
387,078	47,01
387,592	43,19
388,105	47,28
388,619	44,42
389,132	43,71
389,645	46,78
390,158	40,56
390,671	38,8
391,184	37,85
391,697	38,98
392,21	37,61
392,722	39,88
393,235	39,68
393,747	40,95
394,259	36,14
394,771	34,64
395,283	34,71
395,795	34,89
396,307	37,66
396,818	34,65
397,33	31,12
397,841	34,69
398,353	33,65
398,864	32,5
399,375	31,55
399,886	34,17
400,397	30,16
400,907	30,98
401,418	29,18
401,928	27,47
402,439	29,32
402,949	25,5
403,459	26,61
403,969	27,83
404,479	26,59
404,989	26,32
405,498	24,45
406,008	23,59
406,517	22,32
407,027	20,46
407,536	21,25
408,045	20,67
408,554	20,02
409,063	18,56
409,572	17,89
410,08	18,73
410,589	18,53
411,097	17,01
411,606	17,08
412,114	16,23
412,622	15,84
413,13	16,19
413,638	15,4
414,145	14,51
414,653	14,16
415,16	13,73
415,668	13,61
416,175	13,07
416,682	12,49
417,189	11,31
417,696	11,84
418,203	12,3
418,71	12,13
419,216	11,97
419,723	11,53
420,229	11,43
420,735	11,39
421,242	10,68
421,748	10,79
422,254	10,11
422,759	10,36
423,265	10,45
423,771	10,42
424,276	10,78
424,781	9,91
425,287	9,83
425,792	10,3
426,297	9,67
426,802	9,55
427,306	9,28
427,811	9,63
428,316	9,52
428,82	9,56
429,324	9,39
429,829	9,11
430,333	9,31
430,837	9,17
431,34	8,95
431,844	8,79
432,348	8,68
432,851	8,92
433,355	8,43
433,858	8,63
434,361	8,38
434,864	8,35
435,367	8,43
435,87	8,78
436,373	8,65
436,876	8,42
437,378	8,71
437,88	8,48
438,383	8,16
438,885	8,44
439,387	8,28
439,889	8,21
440,391	8,14
440,892	7,97
441,394	8,26
441,896	8,14
442,397	8,08
442,898	8,11
443,399	8,14
443,9	8,24
444,401	8,09
444,902	7,69
445,403	8
445,903	7,99
446,404	8,72
446,904	7,85
447,405	7,63
447,905	7,85
448,405	8,14
448,905	7,87
449,404	8,14
449,904	7,93
450,404	7,91
450,903	8,06
451,403	7,47
451,902	8,22
452,401	8,17
452,9	8,18
453,399	7,88
453,898	8
454,396	7,86
454,895	7,79
455,393	7,83
455,892	7,51
456,39	7,72
456,888	8,01
457,386	8,04
457,884	7,96
458,382	7,98
458,879	7,88
459,377	8,03
459,874	7,57
460,372	7,83
460,869	7,63
461,366	7,71
461,863	7,69
462,36	7,96
462,857	8,06
463,353	7,4
463,85	7,89
464,346	7,68
464,843	7,95
465,339	7,61
465,835	8,3
466,331	7,64
466,827	7,7
467,323	7,81
467,818	7,62
468,314	7,56
468,809	7,61
469,305	7,56
469,8	7,61
470,295	7,51
470,79	7,81
471,285	7,31
471,78	7,51
472,274	7,56
472,769	7,3
473,263	7,31
473,758	7,49
474,252	7,37
474,746	7,62
475,24	7,61
475,734	7,51
476,228	7,42
476,721	7,09
477,215	7,42
477,708	7,42
478,202	7,47
478,695	7,57
479,188	7,24
479,681	7,78
480,174	7,62
480,667	7,46
481,159	7,42
481,652	7,33
482,144	7,38
482,637	7,4
483,129	7,49
483,621	7,45
484,113	7,6
484,605	7,37
485,097	7,68
485,588	7,5
486,08	7,36
486,571	7,76
487,063	7,45
487,554	7,73
488,045	7,72
488,536	7,72
489,027	7,48
489,518	7,56
490,008	7,22
490,499	7,56
490,989	7,65
491,48	7,33
491,97	7,78
492,46	7,74
492,95	7,47
493,44	7,45
493,93	7,58
494,419	7,69
494,909	7,55
495,398	7,71
495,888	7,46
496,377	7,81
496,866	7,95
497,355	7,66
497,844	7,93
498,333	8,25
498,821	7,66
499,31	8,12
499,798	8,25
500,287	8,2
500,775	8,35
501,263	8,4
501,751	8,38
502,239	8,39
502,727	8,36
503,215	8,71
503,702	9,12
504,19	8,48
504,677	9,03
505,164	9,19
505,651	9,3
506,139	9,34
506,625	9,46
507,112	9,37
507,599	9,64
508,086	9,54
508,572	10,23
509,058	10,13
509,545	9,87
510,031	10,24
510,517	10,66
511,003	10,53
511,489	10,75
511,974	11,08
512,46	11,12
512,946	11,23
513,431	11,81
513,916	11,81
514,401	12,18
514,887	12,33
515,371	12,7
515,856	13,02
516,341	13,23
516,826	13,01
517,31	13,59
517,795	13,9
518,279	13,82
518,763	14,51
519,247	14,8
519,731	15,22
520,215	15,1
520,699	15,4
521,182	15,58
521,666	16,24
522,149	16,33
522,633	16,81
523,116	17,27
523,599	17,38
524,082	17,23
524,565	17,72
525,048	18,22
525,53	18,53
526,013	18,92
526,495	19,16
526,978	19,12
527,46	19,42
527,942	19,62
528,424	19,98
528,906	20,09
529,388	20,25
529,87	20,85
530,351	20,72
530,833	20,9
531,314	21,13
531,795	20,93
532,277	21,5
532,758	21,56
533,238	21,44
533,719	21,94
534,2	21,9
534,681	22,2
535,161	22,7
535,642	22,91
536,122	21,96
536,602	22,71
537,082	22,82
537,562	22,85
538,042	22,72
538,522	22,93
539,001	22,6
539,481	23,56
539,96	23,01
540,44	23,05
540,919	22,99
541,398	23,13
541,877	23,45
542,356	23,22
542,835	23,3
543,313	23,3
543,792	23,54
544,27	23,48
544,749	23,4
545,227	23,64
545,705	23,49
546,183	24,04
546,661	23,83
547,139	24,03
547,616	23,85
548,094	23,78
548,571	23,93
549,049	24,19
549,526	24,03
550,003	23,91
550,48	23,93
550,957	23,95
551,434	23,83
551,911	24,16
552,387	24,16
552,864	24,3
553,34	24,21
553,817	24,18
554,293	24,29
554,769	24,17
555,245	23,92
555,721	24,29
556,197	23,89
556,672	24,1
557,148	24,3
557,623	23,95
558,099	24,06
558,574	24
559,049	23,67
559,524	23,93
559,999	23,83
560,474	23,59
560,948	23,37
561,423	23,66
561,897	23,23
562,372	23,5
562,846	23,22
563,32	23,19
563,794	22,98
564,268	23,25
564,742	22,95
565,216	22,6
565,69	22,37
566,163	22,73
566,636	22,17
567,11	21,96
567,583	21,75
568,056	21,83
568,529	21,66
569,002	21,43
569,475	21,12
569,947	21,14
570,42	20,86
570,892	20,78
571,365	20,4
571,837	20,27
572,309	20,09
572,781	19,91
573,253	19,87
573,725	19,67
574,197	19,4
574,668	19,41
575,14	19,05
575,611	19,15
576,082	18,62
576,554	18,69
577,025	18,76
577,496	18,14
577,967	18,02
578,437	18,06
578,908	18,01
579,379	17,95
579,849	17,6
580,319	17,54
580,79	17,37
581,26	17,2
581,73	17,14
582,2	17,01
582,669	16,83
583,139	16,92
583,609	16,71
584,078	16,59
584,548	16,5
585,017	16,46
585,486	16,33
585,955	16,39
586,424	16,36
586,893	16,01
587,362	16,16
587,83	16,04
588,299	15,76
588,767	15,73
589,236	15,73
589,704	15,41
590,172	15,62
590,64	15,47
591,108	15,35
591,576	15,45
592,043	15,18
592,511	15,13
592,978	15,38
593,446	14,78
593,913	15,09
594,38	14,97
594,847	14,9
595,314	15,15
595,781	14,8
596,248	14,87
596,715	14,68
597,181	14,69
597,647	14,71
598,114	14,79
598,58	14,48
599,046	14,68
599,512	14,9
599,978	14,42
600,444	14,59
600,91	14,4
601,375	14,49
601,841	14,45
602,306	14,51
602,771	14,3
603,236	14,32
603,702	14,44
604,167	14,55
604,631	14,25
605,096	14,23
605,561	14,01
606,025	14,05
606,49	13,68
606,954	13,99
607,418	13,84
607,882	13,49
608,347	13,54
608,81	13,38
609,274	13,46
609,738	13,36
610,202	13,45
610,665	13,17
611,128	13
611,592	12,89
612,055	12,97
612,518	12,84
612,981	12,89
613,444	12,62
613,907	12,41
614,369	12,36
614,832	12,49
615,294	12,44
615,757	12,21
616,219	12,37
616,681	12,15
617,143	12,08
617,605	12,19
618,067	12,02
618,529	11,83
618,99	11,79
619,452	11,65
619,913	11,67
620,375	11,59
620,836	11,58
621,297	11,78
621,758	11,47
622,219	11,67
622,68	11,43
623,14	11,29
623,601	11,12
624,061	11,46
624,522	11,19
624,982	11,54
625,442	11,29
625,902	11,11
626,362	11,14
626,822	11,26
627,282	11,31
627,742	11,31
628,201	11,17
628,661	11,23
629,12	11,17
629,579	11,01
630,038	11,03
630,497	11,07
630,956	10,95
631,415	10,93
631,874	11,06
632,332	10,75
632,791	10,8
633,249	10,78
633,708	11,02
634,166	10,77
634,624	10,48
635,082	10,53
635,54	10,79
635,998	10,29
636,455	10,48
636,913	10,34
637,37	10,34
637,828	9,97
638,285	10,07
638,742	9,96
639,199	9,83
639,656	9,71
640,113	9,75
640,57	9,47
641,027	9,5
641,483	9,57
641,94	9,4
642,396	9,16
642,852	9,18
643,309	9,09
643,765	9,01
644,221	8,85
644,676	8,75
645,132	8,67
645,588	8,64
646,043	8,5
646,499	8,4
646,954	8,29
647,409	8,35
647,864	8,15
648,319	8,21
648,774	8,02
649,229	8,15
649,684	8,02
650,139	7,82
650,593	7,94
651,047	7,89
651,502	7,8
651,956	7,75
652,41	7,64
652,864	7,77
653,318	7,71
653,772	7,71
654,225	7,74
654,679	7,57
655,133	7,56
655,586	7,52
656,039	7,5
656,492	7,46
656,946	7,46
657,399	7,38
657,851	7,46
658,304	7,42
658,757	7,28
659,209	7,2
659,662	7,31
660,114	7,07
660,567	7,19
661,019	7,17
661,471	7
661,923	7,02
662,375	7,03
662,826	7,03
663,278	6,94
663,73	6,86
664,181	6,96
664,632	6,94
665,084	7
665,535	6,93
665,986	6,81
666,437	6,87
666,888	6,86
667,338	6,99
667,789	7,02
668,24	6,95
668,69	7,09
669,14	7,04
669,591	7,08
670,041	7,1
670,491	7,13
670,941	7,22
671,391	7,28
671,84	7,34
672,29	7,37
672,74	7,51
673,189	7,5
673,638	7,47
674,088	7,68
674,537	7,71
674,986	7,84
675,435	7,83
675,883	8,01
676,332	8,12
676,781	8,13
677,229	8,36
677,678	8,4
678,126	8,43
678,574	8,65
679,022	8,76
679,47	8,88
679,918	8,98
680,366	9,04
680,814	9,13
681,261	9,31
681,709	9,48
682,156	9,43
682,604	9,64
683,051	9,73
683,498	9,77
683,945	9,92
684,392	9,91
684,839	10,02
685,286	10,2
685,732	10,18
686,179	10,24
686,625	10,44
687,071	10,38
687,518	10,57
687,964	10,78
688,41	10,86
688,856	10,98
689,301	11,1
689,747	11,28
690,193	11,31
690,638	11,53
691,084	11,94
691,529	12,16
691,974	12,48
692,419	12,87
692,864	13,3
693,309	13,54
693,754	14,01
694,199	14,2
694,643	14,68
695,088	15,25
695,532	15,81
695,977	16,23
696,421	16,69
696,865	17,28
697,309	17,71
697,753	18,28
698,197	18,77
698,64	19,35
699,084	19,94
699,527	20,41
699,971	20,96
700,414	21,62
700,857	21,97
701,3	22,38
701,743	23,28
702,186	23,53
702,629	24,17
703,072	24,82
703,515	24,96
703,957	25,43
704,399	25,99
704,842	26,72
705,284	27,29
705,726	27,72
706,168	28,19
706,61	28,77
707,052	29,26
707,494	29,78
707,935	30,15
708,377	30,78
708,818	31,06
709,26	31,51
709,701	31,98
710,142	32,68
710,583	32,68
711,024	33,04
711,465	33,57
711,905	34,01
712,346	34,13
712,787	34,89
713,227	35,25
713,667	35,74
714,108	36,39
714,548	36,53
714,988	37,19
715,428	37,33
715,868	37,81
716,307	38,22
716,747	38,47
717,186	38,62
717,626	39,18
718,065	39,6
718,504	39,69
718,944	40,22
719,383	40,92
719,822	40,94
720,261	41,2
720,699	41,11
721,138	41,36
721,576	42,05
722,015	42,32
722,453	42,56
722,892	42,45
723,33	43,23
723,768	43,61
724,206	43,82
724,644	43,94
725,081	44,08
725,519	44,17
725,957	44,38
726,394	44,75
726,832	44,97
727,269	45,04
727,706	45,59
728,143	45,25
728,58	45,88
729,017	45,77
729,454	46,19
729,89	46,4
730,327	46,22
730,764	46,75
731,2	46,65
731,636	46,8
732,072	47,13
732,509	47,07
732,945	47,4
733,38	47,45
733,816	47,71
734,252	47,73
734,688	47,72
735,123	47,56
735,559	48,02
735,994	47,89
736,429	48,26
736,864	48,42
737,299	48,09
737,734	48,38
738,169	48,19
738,604	48,2
739,038	48,24
739,473	48,25
739,907	48,54
740,342	48,75
740,776	48,6
741,21	48,34
741,644	48,74
742,078	48,55
742,512	48,62
742,946	49,1
743,379	48,31
743,813	48,63
744,246	48,62
744,68	48,57
745,113	48,63
745,546	48,59
745,979	48,76
746,412	48,61
746,845	48,74
747,278	48,57
747,711	48,4
748,143	48,74
748,576	48,71
749,008	48,82
749,441	48,35
749,873	48,42
750,305	48,48
750,737	48,5
751,169	48,14
751,601	48,01
752,032	48,26
752,464	48,13
752,896	47,96
753,327	48,05
753,758	48,24
754,19	48,21
754,621	47,95
755,052	47,69
755,483	47,99
755,914	48,14
756,344	47,72
756,775	48,03
757,206	48,04
757,636	47,56
758,066	47,82
758,497	47,45
758,927	47,85
759,357	48,1
759,787	47,63
760,217	47,95
760,647	47,45
761,076	47,36
761,506	47,18
761,935	47,03
762,365	47,73
762,794	47,29
763,223	47,49
763,653	47,36
764,082	47,19
764,51	47,42
764,939	47,12
765,368	47,15
765,797	46,94
766,225	47,2
766,654	46,89
767,082	46,87
767,51	46,99
767,938	46,78
768,367	47,06
768,795	46,87
769,222	47,04
769,65	46,9
770,078	46,51
770,505	46,91
770,933	46,8
771,36	47
771,788	46,74
772,215	46,58
772,642	46,58
773,069	46,72
773,496	46,69
773,923	46,8
774,349	46,26
774,776	46,46
775,203	46,25
775,629	46,56
776,055	46,34
776,482	46,38
776,908	46,48
777,334	46,18
777,76	46,27
778,186	46,19
778,611	46,52
779,037	46,47
779,463	46,04
779,888	46,29
780,314	46,09
780,739	46,48
781,164	46,38
781,589	46,3
782,014	46,22
782,439	46,25
782,864	46,14
783,289	46,38
783,713	45,93
784,138	46,03
784,562	45,78
784,987	45,98
785,411	45,73
785,835	45,7
786,259	45,71
786,683	46,23
787,107	46,19
787,531	46,25
787,954	46,1
788,378	46,05
788,802	45,88
789,225	45,95
789,648	46,15
790,071	45,55
790,495	45,8
790,918	45,94
791,34	46,17
791,763	45,83
792,186	45,72
792,609	45,99
793,031	46,13
793,454	45,56
793,876	45,91
794,298	45,85
794,721	45,64
795,143	45,95
795,565	45,68
795,986	45,63
796,408	45,87
796,83	45,7
797,252	45,58
797,673	45,91
798,094	46,1
798,516	45,9
798,937	46,1
799,358	45,57
799,779	45,73
800,2	45,68
800,621	45,66
801,042	45,84
801,462	45,78
801,883	45,55
802,303	45,58
802,724	45,77
803,144	45,66
803,564	45,74
803,984	45,61
804,404	45,72
804,824	45,66
805,244	45,74
805,664	45,9
806,084	45,91
806,503	46,14
806,923	45,7
807,342	45,7
807,761	45,43
808,18	45,57
808,599	45,65
809,018	45,61
809,437	45,79
809,856	45,65
810,275	45,68
810,693	45,61
811,112	45,85
811,53	45,89
811,949	45,79
812,367	45,87
812,785	46,09
813,203	45,83
813,621	45,88
814,039	45,92
814,457	45,89
814,874	45,58
815,292	45,35
815,709	45,44
816,127	45,98
816,544	45,66
816,961	45,51
817,378	45,81
817,795	45,61
818,212	45,85
818,629	45,82
819,046	45,64
819,462	45,42
819,879	45,33
820,295	45,57
820,712	45,42
821,128	45,37
821,544	45,33
821,96	45,5
822,376	45,58
822,792	45,59
823,208	45,75
823,624	45,75
824,039	45,56
824,455	45,45
824,87	45,28
825,286	45,53
825,701	45,26
826,116	45,64
826,531	45,81
826,946	45,34
827,361	45,09
827,776	45,09
828,19	45,2
828,605	45,11
829,02	45,03
829,434	45,27
829,848	45,42
830,263	45,36
830,677	45,26
831,091	45,54
831,505	45,12
831,919	45,43
832,332	45,5
832,746	45,61
833,16	45,11
833,573	45,09
833,987	45,67
834,4	45,2
834,813	44,83
