Data from L5__Relative__4__00163.txt Node

Date: Wed Jan 31 18:44:21 CET 2024
User: diatiterra
Spectrometer: HDX00911
Trigger mode: 0
Integration Time (sec): 6,000000E-3
Scans to average: 2
Nonlinearity correction enabled: false
Boxcar width: 0
Storing dark spectrum: false
XAxis mode: Wavelengths
Number of Pixels in Spectrum: 2068
>>>>>Begin Spectral Data<<<<<
194,468	283,02
195,025	183,64
195,581	253,66
196,138	270,51
196,694	175,31
197,251	151,01
197,807	124,8
198,363	114
198,919	110,34
199,474	115,44
200,03	132,79
200,586	133,04
201,141	104,84
201,696	108,05
202,251	115,15
202,806	115,03
203,361	129,26
203,916	110,07
204,471	115,33
205,025	131,85
205,58	119,29
206,134	122,8
206,688	115,38
207,242	137,61
207,796	125,19
208,35	115,58
208,904	121,38
209,457	106,6
210,011	114,89
210,564	117,96
211,117	120,68
211,67	122,01
212,223	114,38
212,776	129,84
213,329	114
213,881	150
214,434	107,24
214,986	136,78
215,538	131,25
216,09	113,03
216,642	135,95
217,194	118,56
217,746	118,8
218,297	125,95
218,849	124,26
219,4	133,61
219,951	129,84
220,502	128,04
221,053	133,97
221,604	118,79
222,155	125
222,705	114,71
223,256	130,6
223,806	131,89
224,356	126,92
224,906	137,9
225,456	137,6
226,006	129,37
226,556	93,83
227,106	131,05
227,655	115,62
228,204	132,92
228,754	123,94
229,303	123,93
229,852	114,39
230,401	124,63
230,949	124,46
231,498	113,03
232,047	108,44
232,595	125,52
233,143	131,5
233,691	127,52
234,239	115
234,787	120
235,335	123,13
235,883	117,13
236,43	128,41
236,978	131,92
237,525	115,69
238,072	119,15
238,619	130,3
239,166	118,09
239,713	119,34
240,26	120,36
240,806	124,31
241,353	127,38
241,899	117,83
242,445	121,17
242,991	123,66
243,537	114,77
244,083	125,95
244,629	122,69
245,174	137,17
245,72	129,26
246,265	123,41
246,81	135,6
247,355	132,14
247,9	120,9
248,445	129,76
248,99	126,89
249,534	150
250,079	123,31
250,623	121,48
251,168	135,95
251,712	132,81
252,256	134,43
252,8	133,85
253,343	122,5
253,887	122,58
254,43	132,06
254,974	122,52
255,517	119,18
256,06	136,54
256,603	125,56
257,146	130,62
257,689	135,04
258,232	138,56
258,774	118,79
259,317	132,63
259,859	145,41
260,401	141,47
260,943	118,79
261,485	116,31
262,027	129,2
262,569	132,46
263,11	121,92
263,652	141,73
264,193	132,23
264,734	120,8
265,275	131,97
265,816	123,28
266,357	130,62
266,898	126,92
267,438	131,89
267,979	117,63
268,519	123,51
269,059	147,2
269,6	125,94
270,14	137,1
270,68	129,71
271,219	134,75
271,759	122,18
272,298	120,68
272,838	127,69
273,377	126,59
273,916	113,67
274,455	124,09
274,994	126
275,533	117,39
276,072	124,8
276,61	117,03
277,149	132,08
277,687	124,44
278,225	106,67
278,763	152,63
279,301	131,67
279,839	129,03
280,377	136,89
280,914	110,49
281,452	140,6
281,989	125,21
282,526	129,92
283,064	134,87
283,601	105,07
284,137	123,97
284,674	131,67
285,211	141,23
285,747	114,02
286,284	146,4
286,82	125,62
287,356	109,21
287,892	121,32
288,428	129,34
288,964	140,34
289,5	140,08
290,035	130,8
290,571	126,89
291,106	125,2
291,641	140,18
292,176	118,36
292,711	129,67
293,246	127,69
293,781	133,47
294,315	107,75
294,85	146,3
295,384	120,9
295,918	118,75
296,453	113,06
296,987	114,88
297,52	134,3
298,054	120,61
298,588	130,83
299,121	114,93
299,655	114,6
300,188	132,5
300,721	136,59
301,254	127,02
301,787	119,14
302,32	138,62
302,853	126,8
303,385	125
303,918	125,97
304,45	129,62
304,982	107,09
305,514	118,99
306,046	130,99
306,578	121,32
307,11	131,01
307,641	134,91
308,173	116,53
308,704	125,21
309,236	117,29
309,767	111,35
310,298	120,16
310,829	133,91
311,359	125,4
311,89	121,01
312,421	136,04
312,951	133,33
313,481	103,1
314,012	123,51
314,542	127,54
315,072	119,08
315,601	121,2
316,131	126,77
316,661	120,83
317,19	114,07
317,72	126,45
318,249	123,02
318,778	126,56
319,307	119,53
319,836	129,2
320,365	124,35
320,893	131,82
321,422	130,89
321,95	125,19
322,479	125,95
323,007	135,45
323,535	114,29
324,063	124,4
324,591	128,4
325,118	117,52
325,646	138,24
326,173	113,33
326,701	132,11
327,228	139,66
327,755	116,17
328,282	117,56
328,809	127,97
329,336	128,74
329,862	120,59
330,389	117,19
330,915	122,83
331,441	116,03
331,968	143,69
332,494	120,45
333,02	127,5
333,545	120,52
334,071	133,06
334,597	106,69
335,122	113,7
335,648	136,21
336,173	116,29
336,698	108,54
337,223	121,69
337,748	114,93
338,272	120,21
338,797	124,64
339,322	113,87
339,846	110,66
340,37	132,66
340,894	113,54
341,419	123,68
341,942	113,29
342,466	107,37
342,99	104,7
343,514	109,51
344,037	102,85
344,56	120,37
345,084	109,25
345,607	117,36
346,13	112,32
346,653	111,33
347,175	113,46
347,698	100,63
348,221	112,14
348,743	104,04
349,265	112,95
349,787	95,71
350,309	98,42
350,831	107,72
351,353	106,1
351,875	93,86
352,397	110,84
352,918	104,61
353,439	107,95
353,961	91,57
354,482	101,17
355,003	94,48
355,524	97,78
356,044	90,91
356,565	103,92
357,086	98,87
357,606	77,47
358,126	89,89
358,646	85,2
359,167	93,78
359,687	99,44
360,206	92,62
360,726	78,44
361,246	92,82
361,765	95,48
362,285	81,75
362,804	88,42
363,323	80,49
363,842	90,93
364,361	84,58
364,88	82,27
365,398	76,42
365,917	84,43
366,435	91,41
366,954	78,35
367,472	83,25
367,99	84,83
368,508	73,48
369,026	87,05
369,544	76,54
370,061	77,73
370,579	78,07
371,096	85,55
371,613	74,78
372,131	73,03
372,648	75
373,165	74,02
373,681	74,89
374,198	77,73
374,715	72,74
375,231	75
375,747	70
376,264	67,01
376,78	72,12
377,296	74,72
377,812	66,94
378,327	68,54
378,843	67,58
379,359	69,87
379,874	69,38
380,389	64,83
380,905	65,67
381,42	60,94
381,935	62,5
382,449	61,95
382,964	62,71
383,479	61,21
383,993	58,45
384,508	58,53
385,022	54,79
385,536	56,05
386,05	56,96
386,564	58,71
387,078	53,95
387,592	49,88
388,105	55,44
388,619	50,89
389,132	49,55
389,645	51,03
390,158	49,79
390,671	47,76
391,184	46,66
391,697	45,79
392,21	43,26
392,722	47,92
393,235	46,06
393,747	48,44
394,259	45,79
394,771	43,6
395,283	44,14
395,795	41,14
396,307	46,73
396,818	40,88
397,33	39,2
397,841	38,94
398,353	40,89
398,864	39,05
399,375	39,48
399,886	37,67
400,397	37,5
400,907	36,61
401,418	33,99
401,928	34,7
402,439	33,64
402,949	31,44
403,459	31,78
403,969	33,5
404,479	31,19
404,989	30,66
405,498	29,76
406,008	29,56
406,517	28,15
407,027	25,41
407,536	26,56
408,045	25,95
408,554	24,86
409,063	23,18
409,572	23,96
410,08	23,56
410,589	23,08
411,097	21,14
411,606	20,98
412,114	20,29
412,622	20,19
413,13	19,28
413,638	18,65
414,145	17,9
414,653	17,17
415,16	17,12
415,668	17,1
416,175	15,68
416,682	15,65
417,189	14,78
417,696	15,4
418,203	15,61
418,71	14,84
419,216	13,41
419,723	14,44
420,229	13,49
420,735	14,12
421,242	13,9
421,748	13,41
422,254	12,72
422,759	13,06
423,265	12,98
423,771	13,27
424,276	12,39
424,781	12,65
425,287	12,46
425,792	11,72
426,297	12,67
426,802	11,57
427,306	12,55
427,811	11,76
428,316	12,05
428,82	11,96
429,324	11,7
429,829	11,73
430,333	11,5
430,837	11,7
431,34	11,88
431,844	11,12
432,348	11,15
432,851	10,97
433,355	11,12
433,858	11,27
434,361	10,71
434,864	10,86
435,367	10,55
435,87	11,44
436,373	10,57
436,876	10,79
437,378	10,84
437,88	10,72
438,383	10,98
438,885	11
439,387	10,99
439,889	10,93
440,391	10,47
440,892	10,88
441,394	10,65
441,896	10,26
442,397	10,19
442,898	10,15
443,399	10,6
443,9	10,47
444,401	10,15
444,902	10,39
445,403	10,3
445,903	9,92
446,404	10,95
446,904	10,7
447,405	10,05
447,905	10,05
448,405	10,27
448,905	10,61
449,404	10,63
449,904	10,34
450,404	10,38
450,903	10,64
451,403	10,54
451,902	10,53
452,401	10,64
452,9	10,68
453,399	10,51
453,898	10,14
454,396	10,74
454,895	10,19
455,393	10,12
455,892	10,27
456,39	10,37
456,888	10,59
457,386	10,29
457,884	10,45
458,382	11,15
458,879	10,69
459,377	10,94
459,874	10,37
460,372	10,19
460,869	10,81
461,366	10,08
461,863	10,3
462,36	10,44
462,857	10,84
463,353	10,5
463,85	10,86
464,346	10
464,843	10,44
465,339	10,18
465,835	10,63
466,331	10,41
466,827	10,33
467,323	10,68
467,818	10,43
468,314	10,39
468,809	10,24
469,305	10,35
469,8	10,6
470,295	10,23
470,79	10,27
471,285	10,36
471,78	10,02
472,274	10,7
472,769	10,51
473,263	10,19
473,758	10,25
474,252	10,53
474,746	10,15
475,24	10,19
475,734	9,99
476,228	10,51
476,721	10,04
477,215	10,19
477,708	10,22
478,202	10,03
478,695	10,53
479,188	10,2
479,681	10,05
480,174	10,22
480,667	10,73
481,159	10,2
481,652	10,53
482,144	10,62
482,637	10,57
483,129	10,07
483,621	10,12
484,113	10,72
484,605	10,35
485,097	10,46
485,588	10,59
486,08	10,28
486,571	10,74
487,063	10,47
487,554	10,5
488,045	10,31
488,536	10,54
489,027	10,5
489,518	10,56
490,008	10,18
490,499	10,77
490,989	10,51
491,48	10,75
491,97	10,94
492,46	11,03
492,95	11,04
493,44	11,23
493,93	11,19
494,419	11,04
494,909	11,03
495,398	11,31
495,888	11,27
496,377	11,43
496,866	11,18
497,355	11,5
497,844	11,15
498,333	11,85
498,821	11,65
499,31	11,85
499,798	11,96
500,287	11,96
500,775	12,42
501,263	12,22
501,751	12,18
502,239	12,27
502,727	12,59
503,215	12,67
503,702	12,61
504,19	12,69
504,677	13,39
505,164	13,22
505,651	13,48
506,139	13,54
506,625	13,77
507,112	13,77
507,599	14,06
508,086	14,62
508,572	14,8
509,058	15,22
509,545	14,72
510,031	15,3
510,517	15,59
511,003	15,67
511,489	16,38
511,974	16,53
512,46	16,2
512,946	17
513,431	17,33
513,916	17,64
514,401	17,68
514,887	17,8
515,371	18,38
515,856	18,76
516,341	19,08
516,826	19,49
517,31	19,5
517,795	20,11
518,279	20,43
518,763	21,13
519,247	21,61
519,731	21,57
520,215	21,98
520,699	22,42
521,182	22,6
521,666	22,97
522,149	23,45
522,633	23,83
523,116	24,17
523,599	24,65
524,082	24,97
524,565	25,46
525,048	25,71
525,53	25,86
526,013	26,35
526,495	27,16
526,978	26,67
527,46	27,12
527,942	27,48
528,424	28,03
528,906	27,97
529,388	27,9
529,87	28,66
530,351	28,68
530,833	29,04
531,314	29,57
531,795	29,21
532,277	29,64
532,758	29,82
533,238	30,12
533,719	29,75
534,2	30,12
534,681	30,18
535,161	30,44
535,642	30,85
536,122	30,5
536,602	30,94
537,082	30,96
537,562	31,45
538,042	31,07
538,522	31,27
539,001	31,55
539,481	31,46
539,96	31,46
540,44	31,5
540,919	31,64
541,398	31,38
541,877	31,61
542,356	32,2
542,835	31,28
543,313	32,16
543,792	32,69
544,27	32,19
544,749	32,19
545,227	32,37
545,705	32,28
546,183	32,7
546,661	32,38
547,139	32,32
547,616	32,5
548,094	32,65
548,571	32,55
549,049	33,35
549,526	32,74
550,003	32,81
550,48	32,38
550,957	32,87
551,434	32,98
551,911	33
552,387	32,82
552,864	32,59
553,34	33,55
553,817	32,69
554,293	32,66
554,769	33,12
555,245	33,04
555,721	32,47
556,197	32,84
556,672	32,89
557,148	32,9
557,623	33,16
558,099	32,67
558,574	32,94
559,049	32,39
559,524	32,75
559,999	32,55
560,474	32,27
560,948	32,19
561,423	32,44
561,897	31,99
562,372	31,79
562,846	32,27
563,32	31,63
563,794	31,94
564,268	31,69
564,742	31,31
565,216	31,26
565,69	30,84
566,163	31,1
566,636	30,45
567,11	30,61
567,583	30,14
568,056	30,14
568,529	30,34
569,002	29,55
569,475	29,62
569,947	29,58
570,42	29,61
570,892	28,8
571,365	28,5
571,837	28,63
572,309	28,36
572,781	28,09
573,253	28,13
573,725	27,67
574,197	27,5
574,668	27,14
575,14	26,63
575,611	26,7
576,082	26,21
576,554	26,16
577,025	26,37
577,496	26,01
577,967	25,6
578,437	25,96
578,908	25,55
579,379	25,43
579,849	25,63
580,319	25,15
580,79	24,92
581,26	24,91
581,73	24,31
582,2	24,18
582,669	24
583,139	24,31
583,609	24,05
584,078	24,21
584,548	24,1
585,017	23,81
585,486	23,58
585,955	23,55
586,424	23,53
586,893	23,48
587,362	22,91
587,83	23,12
588,299	22,9
588,767	23,31
589,236	22,53
589,704	22,67
590,172	22,51
590,64	22,68
591,108	22,43
591,576	22,25
592,043	22,51
592,511	22,07
592,978	22,36
593,446	22,01
593,913	21,84
594,38	21,82
594,847	21,95
595,314	21,83
595,781	21,88
596,248	21,74
596,715	21,65
597,181	21,69
597,647	21,35
598,114	21,6
598,58	21,43
599,046	21,52
599,512	21,7
599,978	21,18
600,444	21,19
600,91	21,26
601,375	21,31
601,841	21,27
602,306	21,13
602,771	21,23
603,236	21,18
603,702	20,95
604,167	20,98
604,631	21,01
605,096	20,91
605,561	20,84
606,025	20,93
606,49	20,69
606,954	20,46
607,418	20,37
607,882	20,06
608,347	20,44
608,81	20,06
609,274	19,75
609,738	19,76
610,202	19,81
610,665	19,87
611,128	19,43
611,592	19,34
612,055	19,31
612,518	19,23
612,981	19,1
613,444	18,89
613,907	18,93
614,369	18,72
614,832	18,65
615,294	18,57
615,757	18,4
616,219	18,6
616,681	18,2
617,143	18,14
617,605	18,17
618,067	17,93
618,529	17,89
618,99	17,9
619,452	17,72
619,913	17,54
620,375	17,62
620,836	17,64
621,297	17,63
621,758	17,8
622,219	17,31
622,68	17,42
623,14	17,24
623,601	17,16
624,061	17,27
624,522	17,18
624,982	17,23
625,442	17,4
625,902	17,14
626,362	17,03
626,822	16,98
627,282	17,17
627,742	17,04
628,201	17,02
628,661	16,89
629,12	16,8
629,579	16,71
630,038	17,1
630,497	17,08
630,956	16,75
631,415	16,99
631,874	16,82
632,332	16,83
632,791	16,65
633,249	16,63
633,708	16,92
634,166	16,67
634,624	16,31
635,082	16,56
635,54	16,34
635,998	16,34
636,455	16,17
636,913	16,09
637,37	16,12
637,828	15,83
638,285	15,67
638,742	15,79
639,199	15,58
639,656	15,37
640,113	15,34
640,57	15,25
641,027	15,05
641,483	15
641,94	14,86
642,396	14,77
642,852	14,82
643,309	14,34
643,765	14,22
644,221	14,11
644,676	14,04
645,132	14,01
645,588	13,94
646,043	13,71
646,499	13,55
646,954	13,5
647,409	13,34
647,864	13,2
648,319	13,03
648,774	13,22
649,229	13,03
649,684	12,96
650,139	12,82
650,593	12,63
651,047	12,75
651,502	12,61
651,956	12,42
652,41	12,53
652,864	12,23
653,318	12,46
653,772	12,38
654,225	12,3
654,679	12,29
655,133	12,2
655,586	12,13
656,039	12,16
656,492	12
656,946	11,84
657,399	11,87
657,851	11,77
658,304	11,67
658,757	11,69
659,209	11,58
659,662	11,51
660,114	11,33
660,567	11,36
661,019	11,18
661,471	11,07
661,923	11,12
662,375	10,9
662,826	10,84
663,278	10,83
663,73	10,8
664,181	10,73
664,632	10,66
665,084	10,74
665,535	10,59
665,986	10,63
666,437	10,64
666,888	10,46
667,338	10,49
667,789	10,55
668,24	10,59
668,69	10,5
669,14	10,46
669,591	10,56
670,041	10,67
670,491	10,57
670,941	10,7
671,391	10,6
671,84	10,52
672,29	10,8
672,74	10,77
673,189	10,84
673,638	10,73
674,088	10,82
674,537	10,98
674,986	11,14
675,435	11,16
675,883	11,27
676,332	11,43
676,781	11,44
677,229	11,59
677,678	11,62
678,126	11,6
678,574	11,93
679,022	12,01
679,47	12,05
679,918	12,12
680,366	12,24
680,814	12,41
681,261	12,6
681,709	12,7
682,156	12,73
682,604	12,86
683,051	13,09
683,498	13,18
683,945	13,19
684,392	13,39
684,839	13,65
685,286	13,81
685,732	13,81
686,179	14,07
686,625	14,27
687,071	14,43
687,518	14,73
687,964	14,9
688,41	15,01
688,856	15,23
689,301	15,64
689,747	15,82
690,193	16,18
690,638	16,61
691,084	16,91
691,529	17,44
691,974	17,92
692,419	18,31
692,864	19,12
693,309	19,26
693,754	19,88
694,199	20,59
694,643	20,94
695,088	21,57
695,532	22,29
695,977	22,93
696,421	23,4
696,865	24,04
697,309	24,84
697,753	25,34
698,197	26,11
698,64	26,66
699,084	27,18
699,527	28
699,971	28,57
700,414	29,26
700,857	29,75
701,3	30,4
701,743	31,15
702,186	31,69
702,629	32,64
703,072	33,2
703,515	33,62
703,957	33,91
704,399	34,87
704,842	35,32
705,284	35,76
705,726	36,55
706,168	37,15
706,61	37,62
707,052	37,94
707,494	38,63
707,935	38,88
708,377	39,77
708,818	40,25
709,26	40,42
709,701	41,07
710,142	41,72
710,583	41,94
711,024	42,69
711,465	43,03
711,905	43,49
712,346	43,7
712,787	43,88
713,227	44,73
713,667	44,86
714,108	45,65
714,548	45,91
714,988	46,62
715,428	47,14
715,868	47,36
716,307	47,64
716,747	47,97
717,186	48,3
717,626	48,69
718,065	49,43
718,504	49,49
718,944	49,97
719,383	50,3
719,822	50,65
720,261	50,66
720,699	51,14
721,138	51,02
721,576	51,87
722,015	52,29
722,453	52,18
722,892	52,58
723,33	53,09
723,768	53,55
724,206	53,53
724,644	53,66
725,081	53,91
725,519	54,42
725,957	54,17
726,394	54,81
726,832	54,77
727,269	55,15
727,706	55,26
728,143	55,25
728,58	55,97
729,017	55,57
729,454	55,94
729,89	56,5
730,327	56,46
730,764	56,66
731,2	56,44
731,636	56,53
732,072	57,25
732,509	57,17
732,945	57,41
733,38	57,09
733,816	57,29
734,252	57,56
734,688	57,83
735,123	57,87
735,559	57,79
735,994	57,74
736,429	58,17
736,864	58,34
737,299	58,07
737,734	58,12
738,169	58,28
738,604	58,49
739,038	57,95
739,473	58,29
739,907	58,5
740,342	58,5
740,776	58,66
741,21	58,92
741,644	58,82
742,078	58,64
742,512	58,79
742,946	59,04
743,379	58,52
743,813	58,42
744,246	58,6
744,68	58,4
745,113	58,25
745,546	58,58
745,979	58,9
746,412	58,68
746,845	58,72
747,278	58,4
747,711	58,3
748,143	58,35
748,576	58,65
749,008	58,86
749,441	58,4
749,873	57,88
750,305	58,21
750,737	58,02
751,169	58,13
751,601	58,35
752,032	58,03
752,464	57,64
752,896	57,62
753,327	58,17
753,758	57,75
754,19	58,2
754,621	57,84
755,052	57,5
755,483	58,09
755,914	57,65
756,344	57,84
756,775	57,98
757,206	57,8
757,636	57,43
758,066	57,82
758,497	57,73
758,927	57,74
759,357	57,57
759,787	57,62
760,217	57,44
760,647	56,99
761,076	57,23
761,506	56,85
761,935	57,07
762,365	57,38
762,794	57,1
763,223	57,17
763,653	57,29
764,082	56,96
764,51	56,97
764,939	56,98
765,368	56,58
765,797	56,81
766,225	56,94
766,654	56,83
767,082	56,41
767,51	56,69
767,938	56,55
768,367	56,24
768,795	56,33
769,222	57
769,65	56,88
770,078	56,28
770,505	56,6
770,933	56,52
771,36	56,61
771,788	56,44
772,215	56,78
772,642	56,46
773,069	56,38
773,496	56,23
773,923	55,82
774,349	55,83
774,776	56,3
775,203	55,91
775,629	55,89
776,055	55,53
776,482	55,51
776,908	55,78
777,334	55,87
777,76	56,06
778,186	55,87
778,611	56,26
779,037	56,16
779,463	55,96
779,888	55,63
780,314	55,57
780,739	56,21
781,164	55,68
781,589	55,88
782,014	55,71
782,439	55,94
782,864	55,64
783,289	55,8
783,713	55,51
784,138	55,76
784,562	55,44
784,987	55,38
785,411	55,43
785,835	55,39
786,259	55,4
786,683	55,52
787,107	55,72
787,531	55,44
787,954	55,83
788,378	55,67
788,802	55,65
789,225	55,41
789,648	55,57
790,071	54,84
790,495	55,62
790,918	55,35
791,34	55,58
791,763	55,04
792,186	55,21
792,609	55,23
793,031	55,11
793,454	55,3
793,876	55,59
794,298	55,27
794,721	54,97
795,143	55,29
795,565	55,35
795,986	54,96
796,408	55,54
796,83	55,13
797,252	55,24
797,673	55,3
798,094	55,94
798,516	54,99
798,937	55,57
799,358	54,64
799,779	55,08
800,2	55,39
800,621	55,23
801,042	54,55
801,462	55,3
801,883	54,97
802,303	54,72
802,724	54,97
803,144	54,94
803,564	55,39
803,984	55,38
804,404	54,96
804,824	55,03
805,244	55,29
805,664	55,5
806,084	55,43
806,503	55,39
806,923	54,94
807,342	54,92
807,761	54,81
808,18	55,1
808,599	54,59
809,018	54,67
809,437	55,15
809,856	54,76
810,275	55,25
810,693	54,68
811,112	55,52
811,53	55,3
811,949	55,15
812,367	55,33
812,785	54,95
813,203	55,05
813,621	54,92
814,039	54,82
814,457	54,93
814,874	54,71
815,292	54,86
815,709	54,84
816,127	55,03
816,544	55,18
816,961	55
817,378	55,41
817,795	54,95
818,212	54,76
818,629	55,34
819,046	54,93
819,462	54,61
819,879	54,72
820,295	54,69
820,712	54,89
821,128	54,74
821,544	54,76
821,96	55,17
822,376	54,54
822,792	54,96
823,208	54,75
823,624	55,22
824,039	54,65
824,455	55,12
824,87	54,45
825,286	54,97
825,701	54,98
826,116	54,57
826,531	55,03
826,946	54,63
