Data from L5__Relative__5__00164.txt Node

Date: Wed Jan 31 18:44:24 CET 2024
User: diatiterra
Spectrometer: HDX00911
Trigger mode: 0
Integration Time (sec): 6,000000E-3
Scans to average: 2
Nonlinearity correction enabled: false
Boxcar width: 0
Storing dark spectrum: false
XAxis mode: Wavelengths
Number of Pixels in Spectrum: 2068
>>>>>Begin Spectral Data<<<<<
194,468	264,15
195,025	158,18
195,581	250
196,138	255,13
196,694	156,79
197,251	133,84
197,807	101,57
198,363	105,6
198,919	88,28
199,474	105,15
200,03	114,75
200,586	111,61
201,141	87,74
201,696	95,3
202,251	95,08
202,806	89,16
203,361	104,07
203,916	100
204,471	104,74
205,025	111,69
205,58	95
206,134	110,8
206,688	110,77
207,242	115,49
207,796	99,25
208,35	105,43
208,904	105,17
209,457	91,67
210,011	89,01
210,564	99,3
211,117	98,12
211,67	98,88
212,223	97,6
212,776	109,27
213,329	93,33
213,881	133,82
214,434	92,11
214,986	111,98
215,538	109,56
216,09	94,37
216,642	117,36
217,194	114,39
217,746	103,38
218,297	97,33
218,849	99,26
219,4	110,92
219,951	106,45
220,502	95,95
221,053	111,83
221,604	100,67
222,155	105,16
222,705	99,26
223,256	106,34
223,806	109,06
224,356	105,77
224,906	118,15
225,456	117,44
226,006	107,14
226,556	86,69
227,106	106,45
227,655	89,58
228,204	106,25
228,754	96,83
229,303	97,5
229,852	92,45
230,401	104,1
230,949	99,64
231,498	95,77
232,047	93,51
232,595	104,14
233,143	106,69
233,691	103,1
234,239	95,36
234,787	98
235,335	99,63
235,883	97,2
236,43	95,45
236,978	103,85
237,525	102,19
238,072	96,1
238,619	101,52
239,166	92,91
239,713	100,36
240,26	97,86
240,806	106,94
241,353	102,38
241,899	91,26
242,445	99,64
242,991	105,34
243,537	101,89
244,083	107,63
244,629	101,15
245,174	108,41
245,72	105,93
246,265	101,19
246,81	102,8
247,355	108,33
247,9	92,91
248,445	107,54
248,99	98,86
249,534	126,52
250,079	95,86
250,623	101,11
251,168	111,98
251,712	102,73
252,256	112,3
252,8	108,46
253,343	106,43
253,887	101,21
254,43	104,2
254,974	104,58
255,517	93,49
256,06	111,15
256,603	95,56
257,146	105,04
257,689	112,99
258,232	116,53
258,774	104,96
259,317	113,56
259,859	114,22
260,401	117,44
260,943	96,45
261,485	101,77
262,027	103,6
262,569	109,7
263,11	103,46
263,652	116,54
264,193	105,79
264,734	98,91
265,275	106,15
265,816	101,91
266,357	109,3
266,898	105,77
267,438	116,54
267,979	95,68
268,519	107,84
269,059	131,31
269,6	110,9
270,14	114,11
270,68	105,07
271,219	115,25
271,759	100,75
272,298	110,53
272,838	109,23
273,377	111,51
273,916	99,64
274,455	106,2
274,994	110,8
275,533	97,83
276,072	111,79
276,61	107,25
277,149	114,17
277,687	104,51
278,225	103,67
278,763	121,05
279,301	103,75
279,839	110,89
280,377	105,74
280,914	93,01
281,452	121,79
281,989	114,88
282,526	115,35
283,064	121,85
283,601	99,32
284,137	107,02
284,674	109,17
285,211	114,47
285,747	109,85
286,284	124,32
286,82	104,96
287,356	97,7
287,892	113,57
288,428	112,4
288,964	124,37
289,5	114,05
290,035	98,4
290,571	112,61
291,106	112,2
291,641	124,11
292,176	106,64
292,711	112,6
293,246	112,69
293,781	111,16
294,315	85,56
294,85	114,81
295,384	106,56
295,918	95,96
296,453	98,13
296,987	102,89
297,52	118,6
298,054	99,62
298,588	107,5
299,121	97,39
299,655	98,91
300,188	106,67
300,721	105,69
301,254	112,5
301,787	105,47
302,32	121,54
302,853	105,6
303,385	101,79
303,918	103,1
304,45	108,46
304,982	98,94
305,514	105,43
306,046	101,24
306,578	104,65
307,11	103,49
307,641	115,52
308,173	112,4
308,704	101,65
309,236	96,99
309,767	106,74
310,298	103,63
310,829	115,22
311,359	107,26
311,89	121,01
312,421	117,57
312,951	105,28
313,481	93,79
314,012	96,27
314,542	117,37
315,072	99,62
315,601	109,2
316,131	118,11
316,661	107,08
317,19	104,81
317,72	114,46
318,249	114,68
318,778	106,25
319,307	103,12
319,836	112,39
320,365	109,57
320,893	98,35
321,422	116,67
321,95	116,54
322,479	109,16
323,007	118,18
323,535	102,5
324,063	122,8
324,591	106,8
325,118	108,76
325,646	126,89
326,173	107,5
326,701	116,67
327,228	118,97
327,755	96,99
328,282	101,53
328,809	119,07
329,336	109,06
329,862	103,31
330,389	100,39
330,915	105,91
331,441	110,69
331,968	119,37
332,494	96,97
333,02	101,25
333,545	95,15
334,071	116,12
334,597	95,07
335,122	96,67
335,648	115,95
336,173	93,94
336,698	87,66
337,223	92,65
337,748	97,92
338,272	97,6
338,797	99,28
339,322	93,07
339,846	89,71
340,37	114,92
340,894	92,01
341,419	94,74
341,942	95,8
342,466	91,03
342,99	89,6
343,514	88,03
344,037	84,18
344,56	102,59
345,084	91,1
345,607	93,75
346,13	91,55
346,653	92,33
347,175	88,14
347,698	86,16
348,221	88,57
348,743	86,34
349,265	87,05
349,787	78,22
350,309	78,48
350,831	81,17
351,353	81,4
351,875	79,24
352,397	85,66
352,918	84,87
353,439	90,07
353,961	75,29
354,482	79,53
355,003	76,16
355,524	75,56
356,044	67,61
356,565	78,31
357,086	79,1
357,606	63,46
358,126	69,95
358,646	69,9
359,167	80
359,687	72,32
360,206	72,95
360,726	63,98
361,246	72,34
361,765	69,77
362,285	62,25
362,804	75,26
363,323	64,63
363,842	65,11
364,361	68,66
364,88	63,3
365,398	63,32
365,917	57,55
366,435	74,48
366,954	63,84
367,472	64,86
367,99	65,88
368,508	57,89
369,026	65,23
369,544	63,82
370,061	63,24
370,579	55,74
371,096	64,22
371,613	61,85
372,131	54,33
372,648	58,66
373,165	52,54
373,681	58,02
374,198	57,62
374,715	56,58
375,231	56,06
375,747	55
376,264	46,6
376,78	51,08
377,296	52,97
377,812	50,83
378,327	51,16
378,843	52,56
379,359	51,66
379,874	52,25
380,389	47,48
380,905	42,84
381,42	43,77
381,935	47,56
382,449	44,25
382,964	42,86
383,479	41,09
383,993	43,63
384,508	44,23
385,022	38,86
385,536	40,53
386,05	40,03
386,564	39,68
387,078	37,68
387,592	39,66
388,105	38,42
388,619	36,61
389,132	35,39
389,645	36,67
390,158	32,73
390,671	33,81
391,184	33,2
391,697	32,57
392,21	31,33
392,722	30,75
393,235	31,24
393,747	32,2
394,259	30,06
394,771	29,98
395,283	29,67
395,795	28,36
396,307	31,68
396,818	29,65
397,33	25,09
397,841	28,05
398,353	27,94
398,864	28,28
399,375	25,54
399,886	26,33
400,397	25,58
400,907	25,27
401,418	22,46
401,928	22,92
402,439	22,97
402,949	21,19
403,459	21,04
403,969	21,36
404,479	20,11
404,989	20,75
405,498	21,13
406,008	19,43
406,517	17,07
407,027	17,3
407,536	17,35
408,045	15,57
408,554	15,22
409,063	15,3
409,572	14,9
410,08	14,78
410,589	14,86
411,097	14,41
411,606	13,69
412,114	12,91
412,622	12,78
413,13	12,38
413,638	11,99
414,145	10,88
414,653	11,78
415,16	10,4
415,668	10,28
416,175	10,1
416,682	9,46
417,189	9,15
417,696	9,15
418,203	9,47
418,71	9,1
419,216	8,94
419,723	9,08
420,229	8,59
420,735	8,5
421,242	8,65
421,748	8,25
422,254	8,37
422,759	7,89
423,265	8,35
423,771	8,08
424,276	8,09
424,781	7,43
425,287	7,47
425,792	7,54
426,297	7,47
426,802	7,25
427,306	7,38
427,811	7,17
428,316	7,54
428,82	7,06
429,324	7,39
429,829	7,31
430,333	6,65
430,837	6,99
431,34	6,56
431,844	6,41
432,348	6,27
432,851	6,25
433,355	6,73
433,858	6,51
434,361	6,26
434,864	6,22
435,367	5,94
435,87	6,77
436,373	6,51
436,876	6,27
437,378	5,91
437,88	6,12
438,383	6,04
438,885	5,84
439,387	6,01
439,889	6,14
440,391	6,15
440,892	5,65
441,394	6,04
441,896	5,93
442,397	5,99
442,898	5,6
443,399	6,04
443,9	5,97
444,401	5,4
444,902	5,63
445,403	5,84
445,903	5,8
446,404	5,59
446,904	5,8
447,405	5,39
447,905	5,49
448,405	5,77
448,905	5,94
449,404	5,91
449,904	5,52
450,404	5,5
450,903	5,77
451,403	5,26
451,902	5,64
452,401	5,68
452,9	5,51
453,399	5,68
453,898	5,34
454,396	5,65
454,895	5,57
455,393	5,67
455,892	5,33
456,39	5,51
456,888	5,71
457,386	5,52
457,884	5,7
458,382	5,62
458,879	5,58
459,377	6,04
459,874	5,4
460,372	5,77
460,869	5,6
461,366	5,48
461,863	5,62
462,36	5,48
462,857	5,71
463,353	5,39
463,85	5,52
464,346	5,22
464,843	5,44
465,339	5,23
465,835	5,55
466,331	5,48
466,827	5,41
467,323	5,38
467,818	5,54
468,314	4,99
468,809	5,34
469,305	5,13
469,8	5,38
470,295	5,34
470,79	5,35
471,285	5,11
471,78	4,94
472,274	5,33
472,769	5,31
473,263	5,35
473,758	5,06
474,252	5,02
474,746	5,35
475,24	5,07
475,734	5,01
476,228	5,24
476,721	5,26
477,215	4,89
477,708	5,19
478,202	5,32
478,695	5,18
479,188	5,19
479,681	5,17
480,174	5,14
480,667	5,25
481,159	5,18
481,652	5,49
482,144	5,31
482,637	5,41
483,129	5,23
483,621	5,43
484,113	5,25
484,605	5,32
485,097	5,24
485,588	5,3
486,08	5,24
486,571	5,38
487,063	5,16
487,554	5,42
488,045	5,48
488,536	5,34
489,027	5,46
489,518	5,38
490,008	5,2
490,499	5,39
490,989	5,45
491,48	5,41
491,97	5,3
492,46	5,5
492,95	5,44
493,44	5,84
493,93	5,61
494,419	5,55
494,909	5,4
495,398	5,81
495,888	5,75
496,377	5,8
496,866	5,74
497,355	5,93
497,844	5,94
498,333	6,14
498,821	5,98
499,31	6,13
499,798	6,33
500,287	6,2
500,775	6,36
501,263	6,55
501,751	6,52
502,239	6,62
502,727	6,53
503,215	6,59
503,702	7,09
504,19	6,68
504,677	7,18
505,164	7,54
505,651	7,45
506,139	7,52
506,625	7,77
507,112	7,63
507,599	7,88
508,086	7,97
508,572	8,24
509,058	8,61
509,545	8,52
510,031	8,73
510,517	8,9
511,003	8,74
511,489	9,34
511,974	9,61
512,46	9,9
512,946	9,72
513,431	10,13
513,916	10,29
514,401	10,54
514,887	10,88
515,371	10,97
515,856	11,16
516,341	11,18
516,826	11,24
517,31	11,8
517,795	11,74
518,279	12,07
518,763	12,46
519,247	12,64
519,731	13,16
520,215	13,33
520,699	13,58
521,182	13,59
521,666	13,99
522,149	14,25
522,633	14,65
523,116	14,97
523,599	14,97
524,082	15,01
524,565	15,52
525,048	15,58
525,53	15,8
526,013	16,35
526,495	16,42
526,978	16,4
527,46	16,78
527,942	16,88
528,424	17,11
528,906	17,49
529,388	17,26
529,87	17,94
530,351	17,61
530,833	18,09
531,314	18,14
531,795	18,27
532,277	18,88
532,758	18,41
533,238	18,73
533,719	18,61
534,2	18,43
534,681	18,99
535,161	18,89
535,642	19,3
536,122	19,01
536,602	19,14
537,082	19,04
537,562	19,64
538,042	19,54
538,522	19,57
539,001	19,51
539,481	19,6
539,96	19,26
540,44	19,34
540,919	19,71
541,398	19,71
541,877	19,72
542,356	19,64
542,835	19,56
543,313	19,5
543,792	20,07
544,27	19,72
544,749	19,93
545,227	19,91
545,705	20,06
546,183	20,38
546,661	20,09
547,139	19,87
547,616	20,07
548,094	20,28
548,571	20,21
549,049	20,31
549,526	20,11
550,003	20,27
550,48	20,15
550,957	20,27
551,434	20,13
551,911	20,4
552,387	20,1
552,864	20,24
553,34	20,62
553,817	20,41
554,293	20,45
554,769	20,43
555,245	20,26
555,721	20,34
556,197	20,68
556,672	20,18
557,148	20,45
557,623	20,13
558,099	20,14
558,574	20,51
559,049	19,88
559,524	20,16
559,999	20,07
560,474	19,74
560,948	19,74
561,423	20,14
561,897	19,7
562,372	19,77
562,846	19,73
563,32	19,67
563,794	19,61
564,268	19,74
564,742	19,43
565,216	19,19
565,69	19,35
566,163	18,96
566,636	18,66
567,11	19,03
567,583	18,84
568,056	18,59
568,529	18,37
569,002	18,35
569,475	18,18
569,947	17,91
570,42	18,18
570,892	17,87
571,365	17,95
571,837	17,66
572,309	17,36
572,781	17,28
573,253	17,31
573,725	16,97
574,197	16,9
574,668	16,96
575,14	16,52
575,611	16,68
576,082	16,17
576,554	16,05
577,025	16,3
577,496	16,07
577,967	15,71
578,437	15,87
578,908	15,58
579,379	15,59
579,849	15,42
580,319	15,21
580,79	15,42
581,26	15,04
581,73	15,02
582,2	14,81
582,669	14,87
583,139	14,67
583,609	14,66
584,078	14,82
584,548	14,69
585,017	14,73
585,486	14,21
585,955	14,53
586,424	14,19
586,893	14,25
587,362	13,99
587,83	14,08
588,299	14,01
588,767	13,95
589,236	13,8
589,704	13,65
590,172	13,6
590,64	13,62
591,108	13,38
591,576	13,46
592,043	13,55
592,511	13,4
592,978	13,56
593,446	13,39
593,913	13,3
594,38	13,45
594,847	13,11
595,314	13,1
595,781	13,13
596,248	12,94
596,715	13,1
597,181	13,16
597,647	13,01
598,114	12,78
598,58	12,79
599,046	13,19
599,512	12,76
599,978	12,87
600,444	12,69
600,91	12,74
601,375	12,78
601,841	12,61
602,306	12,78
602,771	12,75
603,236	12,47
603,702	12,97
604,167	12,77
604,631	12,59
605,096	12,45
605,561	12,42
606,025	12,31
606,49	12,26
606,954	12,38
607,418	12,17
607,882	12,22
608,347	12,06
608,81	12,14
609,274	11,84
609,738	11,8
610,202	11,76
610,665	11,76
611,128	11,62
611,592	11,48
612,055	11,63
612,518	11,41
612,981	11,37
613,444	11,49
613,907	11,27
614,369	11,15
614,832	11,19
615,294	10,94
615,757	11,09
616,219	11,14
616,681	10,71
617,143	10,94
617,605	10,63
618,067	10,59
618,529	10,52
618,99	10,66
619,452	10,44
619,913	10,52
620,375	10,47
620,836	10,46
621,297	10,5
621,758	10,39
622,219	10,25
622,68	10,31
623,14	10,25
623,601	10,23
624,061	10,23
624,522	10,05
624,982	9,95
625,442	10,12
625,902	10,08
626,362	9,96
626,822	10,21
627,282	10,04
627,742	9,86
628,201	9,93
628,661	10,12
629,12	10
629,579	9,76
630,038	9,95
630,497	9,88
630,956	9,87
631,415	9,8
631,874	9,67
632,332	9,7
632,791	9,56
633,249	9,54
633,708	9,64
634,166	9,5
634,624	9,43
635,082	9,44
635,54	9,41
635,998	9,22
636,455	9,18
636,913	9,15
637,37	8,96
637,828	8,79
638,285	8,78
638,742	8,75
639,199	8,55
639,656	8,42
640,113	8,44
640,57	8,03
641,027	8,04
641,483	8,01
641,94	8,09
642,396	7,8
642,852	7,78
643,309	7,59
643,765	7,47
644,221	7,37
644,676	7,28
645,132	7,11
645,588	7,13
646,043	6,91
646,499	6,85
646,954	6,86
647,409	6,74
647,864	6,7
648,319	6,71
648,774	6,64
649,229	6,5
649,684	6,44
650,139	6,3
650,593	6,21
651,047	6,32
651,502	6,2
651,956	6,2
652,41	6,2
652,864	6,03
653,318	6,22
653,772	6,13
654,225	6,03
654,679	6,06
655,133	5,97
655,586	5,94
656,039	5,87
656,492	5,94
656,946	5,9
657,399	5,91
657,851	5,88
658,304	5,78
658,757	5,74
659,209	5,7
659,662	5,62
660,114	5,63
660,567	5,45
661,019	5,5
661,471	5,37
661,923	5,3
662,375	5,25
662,826	5,27
663,278	5,24
663,73	5,06
664,181	5,1
664,632	5,05
665,084	5,07
665,535	5,02
665,986	4,94
666,437	5,1
666,888	4,93
667,338	4,93
667,789	4,97
668,24	4,92
668,69	4,91
669,14	4,89
669,591	4,93
670,041	4,89
670,491	4,91
670,941	4,97
671,391	5,01
671,84	5,04
672,29	5,07
672,74	5,13
673,189	5,19
673,638	5,21
674,088	5,23
674,537	5,33
674,986	5,35
675,435	5,45
675,883	5,42
676,332	5,57
676,781	5,77
677,229	5,69
677,678	5,81
678,126	5,83
678,574	5,95
679,022	6,05
679,47	6,15
679,918	6,27
680,366	6,38
680,814	6,52
681,261	6,41
681,709	6,69
682,156	6,77
682,604	6,97
683,051	6,87
683,498	7,15
683,945	7,15
684,392	7,37
684,839	7,43
685,286	7,56
685,732	7,68
686,179	7,86
686,625	8,07
687,071	8,17
687,518	8,37
687,964	8,49
688,41	8,73
688,856	8,9
689,301	9,14
689,747	9,38
690,193	9,79
690,638	9,89
691,084	10,37
691,529	10,61
691,974	10,89
692,419	11,42
692,864	11,8
693,309	12,15
693,754	12,45
694,199	12,93
694,643	13,31
695,088	13,67
695,532	14,14
695,977	14,63
696,421	15,14
696,865	15,51
697,309	15,92
697,753	16,38
698,197	16,97
698,64	17,38
699,084	17,69
699,527	18,26
699,971	18,47
700,414	19,02
700,857	19,45
701,3	19,84
701,743	20,27
702,186	20,71
702,629	21,17
703,072	21,41
703,515	21,67
703,957	22,18
704,399	22,64
704,842	22,83
705,284	23,19
705,726	23,65
706,168	23,88
706,61	24,36
707,052	24,63
707,494	24,96
707,935	25,14
708,377	25,56
708,818	25,98
709,26	26,06
709,701	26,33
710,142	26,93
710,583	26,93
711,024	27,26
711,465	27,43
711,905	27,83
712,346	27,87
712,787	27,89
713,227	28,59
713,667	28,75
714,108	29,23
714,548	29,32
714,988	29,43
715,428	29,78
715,868	30,12
716,307	29,91
716,747	30,31
717,186	30,6
717,626	30,71
718,065	31,26
718,504	31,18
718,944	31,3
719,383	31,96
719,822	31,33
720,261	32,11
720,699	32,11
721,138	32,02
721,576	32,57
722,015	32,63
722,453	32,75
722,892	32,92
723,33	33,29
723,768	33,47
724,206	33,2
724,644	33,49
725,081	33,8
725,519	33,56
725,957	33,72
726,394	33,9
726,832	34
727,269	34,16
727,706	33,96
728,143	34,42
728,58	34,54
729,017	34,39
729,454	34,61
729,89	34,78
730,327	34,97
730,764	34,85
731,2	34,94
731,636	35
732,072	35,1
732,509	35,14
732,945	35,25
733,38	35,19
733,816	35,55
734,252	35,45
734,688	35,45
735,123	35,31
735,559	35,61
735,994	35,57
736,429	35,81
736,864	35,65
737,299	35,74
737,734	35,96
738,169	35,99
738,604	35,86
739,038	35,55
739,473	35,9
739,907	35,76
740,342	35,77
740,776	36,03
741,21	35,71
741,644	35,93
742,078	35,87
742,512	35,72
742,946	35,97
743,379	35,81
743,813	35,9
744,246	35,72
744,68	35,88
745,113	35,68
745,546	35,71
745,979	35,97
746,412	35,92
746,845	35,73
747,278	35,96
747,711	35,81
748,143	35,69
748,576	35,69
749,008	35,75
749,441	35,5
749,873	35,48
750,305	35,69
750,737	35,46
751,169	35,21
751,601	35,32
752,032	35,39
752,464	35,54
752,896	35,14
753,327	35,26
753,758	35,02
754,19	35,26
754,621	35,13
755,052	35,06
755,483	35,22
755,914	35,25
756,344	34,96
756,775	35,5
757,206	34,95
757,636	35,23
758,066	35,28
758,497	34,99
758,927	35,28
759,357	35,12
759,787	35,02
760,217	34,83
760,647	34,93
761,076	34,8
761,506	34,8
761,935	34,75
762,365	34,9
762,794	34,63
763,223	35,09
763,653	34,96
764,082	34,72
764,51	34,76
764,939	34,86
765,368	34,49
765,797	34,49
766,225	34,85
766,654	34,4
767,082	34,61
767,51	34,53
767,938	34,4
768,367	34,47
768,795	34,4
769,222	34,55
769,65	34,51
770,078	34,33
770,505	34,6
770,933	34,39
771,36	34,52
771,788	34,29
772,215	34,36
772,642	34,17
773,069	34,18
773,496	34,18
773,923	34,01
774,349	34,24
774,776	34,05
775,203	34,01
775,629	34,16
776,055	34,01
776,482	34,23
776,908	33,73
777,334	33,84
777,76	33,91
778,186	34,1
778,611	34,09
779,037	34,1
779,463	33,82
779,888	34,08
780,314	34,16
780,739	34,07
781,164	34,19
781,589	33,68
782,014	33,97
782,439	34,05
782,864	33,82
783,289	34,11
783,713	33,76
784,138	34,05
784,562	33,83
784,987	33,85
785,411	33,69
785,835	33,61
786,259	33,7
786,683	34,16
787,107	33,6
787,531	33,82
787,954	34,28
788,378	34,02
788,802	34,08
789,225	33,8
789,648	33,87
790,071	33,32
790,495	33,86
790,918	33,68
791,34	33,67
791,763	33,79
792,186	33,45
792,609	33,67
793,031	33,46
793,454	33,92
793,876	33,91
794,298	33,73
794,721	33,58
795,143	33,9
795,565	33,69
795,986	33,43
796,408	33,75
796,83	33,61
797,252	33,61
797,673	33,74
798,094	33,87
798,516	33,84
798,937	33,71
799,358	33,4
799,779	33,56
800,2	33,57
800,621	33,43
801,042	33,74
801,462	33,73
801,883	33,62
802,303	33,36
802,724	33,6
803,144	33,55
803,564	33,65
803,984	33,69
804,404	33,64
804,824	33,59
805,244	33,69
805,664	33,85
806,084	33,66
806,503	33,64
806,923	33,49
807,342	33,53
807,761	33,52
808,18	33,46
808,599	33,44
809,018	33,61
809,437	33,46
809,856	33,26
810,275	33,65
810,693	33,56
811,112	33,76
811,53	33,84
811,949	33,59
812,367	33,63
812,785	33,68
813,203	33,39
813,621	33,78
814,039	33,51
814,457	33,64
814,874	33,36
815,292	33,26
815,709	33,54
816,127	33,48
816,544	33,67
816,961	33,61
817,378	33,85
817,795	33,69
818,212	33,32
818,629	33,76
819,046	33,39
819,462	33,38
819,879	33,24
820,295	33,43
820,712	33,42
821,128	33,52
821,544	33,5
821,96	33,41
822,376	33,51
822,792	33,39
823,208	33,6
823,624	33,88
824,039	33,3
824,455	33,68
824,87	33,25
825,286	33,42
825,701	33,54
826,116	33,27
826,531	33,51
826,946	33,35
827,361	33,23
827,776	33,52
828,19	33,57
828,605	32,91
829,02	33,22
829,434	33,23
829,848	33,68
830,263	33,64
830,677	33,25
831,091	33,13
831,505	33,26
831,919	33,38
832,332	33,3
832,746	33,44
833,16	33,28
833,573	33,13
833,987	33,46
834,4	33,05
834,813	33,05
835,226	32,92
835,639	33,36
836,052	33,18
836,465	33,36
836,878	33,44
837,29	33,36
837,703	33,15
