Data from A2__Relative__0__17-47-55-239.txt Node

Date: Tue Jan 30 17:47:55 CET 2024
User: diatiterra
Spectrometer: HDX00911
Trigger mode: 0
Integration Time (sec): 6,000000E-3
Scans to average: 3
Nonlinearity correction enabled: true
Boxcar width: 0
Storing dark spectrum: false
XAxis mode: Wavelengths
Number of Pixels in Spectrum: 2068
>>>>>Begin Spectral Data<<<<<
194,468	63,75
195,025	51,76
195,581	53,61
196,138	49,5
196,694	54,12
197,251	53,47
197,807	51,68
198,363	49,9
198,919	52,18
199,474	57,65
200,03	46,96
200,586	49,89
201,141	52,42
201,696	50,82
202,251	50,71
202,806	52,13
203,361	51,37
203,916	49,99
204,471	50,1
205,025	50,8
205,58	50,3
206,134	50,84
206,688	48,79
207,242	48,71
207,796	52,84
208,35	49,89
208,904	50,68
209,457	53,31
210,011	56,12
210,564	48,51
211,117	57,37
211,67	59
212,223	54,47
212,776	52,94
213,329	62,02
213,881	54,71
214,434	46,2
214,986	56,31
215,538	55,28
216,09	49,89
216,642	50,41
217,194	49,17
217,746	54,6
218,297	50,19
218,849	54,72
219,4	55,18
219,951	50,62
220,502	53,19
221,053	49,06
221,604	53,32
222,155	53,38
222,705	51,35
223,256	45,82
223,806	51,99
224,356	55,44
224,906	54,35
225,456	50,38
226,006	47,16
226,556	51,55
227,106	53,42
227,655	50,1
228,204	54,71
228,754	53,34
229,303	51,81
229,852	53,7
230,401	55,63
230,949	53,92
231,498	52,09
232,047	51,63
232,595	53,32
233,143	52,12
233,691	48,1
234,239	51,47
234,787	51,94
235,335	50,51
235,883	53,76
236,43	46,17
236,978	51,82
237,525	50,3
238,072	54,18
238,619	53,7
239,166	51,87
239,713	47,25
240,26	52,89
240,806	55,3
241,353	47,18
241,899	57,8
242,445	54,96
242,991	55,43
243,537	53,06
244,083	51,72
244,629	56,16
245,174	51,47
245,72	50,74
246,265	51,41
246,81	56,74
247,355	48,59
247,9	54,93
248,445	54,7
248,99	53,92
249,534	51,79
250,079	50,66
250,623	49,49
251,168	55,16
251,712	52,65
252,256	44,41
252,8	52,14
253,343	54,52
253,887	55,53
254,43	56,26
254,974	54,65
255,517	55,49
256,06	52,39
256,603	57,14
257,146	54,25
257,689	52,63
258,232	56,06
258,774	55,15
259,317	47,81
259,859	50,95
260,401	57,05
260,943	54,45
261,485	46,92
262,027	52,45
262,569	47,86
263,11	50,71
263,652	54,05
264,193	53,54
264,734	52,45
265,275	50,99
265,816	50,45
266,357	52,08
266,898	56,06
267,438	54,71
267,979	59,65
268,519	54,85
269,059	51,2
269,6	53,34
270,14	53,31
270,68	48,98
271,219	55,59
271,759	52,41
272,298	47,08
272,838	55,12
273,377	47,65
273,916	46,84
274,455	47,5
274,994	58,95
275,533	50,44
276,072	57,68
276,61	47,07
277,149	47,55
277,687	49,78
278,225	48,33
278,763	53,49
279,301	50
279,839	53,41
280,377	52,93
280,914	51,06
281,452	48,18
281,989	53,3
282,526	47,04
283,064	52,26
283,601	49,89
284,137	51,34
284,674	49,16
285,211	54,53
285,747	50,75
286,284	47,95
286,82	49,33
287,356	50,94
287,892	49,3
288,428	43,39
288,964	47,3
289,5	46,97
290,035	48,88
290,571	52,77
291,106	52,04
291,641	50,91
292,176	46,98
292,711	49,03
293,246	51,7
293,781	52,58
294,315	48,94
294,85	53,01
295,384	53,53
295,918	48,09
296,453	43,76
296,987	46,25
297,52	50,33
298,054	45,83
298,588	47,66
299,121	50,91
299,655	46,78
300,188	44,54
300,721	47,8
301,254	46,39
301,787	48,3
302,32	43,3
302,853	43,04
303,385	47,56
303,918	44,51
304,45	44,7
304,982	51,6
305,514	49,44
306,046	47,37
306,578	48,06
307,11	42,83
307,641	49,78
308,173	49,06
308,704	51,28
309,236	47,8
309,767	50
310,298	43,38
310,829	48,44
311,359	50,21
311,89	45,4
312,421	49,79
312,951	46,92
313,481	49,32
314,012	52,42
314,542	43,33
315,072	50,11
315,601	41,27
316,131	55,61
316,661	48,36
317,19	51,45
317,72	45,32
318,249	46,27
318,778	46,34
319,307	39,24
319,836	45,64
320,365	46,74
320,893	44,4
321,422	39,35
321,95	49,04
322,479	48,89
323,007	41,02
323,535	46,89
324,063	47,55
324,591	44,78
325,118	47,34
325,646	49,67
326,173	45,83
326,701	46,19
327,228	50,45
327,755	48,56
328,282	46,58
328,809	43,42
329,336	48,19
329,862	53,91
330,389	49,78
330,915	48,12
331,441	48,41
331,968	44,13
332,494	41
333,02	52,05
333,545	49,03
334,071	46
334,597	40,5
335,122	48,14
335,648	43,74
336,173	43,54
336,698	45,99
337,223	51,43
337,748	45,71
338,272	46,2
338,797	46,07
339,322	45,97
339,846	46,61
340,37	43,5
340,894	44,66
341,419	44,88
341,942	42,37
342,466	46,43
342,99	46,29
343,514	46,21
344,037	47,38
344,56	46,72
345,084	41,24
345,607	45,04
346,13	46,72
346,653	44,98
347,175	41,43
347,698	53,3
348,221	39,72
348,743	42,63
349,265	48,41
349,787	47,93
350,309	46,05
350,831	45,57
351,353	41,46
351,875	41,31
352,397	42,85
352,918	44,34
353,439	45,3
353,961	42,9
354,482	37,57
355,003	43,34
355,524	41,22
356,044	39,54
356,565	42,31
357,086	40,18
357,606	39,97
358,126	43,7
358,646	38,75
359,167	41,26
359,687	39,57
360,206	41,19
360,726	41,06
361,246	39,25
361,765	38,94
362,285	41,7
362,804	42,41
363,323	40,36
363,842	39,93
364,361	40,9
364,88	39,5
365,398	40,11
365,917	41,57
366,435	44,69
366,954	40,28
367,472	43,21
367,99	46,04
368,508	35,68
369,026	35,94
369,544	37,62
370,061	37,08
370,579	36,33
371,096	41,24
371,613	41,18
372,131	39,3
372,648	36,11
373,165	35,34
373,681	39,73
374,198	40,23
374,715	39,27
375,231	37,86
375,747	34,9
376,264	34,14
376,78	37,23
377,296	37,37
377,812	39,47
378,327	35,24
378,843	34,57
379,359	38,32
379,874	35,24
380,389	37,93
380,905	33,92
381,42	35,17
381,935	35,36
382,449	33,97
382,964	34,84
383,479	33,48
383,993	35,48
384,508	32,79
385,022	33,27
385,536	33,1
386,05	33,17
386,564	35,12
387,078	31,1
387,592	33,07
388,105	30,2
388,619	31,59
389,132	29,13
389,645	29,85
390,158	27,84
390,671	28,77
391,184	28,3
391,697	28,09
392,21	29,01
392,722	28,92
393,235	27,36
393,747	27,97
394,259	28,07
394,771	27,54
395,283	27,11
395,795	28,9
396,307	26,92
396,818	26,84
397,33	25,84
397,841	25,19
398,353	26,13
398,864	26,37
399,375	26,35
399,886	23,87
400,397	23,51
400,907	23,24
401,418	23,02
401,928	23,41
402,439	21,8
402,949	22,07
403,459	21,53
403,969	21,36
404,479	20,8
404,989	19,32
405,498	19,86
406,008	18,88
406,517	19,76
407,027	18,43
407,536	17,22
408,045	16,95
408,554	16,22
409,063	15,54
409,572	15,44
410,08	15,33
410,589	15,44
411,097	14,47
411,606	14,42
412,114	14,29
412,622	12,84
413,13	13,16
413,638	12,73
414,145	12,44
414,653	12,15
415,16	11,49
415,668	11,25
416,175	11,17
416,682	10,77
417,189	10,76
417,696	10,45
418,203	10,41
418,71	9,67
419,216	10,24
419,723	9,86
420,229	10,03
420,735	9,7
421,242	9,76
421,748	9,21
422,254	9,12
422,759	9,13
423,265	9,18
423,771	8,94
424,276	9,42
424,781	8,57
425,287	8,59
425,792	8,85
426,297	8,96
426,802	8,64
427,306	8,74
427,811	8,42
428,316	8,5
428,82	8,49
429,324	8,39
429,829	8,05
430,333	8,24
430,837	8,47
431,34	8,34
431,844	8,32
432,348	8,4
432,851	7,96
433,355	8,16
433,858	8,29
434,361	8,14
434,864	7,78
435,367	7,95
435,87	8,18
436,373	8,16
436,876	7,88
437,378	8,12
437,88	8,39
438,383	7,95
438,885	7,79
439,387	7,92
439,889	7,84
440,391	7,95
440,892	7,93
441,394	7,91
441,896	7,7
442,397	7,83
442,898	7,94
443,399	7,74
443,9	8,08
444,401	8,15
444,902	7,71
445,403	7,76
445,903	7,71
446,404	8,1
446,904	7,65
447,405	7,99
447,905	7,86
448,405	8,1
448,905	8,07
449,404	8,11
449,904	7,95
450,404	8,25
450,903	8,1
451,403	8,28
451,902	8,48
452,401	8,3
452,9	8,02
453,399	8,14
453,898	8,21
454,396	8,25
454,895	8,35
455,393	8,13
455,892	8,32
456,39	8,34
456,888	8,13
457,386	8,43
457,884	8,13
458,382	8,33
458,879	8,18
459,377	8,38
459,874	8,41
460,372	8,4
460,869	8,2
461,366	8,36
461,863	8,35
462,36	8,18
462,857	8,21
463,353	8,29
463,85	8,51
464,346	8,18
464,843	8,18
465,339	8,44
465,835	8,62
466,331	8,44
466,827	8,42
467,323	8,28
467,818	8,39
468,314	8,27
468,809	8,36
469,305	8,28
469,8	8,3
470,295	8,5
470,79	8,43
471,285	8,35
471,78	8,27
472,274	8,37
472,769	8,55
473,263	8,53
473,758	8,32
474,252	8,37
474,746	8,32
475,24	8,31
475,734	8,46
476,228	8,26
476,721	8,54
477,215	8,49
477,708	8,7
478,202	8,57
478,695	8,44
479,188	8,64
479,681	8,5
480,174	8,54
480,667	8,68
481,159	8,84
481,652	9,01
482,144	8,37
482,637	8,9
483,129	8,46
483,621	8,61
484,113	8,42
484,605	8,66
485,097	8,63
485,588	8,77
486,08	8,77
486,571	8,69
487,063	8,77
487,554	8,7
488,045	8,87
488,536	9,05
489,027	8,83
489,518	8,8
490,008	8,94
490,499	8,92
490,989	8,9
491,48	9,14
491,97	8,97
492,46	9,25
492,95	9,09
493,44	9,08
493,93	9,19
494,419	9,39
494,909	9,45
495,398	9,2
495,888	9,59
496,377	9,58
496,866	9,53
497,355	9,38
497,844	9,69
498,333	9,77
498,821	9,8
499,31	9,74
499,798	9,83
500,287	9,79
500,775	10,07
501,263	10,15
501,751	10,48
502,239	10,48
502,727	10,88
503,215	10,79
503,702	10,81
504,19	10,82
504,677	11,11
505,164	11,43
505,651	11,28
506,139	11,47
506,625	11,52
507,112	11,74
507,599	12,23
508,086	12,21
508,572	12,55
509,058	12,87
509,545	13,04
510,031	12,98
510,517	13,41
511,003	13,6
511,489	13,69
511,974	14,12
512,46	14,25
512,946	14,77
513,431	14,79
513,916	15,12
514,401	15,46
514,887	15,67
515,371	16,14
515,856	16,16
516,341	16,81
516,826	16,98
517,31	17,39
517,795	17,68
518,279	18,05
518,763	18,5
519,247	18,74
519,731	19,32
520,215	19,51
520,699	19,9
521,182	20,21
521,666	20,48
522,149	20,98
522,633	21,45
523,116	21,21
523,599	22,2
524,082	22,57
524,565	22,95
525,048	23,17
525,53	23,5
526,013	23,92
526,495	24,22
526,978	24,27
527,46	25,11
527,942	25,29
528,424	25,28
528,906	25,8
529,388	25,51
529,87	26,2
530,351	26,27
530,833	26,74
531,314	26,92
531,795	26,85
532,277	27,5
532,758	27,43
533,238	27,35
533,719	27,75
534,2	27,73
534,681	28,09
535,161	28,1
535,642	28,34
536,122	28,43
536,602	28,46
537,082	28,5
537,562	28,82
538,042	29,27
538,522	28,49
539,001	29,21
539,481	29,15
539,96	29,33
540,44	29,27
540,919	28,98
541,398	29,44
541,877	29,35
542,356	29,6
542,835	29,67
543,313	29,73
543,792	29,74
544,27	30,02
544,749	29,76
545,227	29,93
545,705	30,09
546,183	30,05
546,661	30,02
547,139	29,99
547,616	30,23
548,094	30,18
548,571	30,21
549,049	30,1
549,526	30,13
550,003	30,42
550,48	30,36
550,957	30,51
551,434	30,12
551,911	30,39
552,387	30,43
552,864	30,33
553,34	30,35
553,817	30,84
554,293	30,54
554,769	30,66
555,245	30,09
555,721	30,19
556,197	30,22
556,672	30,17
557,148	30,49
557,623	30,26
558,099	30,39
558,574	30,43
559,049	30,1
559,524	30,06
559,999	30,25
560,474	30,01
560,948	29,86
561,423	29,73
561,897	29,58
562,372	29,52
562,846	29,45
563,32	29,4
563,794	29,1
564,268	29,21
564,742	28,89
565,216	28,67
565,69	28,54
566,163	28,1
566,636	27,87
567,11	27,97
567,583	28
568,056	27,39
568,529	27,3
569,002	27,35
569,475	27,16
569,947	26,68
570,42	26,57
570,892	26,09
571,365	26,21
571,837	25,62
572,309	25,76
572,781	25,42
573,253	25,32
573,725	25,03
574,197	24,85
574,668	24,84
575,14	24,62
575,611	24,19
576,082	23,97
576,554	23,99
577,025	23,82
577,496	23,37
577,967	23,47
578,437	23,08
578,908	23,23
579,379	22,81
579,849	22,78
580,319	22,71
580,79	22,55
581,26	22,29
581,73	22,09
582,2	22,2
582,669	21,77
583,139	21,75
583,609	21,52
584,078	21,41
584,548	21,29
585,017	21,31
585,486	21,1
585,955	20,98
586,424	20,85
586,893	20,96
587,362	20,77
587,83	20,6
588,299	20,49
588,767	20,43
589,236	20,47
589,704	20,2
590,172	20,37
590,64	20,08
591,108	19,97
591,576	19,94
592,043	20,02
592,511	19,91
592,978	19,69
593,446	19,72
593,913	19,73
594,38	19,7
594,847	19,53
595,314	19,49
595,781	19,36
596,248	19,3
596,715	19,27
597,181	19,26
597,647	19,22
598,114	19,27
598,58	19,11
599,046	19,21
599,512	19,1
599,978	19,02
600,444	18,82
600,91	18,96
601,375	18,91
601,841	18,95
602,306	18,82
602,771	18,74
603,236	18,69
603,702	18,57
604,167	18,53
604,631	18,29
605,096	18,55
605,561	18,5
606,025	18,21
606,49	18,05
606,954	18,18
607,418	17,99
607,882	17,97
608,347	17,86
608,81	18,02
609,274	17,49
609,738	17,52
610,202	17,63
610,665	17,28
611,128	17,21
611,592	17,24
612,055	16,96
612,518	16,99
612,981	16,93
613,444	16,79
613,907	16,64
614,369	16,5
614,832	16,39
615,294	16,23
615,757	16,33
616,219	16,15
616,681	16,17
617,143	16,05
617,605	16,06
618,067	15,71
618,529	15,57
618,99	15,5
619,452	15,54
619,913	15,51
620,375	15,35
620,836	15,47
621,297	15,31
621,758	15,22
622,219	15,19
622,68	15,14
623,14	15,2
623,601	15,07
624,061	15,19
624,522	14,91
624,982	14,82
625,442	14,99
625,902	14,88
626,362	14,86
626,822	14,86
627,282	14,86
627,742	14,89
628,201	14,79
628,661	14,8
629,12	14,75
629,579	14,7
630,038	14,88
630,497	14,7
630,956	14,68
631,415	14,54
631,874	14,59
632,332	14,6
632,791	14,59
633,249	14,39
633,708	14,44
634,166	14,33
634,624	14,31
635,082	14,18
635,54	14,31
635,998	14,05
636,455	13,99
636,913	13,92
637,37	13,75
637,828	13,78
638,285	13,51
638,742	13,53
639,199	13,28
639,656	13,26
640,113	13,04
640,57	12,97
641,027	12,83
641,483	12,74
641,94	12,56
642,396	12,47
642,852	12,32
643,309	12,31
643,765	12,09
644,221	11,97
644,676	11,89
645,132	11,8
645,588	11,68
646,043	11,55
646,499	11,36
646,954	11,24
647,409	11,2
647,864	11,04
648,319	10,93
648,774	10,89
649,229	10,83
649,684	10,71
650,139	10,7
650,593	10,67
651,047	10,56
651,502	10,63
651,956	10,47
652,41	10,43
652,864	10,46
653,318	10,3
653,772	10,25
654,225	10,29
654,679	10,11
655,133	10,12
655,586	10,12
656,039	10,04
656,492	9,97
656,946	9,94
657,399	9,9
657,851	9,82
658,304	9,8
658,757	9,73
659,209	9,64
659,662	9,61
660,114	9,51
660,567	9,41
661,019	9,39
661,471	9,39
661,923	9,29
662,375	9,27
662,826	9,25
663,278	9,11
663,73	9,09
664,181	9,03
664,632	9,06
665,084	8,91
665,535	9,01
665,986	8,98
666,437	8,88
666,888	8,8
667,338	8,86
667,789	8,88
668,24	8,84
668,69	8,83
669,14	8,91
669,591	8,96
670,041	8,94
670,491	8,82
670,941	9
671,391	9
671,84	9,13
672,29	9,09
672,74	9,2
673,189	9,22
673,638	9,31
674,088	9,31
674,537	9,42
674,986	9,46
675,435	9,57
675,883	9,57
676,332	9,72
676,781	9,75
677,229	9,86
677,678	10,02
678,126	10,09
678,574	10,14
679,022	10,25
679,47	10,48
679,918	10,44
680,366	10,48
680,814	10,63
681,261	10,8
681,709	10,91
682,156	10,97
682,604	11,07
683,051	11,23
683,498	11,24
683,945	11,45
684,392	11,64
684,839	11,6
685,286	11,79
685,732	12,05
686,179	12,07
686,625	12,28
687,071	12,32
687,518	12,55
687,964	12,63
688,41	12,94
688,856	13,19
689,301	13,34
689,747	13,64
690,193	13,95
690,638	14,26
691,084	14,74
691,529	15,02
691,974	15,46
692,419	15,89
692,864	16,46
693,309	16,86
693,754	17,38
694,199	17,98
694,643	18,5
695,088	19,13
695,532	19,87
695,977	20,45
696,421	20,97
696,865	21,71
697,309	22,38
697,753	23,01
698,197	24,04
698,64	24,53
699,084	25,03
699,527	25,93
699,971	26,42
700,414	27,23
700,857	27,86
701,3	28,47
701,743	29,23
702,186	29,88
702,629	30,66
703,072	31,2
703,515	31,99
703,957	32,5
704,399	33,08
704,842	33,76
705,284	34,14
705,726	35,06
706,168	35,58
706,61	36,22
707,052	36,91
707,494	37,27
707,935	37,73
708,377	38,51
708,818	38,92
709,26	39,67
709,701	39,9
710,142	40,24
710,583	41,36
711,024	41,75
711,465	42,22
711,905	42,83
712,346	43,15
712,787	43,75
713,227	44,19
713,667	44,86
714,108	45,26
714,548	45,58
714,988	46,05
715,428	46,75
715,868	46,99
716,307	47,42
716,747	47,98
717,186	48,33
717,626	48,78
718,065	49,44
718,504	49,63
718,944	50,12
719,383	50,45
719,822	50,9
720,261	51,08
720,699	51,65
721,138	52,01
721,576	52,33
722,015	52,9
722,453	52,99
722,892	53,53
723,33	53,67
723,768	53,97
724,206	54,34
724,644	54,53
725,081	55,17
725,519	55,21
725,957	55,7
726,394	55,83
726,832	55,83
727,269	56,33
727,706	56,35
728,143	56,99
728,58	57
729,017	57,06
729,454	57,75
729,89	57,91
730,327	57,73
730,764	58,1
731,2	58,21
731,636	58,32
732,072	58,77
732,509	58,82
732,945	58,85
733,38	58,88
733,816	59,15
734,252	59,29
734,688	59,03
735,123	59,38
735,559	59,76
735,994	59,7
736,429	59,88
736,864	59,88
737,299	59,65
737,734	60,07
738,169	60,13
738,604	60,47
739,038	60,11
739,473	60,38
739,907	60,54
740,342	60,54
740,776	60,29
741,21	60,8
741,644	60,58
742,078	60,73
742,512	60,63
742,946	60,77
743,379	60,74
743,813	60,74
744,246	60,67
744,68	60,96
745,113	60,89
745,546	60,68
745,979	60,69
746,412	60,81
746,845	60,57
747,278	60,9
747,711	60,92
748,143	60,85
748,576	60,67
749,008	60,77
749,441	60,58
749,873	60,56
750,305	60,86
750,737	60,62
751,169	60,55
751,601	60,42
752,032	60,44
752,464	60,63
752,896	60,34
753,327	60,31
753,758	60,4
754,19	60,46
754,621	60,35
755,052	60,43
755,483	60,14
755,914	60,22
756,344	60,37
756,775	60,26
757,206	60,45
757,636	60,16
758,066	60,21
758,497	59,89
758,927	59,89
759,357	59,87
759,787	60,39
760,217	60,02
760,647	59,78
761,076	60,13
761,506	59,88
761,935	59,4
762,365	59,71
762,794	59,76
763,223	59,65
763,653	59,82
764,082	59,63
764,51	59,85
764,939	59,71
765,368	59,59
765,797	59,55
766,225	59,62
766,654	59,5
767,082	59,33
767,51	59,56
767,938	59,42
768,367	59,15
768,795	59,19
769,222	59,32
769,65	59,28
770,078	59,26
770,505	59,19
770,933	59,29
771,36	59,34
771,788	59,02
772,215	59,23
772,642	59,07
773,069	59,08
773,496	58,97
773,923	58,9
774,349	59,12
774,776	59,21
775,203	58,92
775,629	58,87
776,055	58,72
776,482	58,77
776,908	58,76
777,334	58,74
777,76	58,81
778,186	58,78
778,611	58,87
779,037	58,93
779,463	58,51
779,888	58,69
780,314	58,52
780,739	58,69
781,164	58,52
781,589	58,63
782,014	58,76
782,439	59,04
782,864	58,67
783,289	58,64
783,713	58,67
784,138	58,43
784,562	58,4
784,987	58,38
785,411	58,31
785,835	58,45
786,259	58,51
786,683	58,58
787,107	58,47
787,531	58,47
787,954	58,37
788,378	58,45
788,802	58,42
789,225	58,24
789,648	58,61
790,071	58,35
790,495	58,25
790,918	58,6
791,34	58,4
791,763	58,23
792,186	58,58
792,609	58,4
793,031	58,37
793,454	58,37
793,876	58,3
794,298	58,38
794,721	58,22
795,143	58,3
795,565	58,26
795,986	58,24
796,408	58,31
796,83	58,2
797,252	58,25
797,673	58,1
798,094	57,96
798,516	57,82
798,937	57,98
799,358	58,23
799,779	58,22
800,2	58,24
800,621	58,16
801,042	58,01
801,462	58,16
801,883	58,18
802,303	58,34
802,724	57,98
803,144	58,24
803,564	57,77
803,984	58,36
804,404	58,16
804,824	58,01
805,244	58,12
805,664	58,08
806,084	58,03
806,503	58
806,923	58,34
807,342	58,1
807,761	57,77
808,18	58,16
808,599	57,99
809,018	58,05
809,437	58,04
809,856	57,93
810,275	57,73
810,693	57,9
811,112	58
811,53	58,01
811,949	58,06
812,367	58,09
812,785	58,01
813,203	57,97
813,621	58,12
814,039	58
814,457	57,63
814,874	58,02
815,292	58,17
815,709	57,82
816,127	58,03
816,544	58,04
816,961	57,77
817,378	58,16
817,795	57,88
818,212	57,89
818,629	58,04
819,046	57,67
819,462	57,72
819,879	58,2
820,295	57,77
820,712	57,76
821,128	57,87
821,544	57,85
821,96	57,93
822,376	57,88
822,792	57,88
823,208	57,53
823,624	57,97
824,039	57,81
824,455	57,95
824,87	57,95
825,286	57,76
825,701	58,12
826,116	57,36
826,531	57,71
826,946	57,63
827,361	57,55
827,776	57,66
828,19	57,6
828,605	57,74
829,02	57,9
829,434	57,68
829,848	58,11
830,263	57,64
830,677	57,67
831,091	57,73
831,505	57,68
831,919	57,62
832,332	57,5
832,746	57,56
833,16	57,73
833,573	57,82
833,987	57,66
834,4	57,43
834,813	57,54
835,226	57,59
835,639	57,66
836,052	57,36
836,465	57,88
836,878	57,78
837,29	57,5
837,703	57,51
838,116	57,46
838,528	57,63
838,94	57,67
839,352	57,65
839,765	57,8
840,177	57,66
