Data from B1__Relative__0__00000.txt Node

Date: Tue Jan 30 17:50:08 CET 2024
User: diatiterra
Spectrometer: HDX00911
Trigger mode: 0
Integration Time (sec): 6,000000E-3
Scans to average: 3
Nonlinearity correction enabled: true
Boxcar width: 0
Storing dark spectrum: false
XAxis mode: Wavelengths
Number of Pixels in Spectrum: 2068
>>>>>Begin Spectral Data<<<<<
194,468	52,6
195,025	37,24
195,581	38,49
196,138	38,15
196,694	43,6
197,251	32,32
197,807	32,14
198,363	31,87
198,919	31,52
199,474	36,91
200,03	34,17
200,586	32,93
201,141	28,13
201,696	30,9
202,251	31,77
202,806	34,01
203,361	33,4
203,916	30,72
204,471	34,64
205,025	30,36
205,58	32,72
206,134	33,12
206,688	32,12
207,242	32,6
207,796	35,36
208,35	30,45
208,904	32,47
209,457	36,8
210,011	34,81
210,564	30,88
211,117	38,32
211,67	37,94
212,223	34,75
212,776	31,51
213,329	33,05
213,881	31,44
214,434	29,67
214,986	32,97
215,538	32,31
216,09	32,45
216,642	37,03
217,194	32,09
217,746	38,91
218,297	33,46
218,849	34,55
219,4	34,88
219,951	34,09
220,502	38,35
221,053	33,53
221,604	36,07
222,155	34,49
222,705	33,89
223,256	36,86
223,806	37
224,356	35,98
224,906	31,42
225,456	30,35
226,006	30,79
226,556	36,32
227,106	35,04
227,655	28,89
228,204	27,67
228,754	32
229,303	32,86
229,852	32,83
230,401	31,25
230,949	35,74
231,498	33,32
232,047	28,48
232,595	32,98
233,143	34,53
233,691	29,22
234,239	32,93
234,787	36,19
235,335	28,48
235,883	31,86
236,43	33,74
236,978	27,03
237,525	33,06
238,072	28,24
238,619	35
239,166	31,48
239,713	29,61
240,26	30,4
240,806	31,63
241,353	31,32
241,899	33,98
242,445	35,94
242,991	32,44
243,537	31,92
244,083	34,48
244,629	38,78
245,174	35,02
245,72	30,7
246,265	33,49
246,81	35,98
247,355	30,02
247,9	32,91
248,445	32,27
248,99	38,26
249,534	34,6
250,079	37,23
250,623	34,06
251,168	37,81
251,712	29,93
252,256	26,65
252,8	35,37
253,343	34,73
253,887	34,38
254,43	32,64
254,974	34,74
255,517	32,44
256,06	35,15
256,603	35,18
257,146	36,6
257,689	37,3
258,232	33,12
258,774	34,98
259,317	35,7
259,859	33,19
260,401	36,69
260,943	31,99
261,485	33,7
262,027	35,56
262,569	40,73
263,11	32,65
263,652	34,65
264,193	32,97
264,734	36,03
265,275	29,14
265,816	28,51
266,357	35,62
266,898	33,77
267,438	27,58
267,979	39,46
268,519	37,67
269,059	35,67
269,6	34,22
270,14	32,35
270,68	36,43
271,219	34,63
271,759	38,16
272,298	29,15
272,838	32,24
273,377	33,33
273,916	33,82
274,455	32,71
274,994	38,63
275,533	27,55
276,072	36,63
276,61	30,86
277,149	30,15
277,687	28,17
278,225	34,37
278,763	35,51
279,301	35,84
279,839	32,05
280,377	36,22
280,914	38,56
281,452	35,85
281,989	39,21
282,526	32,79
283,064	36,56
283,601	33,04
284,137	35,11
284,674	36,5
285,211	37,11
285,747	36,4
286,284	33,57
286,82	31,55
287,356	39,87
287,892	35,08
288,428	38,32
288,964	31,12
289,5	32,03
290,035	33,19
290,571	32,77
291,106	33,42
291,641	31,68
292,176	34,09
292,711	34,77
293,246	30,85
293,781	34,23
294,315	32,91
294,85	35,26
295,384	32,64
295,918	28,9
296,453	28,66
296,987	30,41
297,52	37,97
298,054	31,36
298,588	30,52
299,121	26,7
299,655	30,47
300,188	31,66
300,721	27,31
301,254	32,17
301,787	33,47
302,32	36,48
302,853	32,12
303,385	34
303,918	24,88
304,45	30,23
304,982	25,46
305,514	30,79
306,046	27,58
306,578	29,09
307,11	26,49
307,641	34,39
308,173	28,07
308,704	27,26
309,236	34,81
309,767	33,4
310,298	29,28
310,829	30,72
311,359	35,68
311,89	30,56
312,421	30,67
312,951	31,28
313,481	29,59
314,012	37,05
314,542	30,85
315,072	33,26
315,601	28,72
316,131	30,05
316,661	34,35
317,19	28,95
317,72	34,3
318,249	31,13
318,778	34,7
319,307	30,49
319,836	33,56
320,365	31,31
320,893	34,72
321,422	27,61
321,95	32,48
322,479	30,45
323,007	29,48
323,535	28,9
324,063	28,35
324,591	31,59
325,118	31,09
325,646	30,41
326,173	29,35
326,701	34,86
327,228	30,22
327,755	33,34
328,282	30,98
328,809	28,51
329,336	32,58
329,862	35,43
330,389	32,49
330,915	30,16
331,441	29,39
331,968	26,22
332,494	33,13
333,02	33,76
333,545	36,93
334,071	31,56
334,597	34,65
335,122	27,57
335,648	31,25
336,173	37,08
336,698	28,74
337,223	31,96
337,748	27,04
338,272	27,26
338,797	28,16
339,322	31,59
339,846	31,41
340,37	28,48
340,894	30,98
341,419	29,22
341,942	27,92
342,466	28,77
342,99	26,65
343,514	28,83
344,037	28,06
344,56	28,51
345,084	25,51
345,607	32,72
346,13	27,55
346,653	22,03
347,175	24,51
347,698	30,73
348,221	23,83
348,743	24,06
349,265	26,14
349,787	24,23
350,309	25,88
350,831	29,36
351,353	19,99
351,875	22,82
352,397	23,97
352,918	24,56
353,439	21,61
353,961	23,66
354,482	21,04
355,003	23,07
355,524	25,29
356,044	24,78
356,565	24,74
357,086	25,71
357,606	17,59
358,126	24,44
358,646	23,19
359,167	23,43
359,687	25,54
360,206	22,9
360,726	21,05
361,246	20,81
361,765	20,5
362,285	20,56
362,804	21
363,323	21,32
363,842	23,73
364,361	22
364,88	21,44
365,398	22
365,917	20,58
366,435	19,42
366,954	21,08
367,472	21,42
367,99	21,27
368,508	20,25
369,026	18,7
369,544	20,95
370,061	20,74
370,579	21,22
371,096	21,35
371,613	21,42
372,131	20,11
372,648	21,69
373,165	18,7
373,681	21,58
374,198	18,63
374,715	20,9
375,231	19,55
375,747	18,66
376,264	17,4
376,78	18,61
377,296	19,6
377,812	18,57
378,327	16,95
378,843	18,03
379,359	19,53
379,874	19,6
380,389	17,41
380,905	17,66
381,42	15,51
381,935	18,22
382,449	16,9
382,964	18,93
383,479	17,84
383,993	17,93
384,508	16,43
385,022	16,31
385,536	18,21
386,05	15,89
386,564	16,58
387,078	15,95
387,592	17,12
388,105	15,26
388,619	16,34
389,132	12,96
389,645	14,77
390,158	13,48
390,671	13,02
391,184	13,47
391,697	13,69
392,21	14,42
392,722	13,82
393,235	14,47
393,747	13,8
394,259	13,45
394,771	13,77
395,283	13,43
395,795	14,58
396,307	14,58
396,818	13,99
397,33	13,94
397,841	13,34
398,353	13,47
398,864	11,99
399,375	12,49
399,886	11,53
400,397	10,2
400,907	11,18
401,418	10,65
401,928	10,7
402,439	11,96
402,949	10,67
403,459	10,27
403,969	10,24
404,479	10,55
404,989	9,36
405,498	9,47
406,008	9,73
406,517	9,42
407,027	8,81
407,536	8,21
408,045	7,39
408,554	8,01
409,063	7,08
409,572	7,49
410,08	6,82
410,589	7,62
411,097	7,17
411,606	6,83
412,114	6,27
412,622	6,18
413,13	5,83
413,638	6,38
414,145	5,49
414,653	5,7
415,16	5,19
415,668	5,52
416,175	5,3
416,682	4,71
417,189	5,22
417,696	4,84
418,203	4,79
418,71	4,93
419,216	4,92
419,723	4,34
420,229	4,2
420,735	4,41
421,242	4,19
421,748	4,27
422,254	4,61
422,759	4,4
423,265	4,28
423,771	3,78
424,276	4,07
424,781	3,91
425,287	3,86
425,792	3,93
426,297	4,13
426,802	3,82
427,306	4,15
427,811	3,8
428,316	3,92
428,82	3,85
429,324	3,7
429,829	3,49
430,333	3,62
430,837	3,51
431,34	3,67
431,844	3,88
432,348	3,81
432,851	3,43
433,355	3,74
433,858	3,39
434,361	3,53
434,864	3,32
435,367	3,24
435,87	3,51
436,373	3,35
436,876	3,31
437,378	3,45
437,88	3,25
438,383	3,44
438,885	3,49
439,387	3,53
439,889	3,41
440,391	3,28
440,892	3,56
441,394	3,45
441,896	3,38
442,397	3,32
442,898	3,27
443,399	3,28
443,9	3,31
444,401	3,43
444,902	3,19
445,403	3,26
445,903	3,36
446,404	3,16
446,904	3,37
447,405	3,42
447,905	3,35
448,405	3,58
448,905	3,6
449,404	3,43
449,904	3,59
450,404	3,56
450,903	3,56
451,403	3,36
451,902	3,54
452,401	3,47
452,9	3,73
453,399	3,55
453,898	3,54
454,396	3,56
454,895	3,66
455,393	3,56
455,892	3,5
456,39	3,51
456,888	3,76
457,386	3,41
457,884	3,54
458,382	3,59
458,879	3,57
459,377	3,73
459,874	3,59
460,372	3,68
460,869	3,53
461,366	3,58
461,863	3,82
462,36	3,74
462,857	3,6
463,353	3,38
463,85	3,66
464,346	3,6
464,843	3,54
465,339	3,52
465,835	3,59
466,331	3,55
466,827	3,63
467,323	3,49
467,818	3,53
468,314	3,42
468,809	3,62
469,305	3,52
469,8	3,62
470,295	3,71
470,79	3,65
471,285	3,57
471,78	3,73
472,274	3,67
472,769	3,47
473,263	3,72
473,758	3,6
474,252	3,51
474,746	3,36
475,24	3,53
475,734	3,6
476,228	3,49
476,721	3,5
477,215	3,8
477,708	3,58
478,202	3,64
478,695	3,49
479,188	3,62
479,681	3,54
480,174	3,57
480,667	3,6
481,159	3,71
481,652	3,6
482,144	3,55
482,637	3,68
483,129	3,71
483,621	3,63
484,113	3,65
484,605	3,62
485,097	3,81
485,588	3,62
486,08	3,6
486,571	3,7
487,063	3,74
487,554	3,83
488,045	3,84
488,536	3,86
489,027	3,71
489,518	3,91
490,008	3,84
490,499	3,87
490,989	3,84
491,48	3,82
491,97	3,87
492,46	3,88
492,95	3,97
493,44	4
493,93	4,02
494,419	4,08
494,909	4,05
495,398	4,02
495,888	4,21
496,377	4,31
496,866	4,24
497,355	4,18
497,844	4,18
498,333	4,45
498,821	4,42
499,31	4,28
499,798	4,46
500,287	4,58
500,775	4,62
501,263	4,71
501,751	4,81
502,239	4,76
502,727	4,96
503,215	4,89
503,702	4,8
504,19	4,89
504,677	5,2
505,164	5,06
505,651	5,06
506,139	5,28
506,625	5,25
507,112	5,58
507,599	5,61
508,086	5,73
508,572	5,87
509,058	5,73
509,545	6
510,031	5,99
510,517	6,05
511,003	6,25
511,489	6,26
511,974	6,44
512,46	6,56
512,946	6,56
513,431	6,73
513,916	7,1
514,401	7,12
514,887	7,13
515,371	7,25
515,856	7,36
516,341	7,67
516,826	7,69
517,31	7,92
517,795	8,13
518,279	8,08
518,763	8,42
519,247	8,61
519,731	8,61
520,215	8,9
520,699	8,88
521,182	9,18
521,666	9,19
522,149	9,6
522,633	9,71
523,116	9,71
523,599	10,09
524,082	10,09
524,565	10,28
525,048	10,46
525,53	10,54
526,013	10,63
526,495	11,01
526,978	10,79
527,46	10,95
527,942	11,39
528,424	11,13
528,906	11,41
529,388	11,47
529,87	11,66
530,351	11,78
530,833	11,75
531,314	11,93
531,795	12,01
532,277	12,28
532,758	12,45
533,238	12,47
533,719	12,41
534,2	12,49
534,681	12,4
535,161	12,61
535,642	12,55
536,122	12,85
536,602	12,69
537,082	12,83
537,562	12,97
538,042	13,07
538,522	12,92
539,001	12,87
539,481	13,17
539,96	12,99
540,44	13,06
540,919	12,9
541,398	13,08
541,877	13,02
542,356	13,08
542,835	13,33
543,313	13,25
543,792	13,22
544,27	13,38
544,749	13,22
545,227	13,42
545,705	13,38
546,183	13,47
546,661	13,37
547,139	13,26
547,616	13,5
548,094	13,42
548,571	13,55
549,049	13,42
549,526	13,45
550,003	13,45
550,48	13,34
550,957	13,75
551,434	13,56
551,911	13,64
552,387	13,64
552,864	13,66
553,34	13,58
553,817	13,94
554,293	13,78
554,769	13,88
555,245	13,59
555,721	13,58
556,197	13,61
556,672	13,52
557,148	13,62
557,623	13,51
558,099	13,59
558,574	13,55
559,049	13,55
559,524	13,69
559,999	13,43
560,474	13,36
560,948	13,57
561,423	13,26
561,897	13,37
562,372	13,3
562,846	13,41
563,32	13,21
563,794	13,07
564,268	13,13
564,742	12,95
565,216	12,86
565,69	12,8
566,163	12,85
566,636	12,66
567,11	12,7
567,583	12,52
568,056	12,67
568,529	12,27
569,002	12,24
569,475	12,22
569,947	12,07
570,42	12,22
570,892	11,95
571,365	11,84
571,837	11,85
572,309	11,73
572,781	11,61
573,253	11,59
573,725	11,42
574,197	11,41
574,668	11,41
575,14	11,3
575,611	11,15
576,082	10,85
576,554	10,89
577,025	10,94
577,496	10,78
577,967	10,82
578,437	10,62
578,908	10,48
579,379	10,42
579,849	10,36
580,319	10,51
580,79	10,26
581,26	10,23
581,73	10,1
582,2	9,99
582,669	9,94
583,139	10,11
583,609	9,92
584,078	9,86
584,548	9,78
585,017	9,79
585,486	9,89
585,955	9,66
586,424	9,78
586,893	9,6
587,362	9,54
587,83	9,45
588,299	9,37
588,767	9,41
589,236	9,38
589,704	9,32
590,172	9,3
590,64	9,25
591,108	9,31
591,576	9,06
592,043	9,2
592,511	9,01
592,978	9,09
593,446	8,99
593,913	8,92
594,38	9,02
594,847	8,88
595,314	8,83
595,781	9
596,248	8,91
596,715	8,96
597,181	8,98
597,647	8,85
598,114	8,7
598,58	8,79
599,046	8,77
599,512	8,76
599,978	8,72
600,444	8,73
600,91	8,72
601,375	8,78
601,841	8,69
602,306	8,71
602,771	8,71
603,236	8,65
603,702	8,71
604,167	8,54
604,631	8,51
605,096	8,55
605,561	8,41
606,025	8,46
606,49	8,45
606,954	8,35
607,418	8,46
607,882	8,29
608,347	8,17
608,81	8,25
609,274	8,18
609,738	8,08
610,202	8,02
610,665	8,05
611,128	7,89
611,592	7,87
612,055	8,03
612,518	7,91
612,981	7,82
613,444	7,74
613,907	7,78
614,369	7,75
614,832	7,69
615,294	7,56
615,757	7,62
616,219	7,57
616,681	7,6
617,143	7,45
617,605	7,51
618,067	7,38
618,529	7,33
618,99	7,33
619,452	7,3
619,913	7,28
620,375	7,24
620,836	7,18
621,297	7,16
621,758	7,12
622,219	7,1
622,68	7,13
623,14	7,07
623,601	7,04
624,061	7,04
624,522	6,99
624,982	7,07
625,442	7,05
625,902	6,98
626,362	7,01
626,822	6,93
627,282	6,97
627,742	6,96
628,201	6,93
628,661	6,91
629,12	6,82
629,579	7,01
630,038	6,97
630,497	6,9
630,956	6,88
631,415	6,87
631,874	6,77
632,332	6,94
632,791	6,76
633,249	6,72
633,708	6,74
634,166	6,7
634,624	6,61
635,082	6,63
635,54	6,58
635,998	6,66
636,455	6,51
636,913	6,5
637,37	6,46
637,828	6,37
638,285	6,27
638,742	6,31
639,199	6,31
639,656	6,21
640,113	6,14
640,57	6,13
641,027	5,93
641,483	5,97
641,94	5,83
642,396	5,85
642,852	5,77
643,309	5,68
643,765	5,62
644,221	5,51
644,676	5,59
645,132	5,49
645,588	5,39
646,043	5,32
646,499	5,34
646,954	5,35
647,409	5,25
647,864	5,11
648,319	5,08
648,774	5,07
649,229	5,01
649,684	4,97
650,139	4,99
650,593	4,96
651,047	4,88
651,502	4,89
651,956	4,85
652,41	4,79
652,864	4,83
653,318	4,76
653,772	4,75
654,225	4,74
654,679	4,79
655,133	4,77
655,586	4,69
656,039	4,69
656,492	4,63
656,946	4,61
657,399	4,59
657,851	4,57
658,304	4,6
658,757	4,52
659,209	4,43
659,662	4,44
660,114	4,44
660,567	4,36
661,019	4,31
661,471	4,28
661,923	4,29
662,375	4,25
662,826	4,19
663,278	4,12
663,73	4,12
664,181	4,07
664,632	4,06
665,084	4,01
665,535	3,97
665,986	4
666,437	3,97
666,888	3,94
667,338	3,95
667,789	3,92
668,24	3,85
668,69	3,92
669,14	3,88
669,591	3,91
670,041	3,95
670,491	3,9
670,941	3,92
671,391	3,9
671,84	4
672,29	3,95
672,74	4,01
673,189	4,06
673,638	3,99
674,088	4,07
674,537	4,1
674,986	4,11
675,435	4,11
675,883	4,17
676,332	4,23
676,781	4,2
677,229	4,31
677,678	4,35
678,126	4,34
678,574	4,43
679,022	4,5
679,47	4,51
679,918	4,6
680,366	4,63
680,814	4,74
681,261	4,69
681,709	4,79
682,156	4,92
682,604	4,88
683,051	4,97
683,498	5,07
683,945	5,06
684,392	5,13
684,839	5,22
685,286	5,34
685,732	5,3
686,179	5,45
686,625	5,52
687,071	5,67
687,518	5,81
687,964	5,87
688,41	6,02
688,856	6,07
689,301	6,29
689,747	6,35
690,193	6,43
690,638	6,7
691,084	6,86
691,529	7,02
691,974	7,23
692,419	7,5
692,864	7,6
693,309	7,87
693,754	8,2
694,199	8,53
694,643	8,65
695,088	9,05
695,532	9,27
695,977	9,5
696,421	9,84
696,865	10,05
697,309	10,35
697,753	10,58
698,197	10,92
698,64	11,22
699,084	11,53
699,527	11,95
699,971	12,18
700,414	12,52
700,857	12,86
701,3	13,11
701,743	13,43
702,186	13,64
702,629	13,96
703,072	14,25
703,515	14,76
703,957	14,84
704,399	15,25
704,842	15,5
705,284	15,74
705,726	16,18
706,168	16,21
706,61	16,77
707,052	16,95
707,494	17,26
707,935	17,56
708,377	17,93
708,818	18,06
709,26	18,46
709,701	18,63
710,142	18,93
710,583	19,25
711,024	19,44
711,465	19,79
711,905	20,05
712,346	20,32
712,787	20,54
713,227	20,72
713,667	21,07
714,108	21,31
714,548	21,77
714,988	21,91
715,428	22,1
715,868	22,33
716,307	22,49
716,747	22,81
717,186	22,94
717,626	23,37
718,065	23,63
718,504	23,86
718,944	24,27
719,383	24,28
719,822	24,54
720,261	24,63
720,699	24,88
721,138	25,17
721,576	25,46
722,015	25,73
722,453	25,96
722,892	26,18
723,33	26,33
723,768	26,52
724,206	26,8
724,644	26,84
725,081	27,12
725,519	27,33
725,957	27,31
726,394	27,51
726,832	27,74
727,269	27,99
727,706	28,08
728,143	28,17
728,58	28,48
729,017	28,45
729,454	28,86
729,89	28,78
730,327	28,83
730,764	29,05
731,2	29,17
731,636	29,35
732,072	29,53
732,509	29,42
732,945	29,69
733,38	29,86
733,816	29,84
734,252	30,08
734,688	29,9
735,123	29,98
735,559	30,44
735,994	30,37
736,429	30,54
736,864	30,51
737,299	30,37
737,734	30,54
738,169	30,58
738,604	30,69
739,038	30,81
739,473	30,65
739,907	30,99
740,342	31,02
740,776	30,87
741,21	31,02
741,644	31,08
742,078	31,23
742,512	31,27
742,946	31,24
743,379	31,11
743,813	31,18
744,246	31,35
744,68	31,38
745,113	31,3
745,546	31,27
745,979	31,26
746,412	31,43
746,845	31,37
747,278	31,48
747,711	31,4
748,143	31,3
748,576	31,24
749,008	31,37
749,441	31,38
749,873	31,39
750,305	31,4
750,737	31,38
751,169	31,37
751,601	31,52
752,032	31,25
752,464	31,45
752,896	31,55
753,327	31,36
753,758	31,34
754,19	31,4
754,621	31,51
755,052	31,38
755,483	31,13
755,914	31,32
756,344	31,43
756,775	31,43
757,206	31,34
757,636	31,24
758,066	31,43
758,497	31,36
758,927	31,21
759,357	31,28
759,787	31,32
760,217	31,03
760,647	31,08
761,076	31,25
761,506	31,19
761,935	31,05
762,365	31,08
762,794	31,17
763,223	31,07
763,653	31,37
764,082	31,02
764,51	31,13
764,939	31,17
765,368	31,16
765,797	31,32
766,225	31
766,654	30,98
767,082	31,09
767,51	31,09
767,938	31,05
768,367	30,8
768,795	30,91
769,222	30,97
769,65	31,05
770,078	31,04
770,505	30,78
770,933	30,96
771,36	30,94
771,788	30,94
772,215	30,83
772,642	30,8
773,069	30,8
773,496	30,75
773,923	30,93
774,349	30,87
774,776	30,96
775,203	30,72
775,629	30,74
776,055	30,89
776,482	30,76
776,908	30,61
777,334	30,7
777,76	30,8
778,186	30,65
778,611	30,61
779,037	30,74
779,463	30,79
779,888	30,88
780,314	30,67
780,739	30,79
781,164	30,68
781,589	30,58
782,014	30,64
782,439	30,71
782,864	30,48
783,289	30,78
783,713	30,7
784,138	30,49
784,562	30,73
784,987	30,41
785,411	30,56
785,835	30,64
786,259	30,62
786,683	30,6
787,107	30,66
787,531	30,41
787,954	30,6
788,378	30,57
788,802	30,62
789,225	30,62
789,648	30,75
790,071	30,62
790,495	30,47
790,918	30,61
791,34	30,48
791,763	30,56
792,186	30,62
792,609	30,56
793,031	30,61
793,454	30,57
793,876	30,61
794,298	30,49
794,721	30,37
795,143	30,68
795,565	30,62
795,986	30,8
796,408	30,61
796,83	30,57
797,252	30,64
797,673	30,47
798,094	30,38
798,516	30,47
798,937	30,44
799,358	30,55
799,779	30,39
800,2	30,52
800,621	30,54
801,042	30,57
801,462	30,5
801,883	30,38
802,303	30,4
802,724	30,51
803,144	30,53
803,564	30,37
803,984	30,44
804,404	30,5
804,824	30,66
805,244	30,48
805,664	30,46
806,084	30,53
806,503	30,41
806,923	30,3
807,342	30,56
807,761	30,42
808,18	30,49
808,599	30,59
809,018	30,33
809,437	30,38
809,856	30,21
810,275	30,42
810,693	30,49
811,112	30,28
811,53	30,47
811,949	30,67
812,367	30,32
812,785	30,56
813,203	30,38
813,621	30,53
814,039	30,51
814,457	30,18
814,874	30,44
815,292	30,55
815,709	30,35
816,127	30,46
816,544	30,4
816,961	30,49
817,378	30,38
817,795	30,4
818,212	30,42
818,629	30,36
819,046	30,21
819,462	30,34
819,879	30,44
820,295	30,34
820,712	30,3
821,128	30,47
821,544	30,33
821,96	30,33
822,376	30,37
822,792	30,42
823,208	30,4
823,624	30,45
824,039	30,28
824,455	30,2
824,87	30,46
825,286	30,36
825,701	30,31
826,116	30,21
826,531	30,26
826,946	30,35
827,361	30,19
827,776	30,18
828,19	30,34
828,605	30,31
829,02	30,5
829,434	30,42
829,848	30,28
830,263	30,3
830,677	30,23
831,091	30,26
831,505	30,05
831,919	30,15
832,332	30,18
832,746	30,25
833,16	30,22
833,573	30,25
833,987	30,18
834,4	30,54
834,813	30,09
835,226	30,29
835,639	30,22
836,052	30,42
836,465	30,19
836,878	30,41
837,29	30,29
837,703	30,21
838,116	30,33
838,528	30,29
838,94	30,18
839,352	30,09
839,765	30,46
840,177	30,25
840,589	30,32
841	30,11
841,412	30,17
841,824	30,26
842,235	30,31
842,647	30,46
843,058	30,32
843,47	30,23
843,881	30,01
844,292	30,25
844,703	30,17
845,114	30,27
845,525	30,2
845,935	30,15
846,346	30,04
846,757	30,33
847,167	30,24
847,577	30,27
