Data from C4__Relative__7__00027.txt Node

Date: Tue Jan 30 17:53:19 CET 2024
User: diatiterra
Spectrometer: HDX00911
Trigger mode: 0
Integration Time (sec): 6,000000E-3
Scans to average: 3
Nonlinearity correction enabled: true
Boxcar width: 0
Storing dark spectrum: false
XAxis mode: Wavelengths
Number of Pixels in Spectrum: 2068
>>>>>Begin Spectral Data<<<<<
194,468	94,51
195,025	80,78
195,581	74,69
196,138	68,58
196,694	74,57
197,251	66,54
197,807	62,4
198,363	59,12
198,919	61,75
199,474	66,99
200,03	62,47
200,586	66,06
201,141	60,72
201,696	57,71
202,251	65,78
202,806	65,58
203,361	62,79
203,916	54,81
204,471	64,53
205,025	60,31
205,58	62,02
206,134	59,7
206,688	59,43
207,242	55,58
207,796	64,63
208,35	60,71
208,904	63,75
209,457	60,33
210,011	58,65
210,564	59
211,117	64,96
211,67	66,23
212,223	61,99
212,776	59,66
213,329	64,17
213,881	64,36
214,434	57,76
214,986	60,81
215,538	62,59
216,09	59,02
216,642	63,16
217,194	63,57
217,746	63,6
218,297	58,75
218,849	69,53
219,4	67,65
219,951	64,25
220,502	65,77
221,053	63,76
221,604	60,18
222,155	63,86
222,705	63,41
223,256	61,5
223,806	60,59
224,356	61,09
224,906	62,42
225,456	62,68
226,006	59,05
226,556	60,53
227,106	65,81
227,655	62,16
228,204	62,05
228,754	62,97
229,303	64,91
229,852	66,31
230,401	62,5
230,949	65,49
231,498	60,91
232,047	59,83
232,595	62,32
233,143	68,22
233,691	61,62
234,239	59,75
234,787	64,41
235,335	62,99
235,883	64,6
236,43	62,73
236,978	63,21
237,525	67,35
238,072	60,24
238,619	71,31
239,166	58,21
239,713	56,38
240,26	64,45
240,806	61,83
241,353	54,81
241,899	61,71
242,445	57,92
242,991	58,51
243,537	58,77
244,083	64,29
244,629	58,78
245,174	59,7
245,72	63,32
246,265	63,5
246,81	68,88
247,355	60,68
247,9	64,15
248,445	61,33
248,99	62,18
249,534	61,16
250,079	64,1
250,623	58,91
251,168	59,5
251,712	55,62
252,256	52,47
252,8	60,93
253,343	61,05
253,887	58,1
254,43	62,28
254,974	58,41
255,517	63,99
256,06	65,54
256,603	65,89
257,146	63,62
257,689	67,28
258,232	56,49
258,774	61,59
259,317	61,38
259,859	56,44
260,401	66,45
260,943	60,17
261,485	59,03
262,027	63,78
262,569	57,43
263,11	63,24
263,652	65,14
264,193	60,85
264,734	58,42
265,275	58,72
265,816	62,9
266,357	58,74
266,898	61,91
267,438	56,5
267,979	64,64
268,519	63,22
269,059	57,77
269,6	57,78
270,14	62,19
270,68	61,33
271,219	63,34
271,759	58,99
272,298	57,45
272,838	57,3
273,377	54,48
273,916	54,2
274,455	61,46
274,994	58,51
275,533	52,44
276,072	59,66
276,61	64,64
277,149	60,72
277,687	61,36
278,225	57,5
278,763	57,76
279,301	59,23
279,839	53,41
280,377	58,35
280,914	55,08
281,452	63,48
281,989	58,46
282,526	57,22
283,064	61,51
283,601	59,61
284,137	57,12
284,674	54,22
285,211	58,38
285,747	59,53
286,284	65,76
286,82	56,89
287,356	59,08
287,892	60,44
288,428	61,01
288,964	57,26
289,5	55,41
290,035	57,63
290,571	54,68
291,106	61,35
291,641	64,49
292,176	62,99
292,711	52,48
293,246	58,51
293,781	53,02
294,315	52,95
294,85	61,31
295,384	61,28
295,918	59,91
296,453	56,46
296,987	59,53
297,52	60,27
298,054	56,14
298,588	62,92
299,121	60,64
299,655	59,23
300,188	56,11
300,721	59,03
301,254	57,55
301,787	54,45
302,32	64,72
302,853	58,03
303,385	56,89
303,918	54,32
304,45	53,78
304,982	55,46
305,514	57,31
306,046	52,84
306,578	56,25
307,11	54,97
307,641	59,06
308,173	53,07
308,704	57,06
309,236	60,8
309,767	58,51
310,298	54,66
310,829	58,98
311,359	58,09
311,89	59,11
312,421	58,4
312,951	57,93
313,481	56,66
314,012	60,42
314,542	60,84
315,072	56,51
315,601	55,1
316,131	63,24
316,661	61,71
317,19	60,78
317,72	53,01
318,249	57,99
318,778	53,02
319,307	51,79
319,836	57,72
320,365	63,1
320,893	60
321,422	57,39
321,95	56,26
322,479	60,45
323,007	54,27
323,535	51,6
324,063	55,14
324,591	60,69
325,118	60,57
325,646	57,77
326,173	62,31
326,701	62,75
327,228	60,67
327,755	63,06
328,282	54,7
328,809	55,05
329,336	51,36
329,862	55,65
330,389	57,38
330,915	56,77
331,441	56,87
331,968	52,87
332,494	54,94
333,02	52,48
333,545	54,43
334,071	55,78
334,597	54,9
335,122	57,77
335,648	54,37
336,173	55,41
336,698	57,28
337,223	52,66
337,748	51,35
338,272	55,86
338,797	57,54
339,322	56,87
339,846	53,18
340,37	56,73
340,894	60,68
341,419	54,07
341,942	48,81
342,466	51,53
342,99	52,13
343,514	53,57
344,037	50,91
344,56	54,45
345,084	47,88
345,607	50,49
346,13	49,52
346,653	52,2
347,175	47,32
347,698	50,84
348,221	48,59
348,743	50,95
349,265	48,78
349,787	51,14
350,309	48,19
350,831	51,51
351,353	38,82
351,875	48,47
352,397	47,95
352,918	47,24
353,439	46,69
353,961	44,95
354,482	44,43
355,003	41,47
355,524	45,28
356,044	47,91
356,565	45,41
357,086	47,88
357,606	43,97
358,126	45,99
358,646	46,68
359,167	45,39
359,687	42,52
360,206	43,5
360,726	46,1
361,246	44,12
361,765	45,55
362,285	47,06
362,804	44,29
363,323	45,76
363,842	45,9
364,361	45,22
364,88	49,27
365,398	44,77
365,917	45,25
366,435	42,96
366,954	46,72
367,472	44,59
367,99	44,56
368,508	42,84
369,026	45,96
369,544	43,75
370,061	45,77
370,579	45,21
371,096	45,64
371,613	46,39
372,131	43,81
372,648	43,49
373,165	39,99
373,681	42,2
374,198	41,87
374,715	42,22
375,231	42,44
375,747	42,26
376,264	38,16
376,78	42,78
377,296	42,68
377,812	41,31
378,327	42,44
378,843	40,95
379,359	39,88
379,874	41,41
380,389	38,9
380,905	38,49
381,42	37,71
381,935	38,85
382,449	37,81
382,964	38,1
383,479	38,75
383,993	37,07
384,508	36,84
385,022	34,71
385,536	35,49
386,05	36,91
386,564	35,47
387,078	36
387,592	34,58
388,105	33,33
388,619	33,53
389,132	32,8
389,645	34,05
390,158	32,32
390,671	32,36
391,184	33,36
391,697	30,57
392,21	32,98
392,722	31,66
393,235	32,38
393,747	31,37
394,259	30,83
394,771	32,54
395,283	30,86
395,795	31,05
396,307	32,41
396,818	29,75
397,33	28,27
397,841	27,49
398,353	28,83
398,864	27,81
399,375	29,6
399,886	27,04
400,397	26,3
400,907	24,86
401,418	24,85
401,928	25,19
402,439	24,22
402,949	23,13
403,459	23,89
403,969	22,87
404,479	22,48
404,989	21,69
405,498	20,54
406,008	19,9
406,517	19,79
407,027	19,29
407,536	19,03
408,045	18
408,554	17,24
409,063	16,83
409,572	16,33
410,08	16,71
410,589	15,15
411,097	15,52
411,606	14,63
412,114	13,83
412,622	12,82
413,13	14,06
413,638	13,13
414,145	12,82
414,653	12,29
415,16	11,41
415,668	11,88
416,175	11,95
416,682	11,12
417,189	11,22
417,696	10,59
418,203	9,73
418,71	10,36
419,216	10,38
419,723	9,93
420,229	9,94
420,735	9,52
421,242	9,84
421,748	9,71
422,254	9,28
422,759	9,43
423,265	9,16
423,771	8,77
424,276	9,24
424,781	9,18
425,287	8,91
425,792	8,74
426,297	8,83
426,802	8,69
427,306	8,76
427,811	9,06
428,316	8,39
428,82	8,43
429,324	8,45
429,829	7,79
430,333	8,13
430,837	8,01
431,34	7,86
431,844	8,2
432,348	8,24
432,851	8,02
433,355	8,06
433,858	7,95
434,361	7,77
434,864	7,65
435,367	7,26
435,87	7,55
436,373	7,72
436,876	7,6
437,378	7,45
437,88	7,4
438,383	7,4
438,885	7,63
439,387	7,66
439,889	7,51
440,391	7,66
440,892	7,48
441,394	7,35
441,896	7,59
442,397	7,51
442,898	7,42
443,399	7,48
443,9	7,61
444,401	7,51
444,902	7,58
445,403	7,32
445,903	7,76
446,404	7,7
446,904	7,43
447,405	7,65
447,905	7,51
448,405	8,47
448,905	7,99
449,404	8,02
449,904	7,74
450,404	8,04
450,903	8,31
451,403	8,09
451,902	8,15
452,401	8,33
452,9	8,12
453,399	8,2
453,898	8,72
454,396	8,72
454,895	8,48
455,393	8,52
455,892	8,48
456,39	8,64
456,888	8,27
457,386	8,45
457,884	8,79
458,382	8,7
458,879	8,42
459,377	8,78
459,874	8,5
460,372	8,57
460,869	8,9
461,366	8,72
461,863	8,87
462,36	8,69
462,857	8,63
463,353	8,68
463,85	8,55
464,346	8,48
464,843	8,71
465,339	8,66
465,835	8,74
466,331	8,28
466,827	8,68
467,323	8,54
467,818	8,43
468,314	8,52
468,809	8,45
469,305	8,64
469,8	8,43
470,295	8,74
470,79	8,65
471,285	8,87
471,78	8,83
472,274	8,72
472,769	8,55
473,263	8,61
473,758	8,71
474,252	8,58
474,746	8,57
475,24	8,73
475,734	8,87
476,228	8,77
476,721	8,87
477,215	8,99
477,708	8,9
478,202	8,88
478,695	8,76
479,188	8,7
479,681	8,91
480,174	8,9
480,667	8,99
481,159	8,92
481,652	8,97
482,144	8,87
482,637	9,09
483,129	8,88
483,621	9,21
484,113	9,22
484,605	9,14
485,097	9,3
485,588	9,19
486,08	9,19
486,571	9,51
487,063	9,07
487,554	9,02
488,045	9,39
488,536	9,52
489,027	9,64
489,518	9,58
490,008	9,44
490,499	9,49
490,989	9,66
491,48	9,94
491,97	9,9
492,46	9,8
492,95	10,18
493,44	10,12
493,93	10,33
494,419	10,34
494,909	10,39
495,398	10,69
495,888	10,59
496,377	10,66
496,866	11,02
497,355	10,92
497,844	11,3
498,333	11,17
498,821	11,6
499,31	11,38
499,798	11,83
500,287	11,74
500,775	11,97
501,263	12,41
501,751	12,5
502,239	12,89
502,727	12,9
503,215	13,24
503,702	13,26
504,19	13,34
504,677	13,74
505,164	14,16
505,651	14,25
506,139	14,51
506,625	14,97
507,112	14,99
507,599	15,25
508,086	15,61
508,572	16,08
509,058	16,3
509,545	16,46
510,031	16,71
510,517	16,92
511,003	17,16
511,489	17,86
511,974	18,06
512,46	18,38
512,946	19,01
513,431	19,06
513,916	19,62
514,401	19,8
514,887	20,46
515,371	20,44
515,856	20,92
516,341	21,55
516,826	22,05
517,31	22,35
517,795	22,63
518,279	23,16
518,763	23,4
519,247	23,76
519,731	24,36
520,215	24,75
520,699	24,88
521,182	25,34
521,666	25,9
522,149	26,47
522,633	26,83
523,116	26,93
523,599	27,47
524,082	27,91
524,565	28,3
525,048	28,87
525,53	29,24
526,013	28,97
526,495	29,8
526,978	30,34
527,46	30,02
527,942	30,52
528,424	30,81
528,906	31,08
529,388	31,16
529,87	31,96
530,351	31,74
530,833	32,01
531,314	32,39
531,795	32,38
532,277	32,6
532,758	33,27
533,238	33,19
533,719	33,24
534,2	33,25
534,681	33,6
535,161	33,63
535,642	33,66
536,122	33,67
536,602	33,99
537,082	34
537,562	34,28
538,042	34,56
538,522	33,86
539,001	34,01
539,481	34,3
539,96	34,6
540,44	34,42
540,919	34,61
541,398	34,83
541,877	35,19
542,356	34,8
542,835	35
543,313	35,11
543,792	35,15
544,27	35,38
544,749	35,15
545,227	35,53
545,705	35,5
546,183	35,3
546,661	35,23
547,139	35,25
547,616	35,24
548,094	35,37
548,571	35,68
549,049	35,42
549,526	35,9
550,003	35,69
550,48	35,56
550,957	35,68
551,434	35,51
551,911	35,73
552,387	35,93
552,864	35,67
553,34	35,62
553,817	36,07
554,293	35,77
554,769	36,06
555,245	35,38
555,721	35,85
556,197	35,63
556,672	35,8
557,148	35,83
557,623	35,77
558,099	35,61
558,574	35,68
559,049	35,13
559,524	35,59
559,999	35,42
560,474	35,41
560,948	35,02
561,423	35,34
561,897	34,85
562,372	35,19
562,846	34,74
563,32	34,96
563,794	34,47
564,268	34,6
564,742	34,29
565,216	34,26
565,69	34,17
566,163	34,03
566,636	33,56
567,11	33,73
567,583	33,38
568,056	33,65
568,529	32,83
569,002	32,61
569,475	32,88
569,947	32,14
570,42	32,2
570,892	31,95
571,365	31,94
571,837	31,54
572,309	31,3
572,781	31,25
573,253	31,23
573,725	30,71
574,197	30,49
574,668	30,55
575,14	30,44
575,611	30,01
576,082	29,81
576,554	29,59
577,025	29,7
577,496	29,01
577,967	29,14
578,437	28,87
578,908	29
579,379	28,59
579,849	28,52
580,319	28,2
580,79	27,99
581,26	28,02
581,73	27,63
582,2	27,78
582,669	27,61
583,139	27,37
583,609	27,29
584,078	27,03
584,548	26,88
585,017	27,05
585,486	26,93
585,955	26,5
586,424	26,32
586,893	26,49
587,362	26,36
587,83	25,96
588,299	26,02
588,767	26
589,236	25,99
589,704	25,72
590,172	25,9
590,64	25,53
591,108	25,35
591,576	25,32
592,043	25,41
592,511	25,24
592,978	24,93
593,446	25,15
593,913	25
594,38	24,95
594,847	24,9
595,314	24,84
595,781	24,92
596,248	24,8
596,715	24,61
597,181	24,74
597,647	24,46
598,114	24,42
598,58	24,7
599,046	24,32
599,512	24,33
599,978	24,38
600,444	24,2
600,91	24,01
601,375	24,24
601,841	24,27
602,306	24,23
602,771	23,98
603,236	24,11
603,702	23,94
604,167	23,73
604,631	23,77
605,096	23,7
605,561	23,71
606,025	23,51
606,49	23,26
606,954	23,46
607,418	23,08
607,882	23,17
608,347	23,02
608,81	23,04
609,274	22,73
609,738	22,73
610,202	22,46
610,665	22,42
611,128	22,34
611,592	22,29
612,055	21,94
612,518	21,95
612,981	21,7
613,444	21,7
613,907	21,62
614,369	21,41
614,832	21,39
615,294	21,08
615,757	21,18
616,219	21,06
616,681	20,9
617,143	20,73
617,605	20,52
618,067	20,56
618,529	20,07
618,99	20,3
619,452	20,18
619,913	19,97
620,375	19,96
620,836	20,02
621,297	19,84
621,758	19,94
622,219	19,72
622,68	19,76
623,14	19,67
623,601	19,36
624,061	19,45
624,522	19,42
624,982	19,45
625,442	19,51
625,902	19,36
626,362	19,31
626,822	19,41
627,282	19,17
627,742	19,23
628,201	19,2
628,661	19,21
629,12	19,24
629,579	19,08
630,038	19,19
630,497	19,01
630,956	19,01
631,415	18,96
631,874	19,04
632,332	18,96
632,791	18,86
633,249	18,83
633,708	18,77
634,166	18,69
634,624	18,43
635,082	18,37
635,54	18,46
635,998	18,17
636,455	18,16
636,913	18,03
637,37	17,95
637,828	17,77
638,285	17,58
638,742	17,45
639,199	17,33
639,656	17,09
640,113	16,94
640,57	16,75
641,027	16,6
641,483	16,45
641,94	16,28
642,396	16,21
642,852	15,94
643,309	15,74
643,765	15,62
644,221	15,38
644,676	15,33
645,132	15,04
645,588	14,88
646,043	14,77
646,499	14,52
646,954	14,42
647,409	14,17
647,864	14,06
648,319	13,84
648,774	13,83
649,229	13,63
649,684	13,42
650,139	13,44
650,593	13,3
651,047	13,31
651,502	12,92
651,956	12,98
652,41	12,97
652,864	12,94
653,318	12,79
653,772	12,7
654,225	12,68
654,679	12,53
655,133	12,44
655,586	12,35
656,039	12,24
656,492	12,23
656,946	12,04
657,399	11,94
657,851	11,86
658,304	11,81
658,757	11,76
659,209	11,52
659,662	11,4
660,114	11,21
660,567	11,05
661,019	10,89
661,471	10,85
661,923	10,58
662,375	10,47
662,826	10,36
663,278	10,11
663,73	10,12
664,181	9,96
664,632	9,91
665,084	9,75
665,535	9,52
665,986	9,51
666,437	9,43
666,888	9,28
667,338	9,24
667,789	9,13
668,24	9,18
668,69	9,02
669,14	9,04
669,591	8,96
670,041	8,91
670,491	8,83
670,941	8,83
671,391	8,84
671,84	8,93
672,29	8,89
672,74	8,94
673,189	8,96
673,638	9,02
674,088	9,05
674,537	9,02
674,986	9,02
675,435	9,13
675,883	9,09
676,332	9,32
676,781	9,29
677,229	9,35
677,678	9,46
678,126	9,62
678,574	9,7
679,022	9,77
679,47	9,92
679,918	10,08
680,366	10,04
680,814	10,26
681,261	10,33
681,709	10,62
682,156	10,74
682,604	10,82
683,051	10,98
683,498	11,3
683,945	11,49
684,392	11,73
684,839	12,07
685,286	12,2
685,732	12,51
686,179	12,82
686,625	13,11
687,071	13,4
687,518	13,9
687,964	14,34
688,41	14,73
688,856	15,19
689,301	15,65
689,747	16,1
690,193	16,76
690,638	17,31
691,084	17,84
691,529	18,62
691,974	19,17
692,419	19,89
692,864	20,41
693,309	21,28
693,754	21,83
694,199	22,54
694,643	23,29
695,088	23,93
695,532	24,84
695,977	25,33
696,421	26,12
696,865	26,76
697,309	27,75
697,753	28,36
698,197	28,92
698,64	29,62
699,084	30,3
699,527	31,01
699,971	31,62
700,414	32,37
700,857	32,97
701,3	33,54
701,743	34,1
702,186	34,94
702,629	35,43
703,072	35,92
703,515	36,5
703,957	36,93
704,399	37,56
704,842	37,89
705,284	38,48
705,726	39,08
706,168	39,69
706,61	40,14
707,052	40,28
707,494	40,93
707,935	41,21
708,377	41,86
708,818	42,32
709,26	42,59
709,701	43,07
710,142	43,28
710,583	43,88
711,024	44,11
711,465	44,78
711,905	45,02
712,346	45,47
712,787	45,78
713,227	46,15
713,667	46,71
714,108	46,84
714,548	47,25
714,988	47,32
715,428	47,64
715,868	48,14
716,307	48,4
716,747	48,78
717,186	49,21
717,626	49,32
718,065	50,01
718,504	49,78
718,944	50,2
719,383	50,38
719,822	50,55
720,261	50,81
720,699	51,26
721,138	51,36
721,576	51,68
722,015	51,84
722,453	52,21
722,892	52,36
723,33	52,56
723,768	53,09
724,206	53,19
724,644	53,2
725,081	53,36
725,519	53,42
725,957	53,54
726,394	53,97
726,832	53,95
727,269	54,21
727,706	54,64
728,143	54,57
728,58	54,73
729,017	54,57
729,454	54,96
729,89	54,94
730,327	54,95
730,764	55,07
731,2	55,64
731,636	55,61
732,072	55,69
732,509	55,9
732,945	55,72
733,38	55,98
733,816	55,78
734,252	55,88
734,688	55,84
735,123	55,93
735,559	56,36
735,994	56,25
736,429	56,23
736,864	56,43
737,299	56,13
737,734	56,26
738,169	56,43
738,604	56,61
739,038	56,57
739,473	56,43
739,907	56,92
740,342	56,83
740,776	56,46
741,21	56,74
741,644	56,58
742,078	56,69
742,512	56,99
742,946	56,94
743,379	56,93
743,813	56,85
744,246	56,9
744,68	56,98
745,113	56,96
745,546	56,65
745,979	56,8
746,412	56,88
746,845	56,67
747,278	57,05
747,711	56,88
748,143	56,72
748,576	56,72
749,008	56,63
749,441	56,56
749,873	56,71
750,305	56,56
750,737	56,67
751,169	56,59
751,601	56,38
752,032	56,64
752,464	56,66
752,896	56,5
753,327	56,33
753,758	56,2
754,19	56,33
754,621	56,35
755,052	56,39
755,483	56,09
755,914	56,45
756,344	56,54
756,775	56,35
757,206	56,61
757,636	56,22
758,066	56,21
758,497	56,19
758,927	56,09
759,357	56,05
759,787	56,19
760,217	56,21
760,647	55,96
761,076	56,32
761,506	56,03
761,935	55,69
762,365	55,91
762,794	56
763,223	55,95
763,653	56
764,082	55,96
764,51	55,99
764,939	55,74
765,368	55,94
765,797	56,13
766,225	55,56
766,654	55,58
767,082	55,69
767,51	55,65
767,938	55,54
768,367	55,42
768,795	55,44
769,222	55,53
769,65	55,62
770,078	55,65
770,505	55,39
770,933	55,51
771,36	55,49
771,788	55,33
772,215	55,51
772,642	55,53
773,069	55,51
773,496	55,16
773,923	55,23
774,349	55,16
774,776	55,28
775,203	55,34
775,629	55,21
776,055	55,16
776,482	55,18
776,908	55,21
777,334	55,28
777,76	55,14
778,186	55,21
778,611	55,29
779,037	55,18
779,463	55,19
779,888	55,24
780,314	55,05
780,739	55,2
781,164	55,19
781,589	54,99
782,014	55,19
782,439	55,06
782,864	55,02
783,289	55,28
783,713	54,77
784,138	54,88
784,562	54,97
784,987	54,92
785,411	54,8
785,835	55,25
786,259	54,86
786,683	55,11
787,107	54,93
787,531	54,86
787,954	54,75
788,378	55,15
788,802	54,99
789,225	54,98
789,648	54,73
790,071	55,05
790,495	54,9
790,918	54,84
791,34	55
791,763	54,95
792,186	54,96
792,609	54,93
793,031	54,78
793,454	54,82
793,876	55,04
794,298	54,8
794,721	54,73
795,143	55,01
795,565	54,65
795,986	54,8
796,408	54,82
796,83	54,83
797,252	54,84
797,673	55
798,094	54,76
798,516	54,71
798,937	54,83
799,358	54,74
799,779	54,77
800,2	54,89
800,621	54,86
801,042	54,86
801,462	54,61
801,883	54,95
802,303	54,92
802,724	54,81
803,144	54,98
803,564	54,52
803,984	54,81
804,404	54,67
804,824	54,9
805,244	54,83
805,664	54,86
806,084	54,82
806,503	55,03
806,923	54,73
807,342	54,72
807,761	54,77
808,18	54,89
808,599	54,92
809,018	54,68
809,437	54,77
809,856	54,6
810,275	54,67
810,693	54,78
811,112	54,61
811,53	54,44
811,949	54,84
812,367	54,52
812,785	54,74
813,203	54,75
813,621	54,69
814,039	54,72
814,457	54,44
814,874	54,73
815,292	54,62
815,709	54,5
816,127	54,57
816,544	54,67
816,961	54,59
817,378	54,89
817,795	54,43
818,212	54,75
818,629	54,59
819,046	54,63
819,462	54,63
819,879	54,82
820,295	54,51
820,712	54,51
821,128	54,57
821,544	54,41
821,96	54,73
822,376	54,55
822,792	54,44
823,208	54,27
823,624	54,69
824,039	54,73
824,455	54,5
824,87	54,51
825,286	54,54
825,701	54,92
826,116	54,22
826,531	54,4
826,946	54,54
827,361	54,32
827,776	54,45
828,19	54,52
828,605	54,46
829,02	54,46
829,434	54,27
829,848	54,71
830,263	54,45
830,677	54,45
831,091	54,58
831,505	54,68
831,919	54,47
832,332	54,26
832,746	54,45
833,16	54,57
833,573	54,27
833,987	54,4
834,4	54,37
834,813	54,28
835,226	54,59
835,639	54,45
836,052	54,63
836,465	54,45
836,878	54,55
837,29	54,35
837,703	54,52
838,116	54,69
838,528	54,41
838,94	54,45
