Data from C6__Relative__6__00035.txt Node

Date: Tue Jan 30 17:53:55 CET 2024
User: diatiterra
Spectrometer: HDX00911
Trigger mode: 0
Integration Time (sec): 6,000000E-3
Scans to average: 3
Nonlinearity correction enabled: true
Boxcar width: 0
Storing dark spectrum: false
XAxis mode: Wavelengths
Number of Pixels in Spectrum: 2068
>>>>>Begin Spectral Data<<<<<
194,468	94,07
195,025	75,94
195,581	96,69
196,138	83,11
196,694	79,68
197,251	74,14
197,807	68,91
198,363	68,97
198,919	74,36
199,474	72
200,03	72,75
200,586	66,86
201,141	65,78
201,696	65,53
202,251	70,67
202,806	72,91
203,361	69,34
203,916	66,86
204,471	70,72
205,025	73,27
205,58	69,09
206,134	67,93
206,688	66,86
207,242	67,17
207,796	69,1
208,35	70,53
208,904	69,69
209,457	67,54
210,011	67,09
210,564	68,31
211,117	74,59
211,67	76,98
212,223	71,74
212,776	67,85
213,329	74,68
213,881	70,23
214,434	66,92
214,986	69,81
215,538	67,68
216,09	68,75
216,642	68,92
217,194	66,25
217,746	71,96
218,297	66,32
218,849	76,61
219,4	69,77
219,951	69,42
220,502	68,66
221,053	71,62
221,604	70,18
222,155	68,37
222,705	71,93
223,256	74,33
223,806	72,8
224,356	70,29
224,906	70,27
225,456	66,65
226,006	65,1
226,556	66,59
227,106	70,3
227,655	65,9
228,204	68,55
228,754	67,78
229,303	67,94
229,852	71,96
230,401	71,46
230,949	69,83
231,498	62,63
232,047	65,36
232,595	72,6
233,143	73,94
233,691	70,56
234,239	66,06
234,787	64,41
235,335	70,26
235,883	73,9
236,43	74,53
236,978	67,88
237,525	69,19
238,072	67,98
238,619	74,57
239,166	63,55
239,713	64,69
240,26	73,88
240,806	68,77
241,353	67,06
241,899	67,37
242,445	71,45
242,991	69,81
243,537	68,71
244,083	67,13
244,629	72,52
245,174	67,51
245,72	66,73
246,265	70,71
246,81	73,3
247,355	61,12
247,9	73,38
248,445	72,55
248,99	70
249,534	71,21
250,079	71,59
250,623	64,32
251,168	71,9
251,712	65,6
252,256	66,52
252,8	69,93
253,343	75,37
253,887	71,34
254,43	75,94
254,974	73,24
255,517	67,35
256,06	71,21
256,603	70,58
257,146	68,85
257,689	71,63
258,232	66,67
258,774	64,59
259,317	71,4
259,859	68,92
260,401	69,14
260,943	70,98
261,485	70,93
262,027	72,9
262,569	70,26
263,11	72,69
263,652	73,45
264,193	68,15
264,734	74,2
265,275	66,89
265,816	67,88
266,357	70,83
266,898	69,27
267,438	66,15
267,979	79,83
268,519	69,39
269,059	66,96
269,6	64,45
270,14	71,76
270,68	64,36
271,219	72,45
271,759	72,37
272,298	74,94
272,838	71,24
273,377	71,37
273,916	68,06
274,455	65
274,994	70,87
275,533	67,78
276,072	75,01
276,61	70,5
277,149	64,12
277,687	67,03
278,225	66,04
278,763	68,99
279,301	70,18
279,839	65,91
280,377	71,37
280,914	68,43
281,452	67,13
281,989	70,67
282,526	65,98
283,064	78,29
283,601	65,66
284,137	72,23
284,674	67,51
285,211	69,24
285,747	64,46
286,284	71,02
286,82	68,66
287,356	64,72
287,892	68,26
288,428	67,18
288,964	66,18
289,5	69,92
290,035	69,74
290,571	61,07
291,106	74,48
291,641	68,34
292,176	65,49
292,711	68,47
293,246	70,85
293,781	65,11
294,315	59,91
294,85	70,99
295,384	70,44
295,918	64,55
296,453	65,43
296,987	68,09
297,52	69,1
298,054	64,25
298,588	66,68
299,121	67,43
299,655	66,96
300,188	66,38
300,721	60,57
301,254	72
301,787	70,76
302,32	71,78
302,853	58,03
303,385	68,45
303,918	71,79
304,45	58,53
304,982	65,24
305,514	67,87
306,046	62,52
306,578	65,09
307,11	71,09
307,641	65,62
308,173	58,26
308,704	70,69
309,236	63,58
309,767	69,15
310,298	72,02
310,829	65,7
311,359	65,56
311,89	67,87
312,421	65,54
312,951	58,15
313,481	66,53
314,012	63,37
314,542	70,25
315,072	64,4
315,601	65,31
316,131	65,93
316,661	69,59
317,19	71,31
317,72	59,46
318,249	63,54
318,778	65,09
319,307	60,09
319,836	66,23
320,365	62,16
320,893	67,03
321,422	58,04
321,95	60,93
322,479	68,68
323,007	63,88
323,535	62,95
324,063	67,64
324,591	64,55
325,118	68,69
325,646	62,8
326,173	69,08
326,701	65,8
327,228	66
327,755	70,55
328,282	66,02
328,809	63,6
329,336	63,81
329,862	62,39
330,389	66,6
330,915	68,3
331,441	70,61
331,968	61,4
332,494	61,81
333,02	68,39
333,545	64,58
334,071	65,34
334,597	67,64
335,122	67,4
335,648	69,78
336,173	64,37
336,698	61,39
337,223	63,72
337,748	67,5
338,272	63,43
338,797	62,37
339,322	65,59
339,846	62,22
340,37	61,89
340,894	65,6
341,419	58,66
341,942	60,33
342,466	61
342,99	62,24
343,514	64,21
344,037	56,3
344,56	65,73
345,084	55,4
345,607	64,23
346,13	59,01
346,653	55,72
347,175	60,05
347,698	58,99
348,221	59,31
348,743	55,72
349,265	60,75
349,787	62,9
350,309	63,19
350,831	59,79
351,353	52,36
351,875	53,8
352,397	48,73
352,918	59,52
353,439	59,14
353,961	53,12
354,482	54,72
355,003	50,66
355,524	56,99
356,044	54,15
356,565	57,12
357,086	55,74
357,606	48,92
358,126	57,6
358,646	55,07
359,167	54,97
359,687	52,9
360,206	56,26
360,726	51,73
361,246	50,18
361,765	52,7
362,285	52,41
362,804	56,01
363,323	54,43
363,842	56,28
364,361	55,76
364,88	52,8
365,398	52,15
365,917	54,65
366,435	52,94
366,954	54,11
367,472	50,19
367,99	54,52
368,508	52,1
369,026	53,05
369,544	53,68
370,061	50,28
370,579	49,24
371,096	51,29
371,613	53,84
372,131	52,48
372,648	53,18
373,165	49,93
373,681	54,01
374,198	54,7
374,715	49,72
375,231	52,74
375,747	51,44
376,264	49,16
376,78	52,45
377,296	51,66
377,812	47,5
378,327	49,64
378,843	48,35
379,359	47,86
379,874	51,44
380,389	48,85
380,905	50,1
381,42	46,53
381,935	49,75
382,449	46,71
382,964	43,75
383,479	47,79
383,993	44,67
384,508	43,87
385,022	43,98
385,536	45,47
386,05	42,91
386,564	46,92
387,078	42,77
387,592	42,23
388,105	40,93
388,619	43,82
389,132	41,49
389,645	42,46
390,158	40,05
390,671	40,49
391,184	40,18
391,697	39,36
392,21	38,99
392,722	38,73
393,235	38,46
393,747	38,17
394,259	38,14
394,771	40,46
395,283	38,11
395,795	39,59
396,307	37,61
396,818	36,94
397,33	36,78
397,841	35,82
398,353	35,62
398,864	36,25
399,375	36,69
399,886	34,94
400,397	33,43
400,907	32,54
401,418	30,9
401,928	33,2
402,439	30,9
402,949	31,53
403,459	31,33
403,969	31,29
404,479	29,37
404,989	28,56
405,498	27,98
406,008	28,34
406,517	26,68
407,027	25,52
407,536	25,52
408,045	25,66
408,554	24,84
409,063	22,64
409,572	22,25
410,08	22,87
410,589	21,86
411,097	22,28
411,606	21,4
412,114	20,33
412,622	19,38
413,13	19,93
413,638	19,99
414,145	19,07
414,653	18,04
415,16	18,39
415,668	17,96
416,175	17,75
416,682	17,01
417,189	16,68
417,696	16,22
418,203	16,16
418,71	15,72
419,216	16,25
419,723	15,41
420,229	15,42
420,735	15,6
421,242	15,58
421,748	15,22
422,254	14,78
422,759	14,56
423,265	14,74
423,771	14,58
424,276	14,32
424,781	14,45
425,287	14,14
425,792	14,35
426,297	14,14
426,802	13,97
427,306	13,99
427,811	14,59
428,316	14,03
428,82	13,86
429,324	13,74
429,829	13,47
430,333	13,48
430,837	13,11
431,34	13,63
431,844	13,85
432,348	13,68
432,851	13,61
433,355	13,6
433,858	13,5
434,361	13,45
434,864	13,51
435,367	12,58
435,87	13,34
436,373	13,04
436,876	12,96
437,378	12,96
437,88	13,17
438,383	13,11
438,885	13,09
439,387	12,82
439,889	13,04
440,391	13,2
440,892	13,04
441,394	12,77
441,896	12,99
442,397	12,64
442,898	13,06
443,399	12,83
443,9	12,86
444,401	13,13
444,902	12,88
445,403	13,31
445,903	12,75
446,404	13
446,904	13,12
447,405	12,93
447,905	13,34
448,405	13,72
448,905	13,51
449,404	13,06
449,904	13,12
450,404	13,41
450,903	13,56
451,403	13,61
451,902	13,12
452,401	13,12
452,9	13,38
453,399	13,63
453,898	13,35
454,396	13,58
454,895	13,81
455,393	13,62
455,892	13,36
456,39	13,8
456,888	13,43
457,386	13,51
457,884	13,66
458,382	13,55
458,879	13,58
459,377	13,61
459,874	13,84
460,372	13,97
460,869	13,75
461,366	13,43
461,863	13,83
462,36	14,02
462,857	14
463,353	13,71
463,85	13,47
464,346	14,01
464,843	14,03
465,339	13,63
465,835	14,02
466,331	14
466,827	13,59
467,323	13,79
467,818	13,9
468,314	13,85
468,809	13,5
469,305	13,49
469,8	13,9
470,295	13,59
470,79	13,91
471,285	13,86
471,78	14
472,274	13,85
472,769	13,67
473,263	14,05
473,758	13,77
474,252	13,83
474,746	13,81
475,24	13,96
475,734	13,73
476,228	13,82
476,721	14,02
477,215	13,8
477,708	13,82
478,202	14,01
478,695	13,76
479,188	13,88
479,681	14,04
480,174	13,82
480,667	14,1
481,159	14,18
481,652	14,07
482,144	14,32
482,637	14,13
483,129	13,97
483,621	14,17
484,113	14,15
484,605	14,09
485,097	14,13
485,588	14,1
486,08	14,01
486,571	14,27
487,063	14,32
487,554	14,37
488,045	14,1
488,536	14,57
489,027	14,47
489,518	14,49
490,008	14,53
490,499	14,31
490,989	14,57
491,48	14,94
491,97	14,83
492,46	14,74
492,95	15,17
493,44	15,02
493,93	14,8
494,419	15,08
494,909	15,29
495,398	15,51
495,888	15,44
496,377	15,74
496,866	15,63
497,355	15,64
497,844	15,89
498,333	15,92
498,821	16,11
499,31	16,26
499,798	16,39
500,287	16,6
500,775	16,72
501,263	17
501,751	17,01
502,239	17,29
502,727	17,62
503,215	17,79
503,702	17,56
504,19	18,04
504,677	18,38
505,164	18,11
505,651	18,63
506,139	18,93
506,625	19,03
507,112	19,58
507,599	19,77
508,086	19,96
508,572	20,18
509,058	20,44
509,545	20,66
510,031	20,92
510,517	21,37
511,003	21,66
511,489	21,67
511,974	22,27
512,46	22,45
512,946	22,89
513,431	22,94
513,916	23,33
514,401	23,88
514,887	24,38
515,371	24,72
515,856	24,96
516,341	25,39
516,826	25,97
517,31	26,08
517,795	26,63
518,279	27,14
518,763	27,22
519,247	27,76
519,731	28,43
520,215	28,75
520,699	29,05
521,182	29,37
521,666	30,1
522,149	30,21
522,633	30,96
523,116	31,06
523,599	31,59
524,082	32,09
524,565	32,51
525,048	32,48
525,53	33,15
526,013	33,47
526,495	33,93
526,978	34,33
527,46	34,41
527,942	34,61
528,424	35,1
528,906	35,22
529,388	35,64
529,87	35,69
530,351	36,17
530,833	36,32
531,314	36,37
531,795	36,44
532,277	37,39
532,758	37,43
533,238	37,19
533,719	37,46
534,2	37,62
534,681	37,71
535,161	38,34
535,642	37,97
536,122	38,18
536,602	38,26
537,082	38,84
537,562	38,44
538,042	38,81
538,522	38,52
539,001	38,79
539,481	39,19
539,96	39,16
540,44	39,07
540,919	39,12
541,398	39,31
541,877	39,62
542,356	39,52
542,835	39,82
543,313	39,59
543,792	39,56
544,27	39,79
544,749	39,91
545,227	39,99
545,705	40,18
546,183	40,21
546,661	40,1
547,139	40,16
547,616	40,34
548,094	39,91
548,571	39,97
549,049	40,06
549,526	40,63
550,003	40,36
550,48	40,11
550,957	40,48
551,434	40,39
551,911	40,22
552,387	40,31
552,864	40,33
553,34	40,46
553,817	41,07
554,293	40,66
554,769	41,05
555,245	40,23
555,721	40,36
556,197	40,65
556,672	40,76
557,148	40,72
557,623	40,41
558,099	40,62
558,574	40,4
559,049	40,17
559,524	40,21
559,999	40,4
560,474	40,29
560,948	40,09
561,423	40,17
561,897	39,85
562,372	39,86
562,846	39,97
563,32	39,78
563,794	39,51
564,268	39,11
564,742	39,37
565,216	38,96
565,69	38,71
566,163	38,73
566,636	38,28
567,11	38,42
567,583	38,15
568,056	38,12
568,529	37,95
569,002	37,62
569,475	37,32
569,947	37,04
570,42	37,14
570,892	36,58
571,365	36,56
571,837	36,04
572,309	36,03
572,781	35,8
573,253	35,93
573,725	35,43
574,197	35,31
574,668	35,18
575,14	34,88
575,611	34,39
576,082	34,24
576,554	34,35
577,025	33,84
577,496	33,93
577,967	33,74
578,437	33,57
578,908	33,19
579,379	33,02
579,849	33
580,319	32,7
580,79	32,93
581,26	32,45
581,73	32,28
582,2	32,22
582,669	32,06
583,139	31,97
583,609	31,49
584,078	31,3
584,548	31,46
585,017	31,33
585,486	31,3
585,955	30,86
586,424	31,01
586,893	30,82
587,362	30,62
587,83	30,43
588,299	30,25
588,767	30,48
589,236	30,24
589,704	30,37
590,172	30,27
590,64	30,21
591,108	29,92
591,576	29,97
592,043	29,88
592,511	29,61
592,978	29,52
593,446	29,46
593,913	29,5
594,38	29,32
594,847	29,56
595,314	29,05
595,781	29,16
596,248	28,98
596,715	29,03
597,181	28,92
597,647	29,03
598,114	28,92
598,58	28,98
599,046	28,88
599,512	28,82
599,978	28,72
600,444	28,71
600,91	28,62
601,375	28,58
601,841	28,46
602,306	28,47
602,771	28,36
603,236	28,49
603,702	28,29
604,167	28,03
604,631	28,22
605,096	27,95
605,561	27,9
606,025	27,67
606,49	27,51
606,954	27,54
607,418	27,43
607,882	27,27
608,347	27,26
608,81	27,11
609,274	26,93
609,738	26,62
610,202	26,81
610,665	26,7
611,128	26,89
611,592	26,43
612,055	26,25
612,518	26,19
612,981	26,08
613,444	25,8
613,907	25,55
614,369	25,55
614,832	25,58
615,294	25,41
615,757	25,3
616,219	25,11
616,681	24,95
617,143	25,03
617,605	24,86
618,067	24,69
618,529	24,5
618,99	24,52
619,452	24,3
619,913	24,42
620,375	24,02
620,836	23,98
621,297	24,09
621,758	23,93
622,219	24,05
622,68	23,84
623,14	23,94
623,601	23,76
624,061	23,7
624,522	23,53
624,982	23,69
625,442	23,56
625,902	23,58
626,362	23,37
626,822	23,47
627,282	23,65
627,742	23,48
628,201	23,44
628,661	23,45
629,12	23,41
629,579	23,22
630,038	23,39
630,497	23,06
630,956	23,41
631,415	23,25
631,874	23,21
632,332	23,08
632,791	23,15
633,249	22,98
633,708	22,83
634,166	22,83
634,624	22,84
635,082	22,56
635,54	22,68
635,998	22,64
636,455	22,47
636,913	22,27
637,37	22,39
637,828	22,06
638,285	22,14
638,742	21,75
639,199	21,72
639,656	21,77
640,113	21,5
640,57	21,28
641,027	21,01
641,483	21,04
641,94	20,67
642,396	20,84
642,852	20,59
643,309	20,39
643,765	20,15
644,221	20,02
644,676	19,93
645,132	19,75
645,588	19,56
646,043	19,35
646,499	19,2
646,954	19,01
647,409	18,95
647,864	18,6
648,319	18,55
648,774	18,35
649,229	18,45
649,684	18,19
650,139	18,28
650,593	18,06
651,047	17,92
651,502	17,88
651,956	17,79
652,41	17,65
652,864	17,59
653,318	17,44
653,772	17,46
654,225	17,46
654,679	17,18
655,133	17,13
655,586	17,15
656,039	16,88
656,492	16,81
656,946	16,84
657,399	16,7
657,851	16,56
658,304	16,37
658,757	16,33
659,209	16,04
659,662	15,94
660,114	15,87
660,567	15,73
661,019	15,64
661,471	15,56
661,923	15,27
662,375	15,25
662,826	15,27
663,278	14,99
663,73	14,83
664,181	14,86
664,632	14,68
665,084	14,51
665,535	14,49
665,986	14,35
666,437	14,28
666,888	14,35
667,338	14,18
667,789	14,25
668,24	14
668,69	13,94
669,14	14,04
669,591	13,94
670,041	14,04
670,491	13,84
670,941	14,01
671,391	13,94
671,84	13,94
672,29	13,85
672,74	14,02
673,189	13,99
673,638	14,03
674,088	14,07
674,537	14,08
674,986	14,18
675,435	14,29
675,883	14,18
676,332	14,4
676,781	14,43
677,229	14,53
677,678	14,72
678,126	14,7
678,574	14,87
679,022	14,88
679,47	15,11
679,918	15,01
680,366	15,13
680,814	15,16
681,261	15,27
681,709	15,49
682,156	15,58
682,604	15,85
683,051	15,88
683,498	16,09
683,945	16,27
684,392	16,52
684,839	16,64
685,286	16,81
685,732	17
686,179	17,34
686,625	17,5
687,071	17,84
687,518	18,28
687,964	18,51
688,41	18,92
688,856	19,22
689,301	19,86
689,747	20,14
690,193	20,85
690,638	21,3
691,084	21,75
691,529	22,16
691,974	22,85
692,419	23,46
692,864	24,06
693,309	24,84
693,754	25,49
694,199	26,07
694,643	26,77
695,088	27,58
695,532	28,26
695,977	28,76
696,421	29,66
696,865	30,16
697,309	31,19
697,753	31,74
698,197	32,48
698,64	33,12
699,084	33,74
699,527	34,6
699,971	35,02
700,414	35,8
700,857	36,52
701,3	37,25
701,743	37,87
702,186	38,38
702,629	39,23
703,072	39,61
703,515	40,45
703,957	40,64
704,399	41,48
704,842	41,94
705,284	42,37
705,726	43,05
706,168	43,51
706,61	44,3
707,052	44,72
707,494	45,3
707,935	45,55
708,377	46,36
708,818	46,87
709,26	47,32
709,701	47,65
710,142	47,89
710,583	48,7
711,024	49,09
711,465	49,84
711,905	49,91
712,346	50,4
712,787	50,82
713,227	51,32
713,667	51,94
714,108	52,15
714,548	52,29
714,988	52,8
715,428	53,38
715,868	53,81
716,307	53,91
716,747	54,76
717,186	54,93
717,626	55,07
718,065	55,62
718,504	55,64
718,944	56,47
719,383	56,96
719,822	56,76
720,261	57,06
720,699	57,54
721,138	57,7
721,576	58,16
722,015	58,38
722,453	58,91
722,892	59,28
723,33	59,74
723,768	59,67
724,206	60,09
724,644	60,15
725,081	60,56
725,519	60,87
725,957	60,71
726,394	60,95
726,832	61,45
727,269	61,66
727,706	61,6
728,143	62,13
728,58	62,29
729,017	62,24
729,454	62,94
729,89	62,95
730,327	62,83
730,764	63,15
731,2	63,54
731,636	63,56
732,072	63,66
732,509	63,67
732,945	63,56
733,38	63,82
733,816	64,02
734,252	64,12
734,688	64,02
735,123	64,37
735,559	64,52
735,994	64,78
736,429	64,59
736,864	64,78
737,299	64,26
737,734	64,66
738,169	64,79
738,604	64,88
739,038	65,14
739,473	64,83
739,907	65,24
740,342	65,21
740,776	64,93
741,21	65,27
741,644	65,06
742,078	65,41
742,512	65,35
742,946	65,57
743,379	65,44
743,813	65,33
744,246	65,42
744,68	65,44
745,113	65,65
745,546	65,37
745,979	65,44
746,412	65,34
746,845	65,53
747,278	65,39
747,711	65,45
748,143	65,65
748,576	65,42
749,008	65,2
749,441	65,25
749,873	65,21
750,305	65,48
750,737	65,56
751,169	65,28
751,601	65,21
752,032	65,28
752,464	65,23
752,896	65,33
753,327	65,16
753,758	65,11
754,19	65,24
754,621	65,12
755,052	65,21
755,483	64,93
755,914	65,15
756,344	65,29
756,775	65,07
757,206	65,1
757,636	65,36
758,066	65,04
758,497	64,95
758,927	64,87
759,357	64,84
759,787	65,11
760,217	64,78
760,647	64,95
761,076	65,05
761,506	64,71
761,935	64,47
762,365	64,84
762,794	64,67
763,223	64,58
763,653	64,86
764,082	64,76
764,51	64,9
764,939	64,89
765,368	64,63
765,797	64,76
766,225	64,67
766,654	64,47
767,082	64,27
767,51	64,65
767,938	64,62
768,367	64,36
768,795	64,33
769,222	64,63
769,65	64,74
770,078	64,18
770,505	64,04
770,933	64,49
771,36	64,2
771,788	64,18
772,215	64,5
772,642	64,22
773,069	64,26
773,496	64,2
773,923	64,07
774,349	64,19
774,776	64,16
775,203	64,1
775,629	64,24
776,055	63,88
776,482	64,09
776,908	63,97
777,334	63,94
777,76	64,08
778,186	63,73
778,611	64,17
779,037	64,01
779,463	63,95
779,888	63,9
780,314	63,74
780,739	64,08
781,164	63,56
781,589	63,86
782,014	63,91
782,439	63,75
782,864	63,99
783,289	64,05
783,713	63,81
784,138	63,62
784,562	63,85
784,987	63,4
785,411	63,62
785,835	63,94
786,259	63,84
786,683	64,06
787,107	63,69
787,531	63,64
787,954	63,67
788,378	63,98
788,802	63,69
789,225	63,86
789,648	63,82
790,071	63,95
790,495	63,47
790,918	63,87
791,34	63,71
791,763	63,7
792,186	63,52
792,609	63,7
793,031	63,56
793,454	63,58
793,876	63,61
794,298	63,36
794,721	63,65
795,143	63,78
795,565	63,77
795,986	63,7
796,408	63,65
796,83	63,4
797,252	63,43
797,673	63,76
798,094	63,35
798,516	63,36
798,937	63,73
799,358	63,73
799,779	63,31
800,2	63,42
800,621	63,56
801,042	63,42
801,462	63,63
801,883	63,53
802,303	63,42
802,724	63,24
803,144	63,56
803,564	63,27
803,984	63,7
804,404	63,58
804,824	63,76
805,244	63,41
805,664	63,61
806,084	63,27
806,503	63,77
806,923	63,56
807,342	63,32
807,761	63,23
808,18	63,5
808,599	63,39
809,018	63,4
809,437	63,46
809,856	63,14
810,275	63,12
810,693	63,26
811,112	63,26
811,53	63,12
811,949	63,47
812,367	63,4
812,785	63,41
813,203	63,5
813,621	63,5
814,039	63,15
814,457	62,99
814,874	63,61
815,292	63,48
815,709	63,26
816,127	63,53
816,544	63,44
816,961	63,24
817,378	63,47
817,795	63,49
818,212	63,26
818,629	63,2
819,046	63,23
819,462	63,28
819,879	63,33
820,295	63,16
820,712	62,99
821,128	63,43
821,544	63,15
821,96	63,22
822,376	63,22
822,792	63,22
823,208	63,09
823,624	63,39
824,039	62,97
824,455	62,88
824,87	63,17
825,286	63,15
825,701	63,26
826,116	62,94
826,531	63,31
826,946	63,07
827,361	63,08
827,776	62,86
828,19	62,83
828,605	63,06
829,02	63,01
829,434	62,98
829,848	63,29
830,263	63,11
830,677	63,22
831,091	63,15
831,505	63,22
831,919	63,05
832,332	62,84
832,746	63,06
833,16	63,03
833,573	63,28
