Data from C6__Relative__9__00038.txt Node

Date: Tue Jan 30 17:54:11 CET 2024
User: diatiterra
Spectrometer: HDX00911
Trigger mode: 0
Integration Time (sec): 6,000000E-3
Scans to average: 3
Nonlinearity correction enabled: true
Boxcar width: 0
Storing dark spectrum: false
XAxis mode: Wavelengths
Number of Pixels in Spectrum: 2068
>>>>>Begin Spectral Data<<<<<
194,468	89,16
195,025	74,97
195,581	74,23
196,138	73,57
196,694	76,37
197,251	60,83
197,807	59,88
198,363	56,81
198,919	56,31
199,474	61,52
200,03	59,12
200,586	56,16
201,141	55,86
201,696	59,2
202,251	55,8
202,806	57,02
203,361	58,77
203,916	58,62
204,471	58,76
205,025	56,06
205,58	58,18
206,134	59,7
206,688	57,22
207,242	53,82
207,796	57,92
208,35	56,1
208,904	56,62
209,457	59,38
210,011	59,7
210,564	53,65
211,117	63,32
211,67	62,94
212,223	61,38
212,776	61,55
213,329	58,16
213,881	62,26
214,434	59,75
214,986	63,38
215,538	60,77
216,09	54,76
216,642	59,66
217,194	56,99
217,746	61,5
218,297	52,18
218,849	64,38
219,4	59,83
219,951	58,88
220,502	60,62
221,053	55,06
221,604	61,56
222,155	63,03
222,705	58
223,256	55,18
223,806	60,39
224,356	58,37
224,906	58,17
225,456	59,71
226,006	57,1
226,556	53,89
227,106	60,9
227,655	54,05
228,204	62,68
228,754	65,27
229,303	59,87
229,852	63,26
230,401	64,59
230,949	57,64
231,498	58,99
232,047	54,09
232,595	62,74
233,143	58,26
233,691	55,26
234,239	57,98
234,787	61,34
235,335	56,13
235,883	57,96
236,43	60,87
236,978	52,43
237,525	59,54
238,072	49,78
238,619	62,61
239,166	57,22
239,713	60,84
240,26	56,32
240,806	63,66
241,353	57,62
241,899	59,76
242,445	59,61
242,991	56,05
243,537	58,98
244,083	59,02
244,629	61,21
245,174	53,37
245,72	54,58
246,265	58,38
246,81	60,05
247,355	54,64
247,9	56,19
248,445	55,84
248,99	57,61
249,534	53,35
250,079	64,76
250,623	56,1
251,168	55,57
251,712	59,02
252,256	53,29
252,8	58,27
253,343	60,63
253,887	54,14
254,43	60,43
254,974	58,19
255,517	61,31
256,06	58,06
256,603	59,06
257,146	54,03
257,689	59,96
258,232	55,63
258,774	57,72
259,317	55,95
259,859	53,91
260,401	68,02
260,943	66,74
261,485	57,93
262,027	60,23
262,569	56,61
263,11	62,01
263,652	59,36
264,193	59,08
264,734	58,21
265,275	59,16
265,816	62,45
266,357	56,24
266,898	59,09
267,438	55,61
267,979	68,72
268,519	64,76
269,059	58,64
269,6	57,34
270,14	63,33
270,68	56,07
271,219	60,15
271,759	60,97
272,298	57,66
272,838	56,65
273,377	59,83
273,916	54,83
274,455	49,79
274,994	60,71
275,533	54,22
276,072	58,56
276,61	61,94
277,149	52,86
277,687	55,9
278,225	60,2
278,763	56,63
279,301	57,08
279,839	57,96
280,377	56,18
280,914	56,57
281,452	58,91
281,989	54,24
282,526	53,36
283,064	58,93
283,601	52,27
284,137	57,12
284,674	59,07
285,211	59,74
285,747	58,03
286,284	60,97
286,82	55,55
287,356	55,11
287,892	59,97
288,428	58,15
288,964	56,01
289,5	57,79
290,035	59,42
290,571	54,47
291,106	62,07
291,641	56,79
292,176	56,96
292,711	55,29
293,246	55,96
293,781	57,05
294,315	58,01
294,85	63,38
295,384	62,46
295,918	52,73
296,453	54,49
296,987	57,82
297,52	53,42
298,054	53,51
298,588	57,76
299,121	60,19
299,655	52,79
300,188	54,8
300,721	57,49
301,254	54,71
301,787	58,9
302,32	58,13
302,853	52,89
303,385	59,56
303,918	57,43
304,45	49,46
304,982	57,74
305,514	52,14
306,046	55,16
306,578	50,43
307,11	51,88
307,641	63,13
308,173	55,43
308,704	58,21
309,236	56,85
309,767	53,83
310,298	54,01
310,829	59,2
311,359	56,43
311,89	61,58
312,421	51,47
312,951	55,29
313,481	57,81
314,012	55,58
314,542	55,58
315,072	55,23
315,601	55,31
316,131	59,43
316,661	56,24
317,19	57,19
317,72	53,01
318,249	56,5
318,778	60,13
319,307	51,57
319,836	58,62
320,365	52,58
320,893	53,19
321,422	57,82
321,95	51,38
322,479	58,67
323,007	50,85
323,535	51,17
324,063	57,82
324,591	59,78
325,118	59,41
325,646	52,73
326,173	58,25
326,701	54,25
327,228	54,89
327,755	59,2
328,282	54,7
328,809	53,73
329,336	55,66
329,862	55,65
330,389	58,53
330,915	55,21
331,441	57,93
331,968	54,58
332,494	52,72
333,02	57,85
333,545	58,1
334,071	56,67
334,597	54,69
335,122	55,36
335,648	54,99
336,173	55,41
336,698	49,07
337,223	52,86
337,748	54,85
338,272	49,8
338,797	49,89
339,322	54,91
339,846	50,31
340,37	53,14
340,894	54,49
341,419	48,64
341,942	47,45
342,466	52,26
342,99	52,13
343,514	51,94
344,037	46,64
344,56	53,06
345,084	46,66
345,607	51,91
346,13	45,42
346,653	46,46
347,175	46,37
347,698	52,16
348,221	42,49
348,743	45,29
349,265	50,44
349,787	51,14
350,309	46,05
350,831	49,17
351,353	43,94
351,875	46,47
352,397	41,15
352,918	44
353,439	47,03
353,961	42,56
354,482	40,37
355,003	40,37
355,524	43,09
356,044	40,2
356,565	45,08
357,086	42,18
357,606	41,73
358,126	42,78
358,646	44,85
359,167	40,82
359,687	41,81
360,206	41,66
360,726	40,91
361,246	44,86
361,765	36,05
362,285	41,7
362,804	43,62
363,323	41,92
363,842	42,35
364,361	41,44
364,88	38,95
365,398	42,05
365,917	44,16
366,435	40,3
366,954	40,55
367,472	37,36
367,99	40,39
368,508	36,05
369,026	36,06
369,544	41,18
370,061	38,47
370,579	35,52
371,096	39,65
371,613	39,41
372,131	37,57
372,648	37,1
373,165	32,85
373,681	36,94
374,198	35,84
374,715	33,67
375,231	36,2
375,747	34,7
376,264	32,71
376,78	35,17
377,296	31,67
377,812	35,12
378,327	35,33
378,843	33
379,359	31,54
379,874	33,77
380,389	31,71
380,905	32,78
381,42	33,3
381,935	32,53
382,449	30,36
382,964	30,3
383,479	30,26
383,993	28,64
384,508	30,18
385,022	28,67
385,536	30,43
386,05	29,14
386,564	28,94
387,078	28,89
387,592	25,75
388,105	27,01
388,619	27,86
389,132	25,69
389,645	26,69
390,158	26,33
390,671	24,05
391,184	24,49
391,697	23,83
392,21	23,11
392,722	24,8
393,235	23,77
393,747	22,45
394,259	22,56
394,771	23,5
395,283	23,31
395,795	24,09
396,307	23,52
396,818	22,21
397,33	22,44
397,841	20,51
398,353	21,67
398,864	20,38
399,375	20,82
399,886	20,28
400,397	18,01
400,907	18,45
401,418	18,57
401,928	18,93
402,439	17,61
402,949	17,06
403,459	16,74
403,969	17,28
404,479	17,51
404,989	14,88
405,498	15,5
406,008	14,99
406,517	15,32
407,027	13,75
407,536	14
408,045	13,03
408,554	13,12
409,063	12,55
409,572	11,9
410,08	11,73
410,589	11,28
411,097	11,55
411,606	10,26
412,114	9,85
412,622	9,64
413,13	9,74
413,638	9,54
414,145	8,92
414,653	9,15
415,16	8,38
415,668	8,42
416,175	8,58
416,682	8,3
417,189	7,54
417,696	7,42
418,203	7,56
418,71	7,68
419,216	7,5
419,723	6,82
420,229	6,56
420,735	7,44
421,242	7,06
421,748	6,62
422,254	6,79
422,759	6,24
423,265	6,42
423,771	6,24
424,276	6,4
424,781	6,33
425,287	5,89
425,792	6,13
426,297	5,83
426,802	6,06
427,306	6,02
427,811	5,8
428,316	6,13
428,82	5,78
429,324	5,99
429,829	5,66
430,333	5,42
430,837	5,48
431,34	5,28
431,844	5,49
432,348	5,58
432,851	5,25
433,355	5,39
433,858	5,58
434,361	5,21
434,864	4,99
435,367	5,07
435,87	5,09
436,373	5,09
436,876	5,33
437,378	4,99
437,88	5,17
438,383	5,09
438,885	5,18
439,387	5,16
439,889	5,4
440,391	5,2
440,892	5,01
441,394	5,01
441,896	5,11
442,397	5,1
442,898	5,15
443,399	4,99
443,9	5,47
444,401	5,01
444,902	5,03
445,403	5,12
445,903	5,06
446,404	4,89
446,904	5,1
447,405	5,33
447,905	5
448,405	5,27
448,905	5,48
449,404	5,52
449,904	5,48
450,404	5,35
450,903	5,48
451,403	5,42
451,902	5,56
452,401	5,45
452,9	5,49
453,399	5,59
453,898	5,54
454,396	5,62
454,895	5,52
455,393	5,38
455,892	5,71
456,39	5,72
456,888	5,55
457,386	5,82
457,884	5,56
458,382	5,86
458,879	5,62
459,377	5,8
459,874	5,8
460,372	5,87
460,869	5,73
461,366	5,65
461,863	5,83
462,36	5,77
462,857	5,68
463,353	5,66
463,85	5,86
464,346	5,7
464,843	5,68
465,339	5,56
465,835	5,75
466,331	5,74
466,827	5,73
467,323	5,84
467,818	5,62
468,314	5,76
468,809	5,52
469,305	5,96
469,8	5,66
470,295	5,74
470,79	5,86
471,285	5,82
471,78	5,6
472,274	5,89
472,769	5,8
473,263	5,77
473,758	5,65
474,252	5,67
474,746	5,64
475,24	5,78
475,734	5,67
476,228	5,65
476,721	5,71
477,215	5,89
477,708	5,95
478,202	6,03
478,695	5,75
479,188	5,94
479,681	5,73
480,174	5,85
480,667	5,9
481,159	5,96
481,652	5,97
482,144	6,01
482,637	6,04
483,129	6,15
483,621	5,99
484,113	5,95
484,605	5,96
485,097	6,11
485,588	6,13
486,08	6,05
486,571	6,31
487,063	6,13
487,554	6,22
488,045	6,32
488,536	6,25
489,027	6,33
489,518	6,46
490,008	6,34
490,499	6,39
490,989	6,49
491,48	6,78
491,97	6,71
492,46	6,66
492,95	6,87
493,44	6,89
493,93	6,9
494,419	7,1
494,909	7,32
495,398	7,33
495,888	7,36
496,377	7,47
496,866	7,67
497,355	7,83
497,844	7,74
498,333	7,94
498,821	8,3
499,31	8,36
499,798	8,36
500,287	8,59
500,775	8,84
501,263	9,17
501,751	9,16
502,239	9,44
502,727	9,83
503,215	9,78
503,702	10,06
504,19	10,11
504,677	10,45
505,164	10,56
505,651	10,8
506,139	11,11
506,625	11,28
507,112	11,76
507,599	11,83
508,086	12,12
508,572	12,44
509,058	12,66
509,545	12,96
510,031	13,3
510,517	13,12
511,003	13,86
511,489	14,18
511,974	14,59
512,46	14,84
512,946	15,31
513,431	15,59
513,916	15,89
514,401	16,39
514,887	16,8
515,371	16,99
515,856	17,13
516,341	17,61
516,826	18,36
517,31	18,1
517,795	18,93
518,279	19,29
518,763	19,51
519,247	19,72
519,731	20,51
520,215	20,67
520,699	20,84
521,182	21,33
521,666	21,99
522,149	22,2
522,633	22,67
523,116	22,96
523,599	23,5
524,082	23,77
524,565	24,14
525,048	24,52
525,53	24,77
526,013	25,02
526,495	25,44
526,978	25,51
527,46	26,21
527,942	26,27
528,424	26,64
528,906	26,68
529,388	26,73
529,87	27,06
530,351	27,44
530,833	27,57
531,314	27,56
531,795	28,26
532,277	28,06
532,758	28,56
533,238	28,65
533,719	28,58
534,2	28,79
534,681	28,83
535,161	29,38
535,642	29,29
536,122	29,28
536,602	29,3
537,082	29,63
537,562	29,65
538,042	29,79
538,522	29,78
539,001	29,87
539,481	30,08
539,96	30,27
540,44	30,01
540,919	29,55
541,398	30,26
541,877	30,5
542,356	30,58
542,835	30,42
543,313	30,43
543,792	30,75
544,27	30,56
544,749	30,89
545,227	30,77
545,705	30,9
546,183	30,79
546,661	30,76
547,139	30,71
547,616	30,62
548,094	30,87
548,571	31,2
549,049	30,68
549,526	31,11
550,003	31,01
550,48	30,88
550,957	30,95
551,434	31,05
551,911	30,95
552,387	31,42
552,864	30,91
553,34	31,02
553,817	31,34
554,293	31,03
554,769	31,57
555,245	31,18
555,721	31,18
556,197	31,23
556,672	31,2
557,148	31,11
557,623	31,09
558,099	31,37
558,574	30,97
559,049	31,05
559,524	30,8
559,999	31,05
560,474	30,41
560,948	30,6
561,423	30,8
561,897	30,37
562,372	30,1
562,846	30,32
563,32	30,65
563,794	30,38
564,268	29,99
564,742	29,88
565,216	29,71
565,69	29,55
566,163	29,32
566,636	29,08
567,11	29,39
567,583	28,8
568,056	28,81
568,529	28,47
569,002	28,43
569,475	28,2
569,947	27,91
570,42	27,93
570,892	27,9
571,365	27,36
571,837	27,42
572,309	27,03
572,781	26,87
573,253	26,84
573,725	26,37
574,197	26,23
574,668	26,28
575,14	25,85
575,611	25,65
576,082	25,41
576,554	25,59
577,025	25,38
577,496	25,03
577,967	24,91
578,437	24,65
578,908	24,56
579,379	24,52
579,849	24,31
580,319	23,97
580,79	23,73
581,26	23,95
581,73	23,58
582,2	23,76
582,669	23,38
583,139	23,28
583,609	23,13
584,078	23,11
584,548	22,8
585,017	23,05
585,486	22,56
585,955	22,51
586,424	22,3
586,893	22,35
587,362	22,31
587,83	22,15
588,299	21,89
588,767	22,02
589,236	21,83
589,704	21,86
590,172	21,63
590,64	21,72
591,108	21,5
591,576	21,36
592,043	21,42
592,511	21,39
592,978	21,16
593,446	21,12
593,913	21,04
594,38	20,91
594,847	21,11
595,314	20,98
595,781	20,97
596,248	20,93
596,715	20,8
597,181	20,9
597,647	20,68
598,114	20,7
598,58	20,82
599,046	20,74
599,512	20,51
599,978	20,21
600,444	20,51
600,91	20,4
601,375	20,19
601,841	20,31
602,306	20,21
602,771	20,19
603,236	19,95
603,702	19,93
604,167	20,17
604,631	19,88
605,096	19,85
605,561	19,78
606,025	19,69
606,49	19,48
606,954	19,46
607,418	19,3
607,882	19,29
608,347	19,21
608,81	19,24
609,274	18,84
609,738	18,85
610,202	18,92
610,665	18,6
611,128	18,4
611,592	18,5
612,055	18,31
612,518	18,32
612,981	18,24
613,444	17,9
613,907	17,88
614,369	17,81
614,832	17,73
615,294	17,48
615,757	17,4
616,219	17,22
616,681	17,29
617,143	17,21
617,605	16,96
618,067	16,92
618,529	16,78
618,99	16,71
619,452	16,56
619,913	16,55
620,375	16,45
620,836	16,31
621,297	16,18
621,758	16,29
622,219	16,12
622,68	16,15
623,14	16,14
623,601	15,96
624,061	16,07
624,522	15,85
624,982	15,76
625,442	15,82
625,902	15,66
626,362	15,75
626,822	15,7
627,282	15,86
627,742	15,52
628,201	15,77
628,661	15,6
629,12	15,48
629,579	15,69
630,038	15,65
630,497	15,53
630,956	15,66
631,415	15,5
631,874	15,65
632,332	15,45
632,791	15,53
633,249	15,4
633,708	15,26
634,166	15,24
634,624	15,17
635,082	15,15
635,54	14,95
635,998	14,75
636,455	14,86
636,913	14,57
637,37	14,54
637,828	14,34
638,285	14,34
638,742	14,2
639,199	14,04
639,656	13,85
640,113	13,7
640,57	13,45
641,027	13,43
641,483	13,15
641,94	12,99
642,396	12,96
642,852	12,6
643,309	12,66
643,765	12,34
644,221	12,12
644,676	11,96
645,132	11,92
645,588	11,62
646,043	11,44
646,499	11,33
646,954	11,12
647,409	11,05
647,864	10,67
648,319	10,74
648,774	10,6
649,229	10,45
649,684	10,32
650,139	10,27
650,593	10,18
651,047	10,13
651,502	9,99
651,956	9,89
652,41	9,89
652,864	9,87
653,318	9,72
653,772	9,66
654,225	9,63
654,679	9,49
655,133	9,41
655,586	9,38
656,039	9,33
656,492	9,25
656,946	9,09
657,399	9,05
657,851	8,79
658,304	8,86
658,757	8,72
659,209	8,5
659,662	8,42
660,114	8,31
660,567	8,2
661,019	8,06
661,471	7,95
661,923	7,78
662,375	7,68
662,826	7,55
663,278	7,43
663,73	7,34
664,181	7,25
664,632	7,18
665,084	7,04
665,535	6,88
665,986	6,85
666,437	6,76
666,888	6,72
667,338	6,62
667,789	6,62
668,24	6,56
668,69	6,51
669,14	6,54
669,591	6,49
670,041	6,44
670,491	6,36
670,941	6,41
671,391	6,39
671,84	6,38
672,29	6,48
672,74	6,45
673,189	6,55
673,638	6,55
674,088	6,58
674,537	6,64
674,986	6,7
675,435	6,74
675,883	6,77
676,332	6,94
676,781	7,04
677,229	7,08
677,678	7,2
678,126	7,31
678,574	7,34
679,022	7,5
679,47	7,57
679,918	7,69
680,366	7,81
680,814	8,07
681,261	8,1
681,709	8,21
682,156	8,41
682,604	8,7
683,051	8,72
683,498	8,85
683,945	9,1
684,392	9,33
684,839	9,45
685,286	9,74
685,732	10,02
686,179	10,2
686,625	10,58
687,071	10,9
687,518	11,36
687,964	11,6
688,41	12,05
688,856	12,6
689,301	12,96
689,747	13,28
690,193	13,87
690,638	14,46
691,084	15,04
691,529	15,7
691,974	16,4
692,419	16,91
692,864	17,53
693,309	18,31
693,754	18,95
694,199	19,67
694,643	20,35
695,088	21,12
695,532	21,87
695,977	22,41
696,421	23,17
696,865	23,8
697,309	24,64
697,753	25,25
698,197	25,91
698,64	26,57
699,084	27,21
699,527	27,87
699,971	28,5
700,414	29,17
700,857	29,86
701,3	30,35
701,743	30,9
702,186	31,5
702,629	32,1
703,072	32,76
703,515	33,2
703,957	33,63
704,399	34,22
704,842	34,79
705,284	35,09
705,726	35,63
706,168	35,93
706,61	36,72
707,052	36,99
707,494	37,45
707,935	38,08
708,377	38,24
708,818	38,86
709,26	39,26
709,701	39,52
710,142	39,86
710,583	40,32
711,024	40,64
711,465	41,07
711,905	41,21
712,346	41,59
712,787	42,01
713,227	42,53
713,667	42,86
714,108	43,04
714,548	43,42
714,988	43,68
715,428	43,77
715,868	44,32
716,307	44,35
716,747	44,86
717,186	45,26
717,626	45,3
718,065	45,79
718,504	45,64
718,944	46,31
719,383	46,45
719,822	46,84
720,261	46,98
720,699	47,14
721,138	47,16
721,576	47,55
722,015	47,85
722,453	48
722,892	48,46
723,33	48,43
723,768	48,74
724,206	48,83
724,644	49,02
725,081	49,06
725,519	49,29
725,957	49,36
726,394	49,8
726,832	49,64
727,269	50,04
727,706	49,99
728,143	50,14
728,58	50,26
729,017	50,32
729,454	50,83
729,89	50,59
730,327	50,54
730,764	50,81
731,2	50,87
731,636	51,14
732,072	51,22
732,509	51,14
732,945	51,19
733,38	51,31
733,816	51,24
734,252	51,44
734,688	51,32
735,123	51,27
735,559	51,91
735,994	51,99
736,429	51,8
736,864	51,95
737,299	51,49
737,734	51,79
738,169	51,8
738,604	52,12
739,038	51,96
739,473	51,79
739,907	52,14
740,342	52,07
740,776	52,12
741,21	51,99
741,644	52,2
742,078	52,18
742,512	52,3
742,946	52,34
743,379	52,04
743,813	52,16
744,246	52,04
744,68	52,46
745,113	52,24
745,546	52,11
745,979	52,12
746,412	52,15
746,845	52,1
747,278	52,2
747,711	52,26
748,143	52,12
748,576	52,32
749,008	52,04
749,441	51,83
749,873	52,1
750,305	51,93
750,737	52,06
751,169	52,01
751,601	51,94
752,032	51,96
752,464	52,11
752,896	51,73
753,327	51,83
753,758	51,81
754,19	51,75
754,621	51,96
755,052	51,89
755,483	51,64
755,914	51,72
756,344	51,67
756,775	51,72
757,206	51,84
757,636	51,59
758,066	51,49
758,497	51,6
758,927	51,35
759,357	51,53
759,787	51,43
760,217	51,38
760,647	51,35
761,076	51,51
761,506	51,34
761,935	51,1
762,365	51,16
762,794	51,14
763,223	51,25
763,653	51,25
764,082	51,38
764,51	51,34
764,939	51,2
765,368	51,38
765,797	51,21
766,225	51,07
766,654	50,94
767,082	51
767,51	51,08
767,938	51,04
768,367	50,97
768,795	50,95
769,222	51,08
769,65	50,83
770,078	50,94
770,505	51,01
770,933	50,49
771,36	50,81
771,788	50,64
772,215	51,05
772,642	50,58
773,069	50,69
773,496	50,63
773,923	50,61
774,349	50,78
774,776	50,67
775,203	50,45
775,629	50,65
776,055	50,67
776,482	50,57
776,908	50,73
777,334	50,61
777,76	50,57
778,186	50,54
778,611	50,49
779,037	50,48
779,463	50,19
779,888	50,43
780,314	50,23
780,739	50,65
781,164	50,39
781,589	50,41
782,014	50,37
782,439	50,7
782,864	50,4
783,289	50,29
783,713	50,53
784,138	50,24
784,562	50,39
784,987	50,34
785,411	50,39
785,835	50,47
786,259	50,44
786,683	50,43
787,107	50,25
787,531	50,06
787,954	50,19
788,378	50,4
788,802	50,32
789,225	50,29
789,648	50,3
790,071	50,3
790,495	50,09
790,918	50,07
791,34	50,38
791,763	50,27
792,186	50,27
792,609	50,37
793,031	50,3
793,454	50,02
793,876	50,01
794,298	50,4
794,721	50,2
795,143	50,21
795,565	49,9
795,986	50,13
796,408	50,14
796,83	49,96
797,252	50,06
797,673	50,03
798,094	50,12
798,516	50,05
798,937	49,93
799,358	50,16
799,779	49,89
800,2	50,07
800,621	50,2
801,042	49,94
801,462	49,93
801,883	50,09
802,303	50,24
802,724	50
803,144	50,2
803,564	49,83
803,984	50,24
804,404	50,11
804,824	50,36
805,244	50,19
805,664	50,23
806,084	50,12
806,503	50,32
806,923	50,21
807,342	50,09
807,761	49,88
808,18	50,09
808,599	49,89
809,018	50,08
809,437	50
809,856	49,89
810,275	49,84
810,693	49,84
811,112	49,84
811,53	49,8
811,949	50,13
812,367	50
812,785	49,94
813,203	49,97
813,621	49,87
814,039	50,01
814,457	49,62
814,874	50,05
815,292	50,2
815,709	49,7
816,127	49,94
816,544	50,13
816,961	49,96
817,378	50,06
817,795	49,96
818,212	49,97
818,629	49,88
819,046	49,93
819,462	49,96
819,879	50,04
820,295	49,95
820,712	49,67
821,128	49,84
821,544	49,84
821,96	49,65
822,376	49,94
822,792	50
823,208	49,86
823,624	49,91
824,039	50,04
824,455	49,9
824,87	49,94
825,286	50,03
825,701	50,04
826,116	49,79
826,531	49,92
826,946	50,02
827,361	49,58
827,776	49,88
828,19	49,74
828,605	50,17
829,02	49,78
829,434	49,66
829,848	49,96
830,263	49,83
830,677	50
831,091	49,92
831,505	49,97
831,919	49,72
832,332	49,66
832,746	49,79
833,16	49,75
833,573	49,68
833,987	49,72
834,4	49,58
834,813	49,68
835,226	49,72
835,639	49,57
836,052	49,76
836,465	49,76
836,878	49,94
837,29	49,98
837,703	49,67
838,116	49,69
838,528	49,66
838,94	49,66
839,352	49,71
839,765	49,68
840,177	49,59
840,589	49,59
841	49,54
841,412	49,77
