Data from C6__Relative__5__00034.txt Node

Date: Tue Jan 30 17:53:53 CET 2024
User: diatiterra
Spectrometer: HDX00911
Trigger mode: 0
Integration Time (sec): 6,000000E-3
Scans to average: 3
Nonlinearity correction enabled: true
Boxcar width: 0
Storing dark spectrum: false
XAxis mode: Wavelengths
Number of Pixels in Spectrum: 2068
>>>>>Begin Spectral Data<<<<<
194,468	99,42
195,025	81,75
195,581	85,69
196,138	83,11
196,694	86,9
197,251	72,95
197,807	77,74
198,363	69,39
198,919	70,66
199,474	82,26
200,03	68,97
200,586	69,29
201,141	62,54
201,696	62,55
202,251	70,26
202,806	74,33
203,361	68,29
203,916	66,25
204,471	71,34
205,025	70,23
205,58	66,66
206,134	72,15
206,688	67,46
207,242	65,01
207,796	67,07
208,35	64,92
208,904	71,87
209,457	70,58
210,011	75,11
210,564	65,53
211,117	67,62
211,67	75,45
212,223	72,96
212,776	74,16
213,329	72,75
213,881	69,81
214,434	67,32
214,986	71,3
215,538	67,27
216,09	65,51
216,642	70,36
217,194	65,01
217,746	71,13
218,297	66,92
218,849	71,68
219,4	70,61
219,951	69,63
220,502	70,72
221,053	66,66
221,604	67,83
222,155	72,89
222,705	72,35
223,256	73,72
223,806	69,8
224,356	69,04
224,906	66,66
225,456	66,85
226,006	64,9
226,556	66,59
227,106	70,3
227,655	69,43
228,204	66,87
228,754	70,71
229,303	65,32
229,852	72,61
230,401	77,5
230,949	73,34
231,498	67,61
232,047	64,95
232,595	81,16
233,143	73,73
233,691	71,16
234,239	66,26
234,787	71,57
235,335	71,72
235,883	66,37
236,43	70,18
236,978	67,47
237,525	74,94
238,072	68,61
238,619	67,39
239,166	66,52
239,713	70,58
240,26	68,74
240,806	63,66
241,353	68,26
241,899	66,59
242,445	68,71
242,991	63,24
243,537	71,25
244,083	67,33
244,629	68,48
245,174	70,67
245,72	71,85
246,265	78,16
246,81	72,19
247,355	66,52
247,9	65,41
248,445	70,72
248,99	71,74
249,534	70,98
250,079	74,45
250,623	64,52
251,168	69,42
251,712	62,41
252,256	65,28
252,8	70,95
253,343	74,53
253,887	67,58
254,43	74,09
254,974	66,82
255,517	73,17
256,06	71,44
256,603	71,65
257,146	69,94
257,689	67,51
258,232	69,91
258,774	68,45
259,317	71,4
259,859	69,98
260,401	72,94
260,943	72,46
261,485	70,04
262,027	74,9
262,569	67,82
263,11	61,19
263,652	70,68
264,193	67,93
264,734	67,38
265,275	67,77
265,816	73,53
266,357	69,79
266,898	65,8
267,438	69,06
267,979	81,42
268,519	71,15
269,059	69,81
269,6	77,34
270,14	64,47
270,68	61,94
271,219	70,85
271,759	73,03
272,298	67,38
272,838	71,24
273,377	66,24
273,916	64,07
274,455	66,25
274,994	71,09
275,533	64,45
276,072	75,45
276,61	72,98
277,149	64,75
277,687	65,94
278,225	65,41
278,763	71,24
279,301	69,96
279,839	70,23
280,377	68,55
280,914	68,65
281,452	72,38
281,989	74,9
282,526	65,98
283,064	72,69
283,601	67,6
284,137	70,01
284,674	70,89
285,211	74,22
285,747	67,24
286,284	76,73
286,82	73,55
287,356	70,98
287,892	72,06
288,428	65,42
288,964	65,77
289,5	71,22
290,035	79,16
290,571	71,28
291,106	70,66
291,641	66,52
292,176	70,27
292,711	69,76
293,246	66,38
293,781	73,83
294,315	64,55
294,85	71,45
295,384	70,44
295,918	65,39
296,453	71,78
296,987	68,31
297,52	67,55
298,054	66,89
298,588	72,08
299,121	66,98
299,655	67,17
300,188	73,15
300,721	69,16
301,254	67,84
301,787	72,24
302,32	76,02
302,853	64,45
303,385	73,34
303,918	65,56
304,45	69,11
304,982	71,6
305,514	67,65
306,046	66,31
306,578	70,91
307,11	68,44
307,641	71,96
308,173	69,35
308,704	77,39
309,236	70,31
309,767	67,24
310,298	61,39
310,829	68,62
311,359	66,18
311,89	69,67
312,421	66,38
312,951	68,06
313,481	73,18
314,012	67,37
314,542	66,74
315,072	67,17
315,601	66,8
316,131	69,07
316,661	67,4
317,19	68,91
317,72	68,81
318,249	66,74
318,778	70,69
319,307	62,78
319,836	70,03
320,365	62,39
320,893	66,81
321,422	65,43
321,95	66,03
322,479	68,9
323,007	62,39
323,535	61,45
324,063	70,32
324,591	68,87
325,118	67,53
325,646	64,55
326,173	68,63
326,701	69,5
327,228	64,89
327,755	72,24
328,282	64,1
328,809	64,48
329,336	64,49
329,862	63,26
330,389	70,75
330,915	69,41
331,441	70,61
331,968	65,46
332,494	63,83
333,02	67,75
333,545	69,12
334,071	67,56
334,597	63,67
335,122	66,96
335,648	66,87
336,173	62,7
336,698	60,77
337,223	61,88
337,748	63,99
338,272	61,16
338,797	58,54
339,322	69,95
339,846	63,24
340,37	62,34
340,894	66,24
341,419	63,88
341,942	59,55
342,466	60,63
342,99	59,13
343,514	64,61
344,037	59,46
344,56	63,75
345,084	54,87
345,607	64,63
346,13	61,62
346,653	57,01
347,175	61,76
347,698	69,05
348,221	58,38
348,743	55,9
349,265	62,22
349,787	61,47
350,309	57,83
350,831	60,33
351,353	58,31
351,875	56,13
352,397	54,29
352,918	58,84
353,439	60,87
353,961	57,38
354,482	53
355,003	52,85
355,524	52,3
356,044	51,2
356,565	58,75
357,086	55,43
357,606	53,24
358,126	53,63
358,646	51,41
359,167	54,82
359,687	55,85
360,206	50,57
360,726	55,59
361,246	55,19
361,765	53,53
362,285	52,56
362,804	54,8
363,323	53,86
363,842	55,71
364,361	54,13
364,88	52,53
365,398	54,47
365,917	53,15
366,435	50,41
366,954	55,72
367,472	46,7
367,99	54,12
368,508	49,63
369,026	51,71
369,544	49,51
370,061	49,94
370,579	49,24
371,096	51,74
371,613	53,02
372,131	52,6
372,648	49,44
373,165	51,12
373,681	49,29
374,198	53,16
374,715	48,66
375,231	50,66
375,747	47,81
376,264	45,91
376,78	50,39
377,296	50,12
377,812	49,63
378,327	47,84
378,843	46,87
379,359	46,39
379,874	47,76
380,389	47,88
380,905	48,95
381,42	45,34
381,935	45,67
382,449	41,9
382,964	43,19
383,479	43,55
383,993	43,68
384,508	44,66
385,022	43,19
385,536	44,24
386,05	41,67
386,564	44,67
387,078	42,23
387,592	41,24
388,105	42,08
388,619	42,02
389,132	37,99
389,645	41,71
390,158	39
390,671	38,38
391,184	38,08
391,697	37,42
392,21	40
392,722	36,16
393,235	37,3
393,747	38,27
394,259	36,44
394,771	35,94
395,283	36,85
395,795	38,06
396,307	36,26
396,818	36,05
397,33	35,71
397,841	32,59
398,353	34,48
398,864	34,67
399,375	31,11
399,886	31,89
400,397	30,56
400,907	30,25
401,418	30,83
401,928	30,92
402,439	28,73
402,949	29,37
403,459	29,05
403,969	27,52
404,479	26,98
404,989	26,16
405,498	24,65
406,008	26,77
406,517	24,59
407,027	23,79
407,536	23,32
408,045	22,51
408,554	21,21
409,063	21,03
409,572	20,89
410,08	19,94
410,589	20,01
411,097	19,24
411,606	18,31
412,114	18,35
412,622	17,16
413,13	17,8
413,638	16,65
414,145	16,17
414,653	15,75
415,16	15,13
415,668	14,71
416,175	15,03
416,682	14,23
417,189	13,56
417,696	13,61
418,203	13,37
418,71	13,42
419,216	13,28
419,723	13,01
420,229	12,58
420,735	12,62
421,242	12,6
421,748	12,26
422,254	12,2
422,759	11,96
423,265	12,07
423,771	11,92
424,276	12,07
424,781	11,72
425,287	11,25
425,792	12,02
426,297	11,07
426,802	11,19
427,306	11,45
427,811	11,17
428,316	11,06
428,82	11,08
429,324	10,99
429,829	11,29
430,333	10,93
430,837	11
431,34	10,5
431,844	10,93
432,348	11,11
432,851	10,81
433,355	10,47
433,858	10,77
434,361	10,37
434,864	10,17
435,367	10,28
435,87	10,58
436,373	10,43
436,876	10,18
437,378	10,19
437,88	10,23
438,383	10,1
438,885	10,33
439,387	10,41
439,889	10,43
440,391	10,25
440,892	9,84
441,394	10,12
441,896	10,34
442,397	10,41
442,898	10,23
443,399	9,95
443,9	10,15
444,401	10,28
444,902	9,99
445,403	9,97
445,903	10,05
446,404	10,17
446,904	9,8
447,405	9,95
447,905	10,41
448,405	10,4
448,905	10,6
449,404	10,49
449,904	10,5
450,404	10,14
450,903	10,53
451,403	10,58
451,902	10,47
452,401	10,41
452,9	10,55
453,399	10,56
453,898	10,94
454,396	10,6
454,895	10,32
455,393	10,54
455,892	10,57
456,39	10,75
456,888	10,65
457,386	10,93
457,884	10,6
458,382	10,76
458,879	10,61
459,377	10,66
459,874	10,79
460,372	10,87
460,869	10,88
461,366	10,61
461,863	10,63
462,36	10,54
462,857	11,03
463,353	10,74
463,85	10,64
464,346	10,76
464,843	10,68
465,339	10,96
465,835	10,6
466,331	10,83
466,827	10,61
467,323	10,78
467,818	10,74
468,314	10,71
468,809	10,49
469,305	10,6
469,8	10,55
470,295	10,99
470,79	10,71
471,285	10,76
471,78	10,67
472,274	10,68
472,769	10,67
473,263	10,98
473,758	10,76
474,252	10,75
474,746	10,71
475,24	10,55
475,734	10,88
476,228	10,84
476,721	10,75
477,215	10,98
477,708	11,07
478,202	10,91
478,695	10,92
479,188	11,13
479,681	10,83
480,174	11,08
480,667	10,93
481,159	11,14
481,652	10,95
482,144	10,94
482,637	11,35
483,129	10,89
483,621	11,16
484,113	11,32
484,605	11,14
485,097	10,92
485,588	11,18
486,08	11,03
486,571	11,3
487,063	11,22
487,554	11,2
488,045	11,34
488,536	11,44
489,027	11,38
489,518	11,63
490,008	11,5
490,499	11,34
490,989	11,42
491,48	11,8
491,97	11,66
492,46	11,7
492,95	11,6
493,44	11,82
493,93	11,9
494,419	11,88
494,909	12,09
495,398	11,96
495,888	12,19
496,377	12,35
496,866	12,42
497,355	12,42
497,844	12,49
498,333	12,57
498,821	12,86
499,31	12,76
499,798	12,73
500,287	13,07
500,775	13,24
501,263	13,52
501,751	13,5
502,239	13,77
502,727	13,89
503,215	13,94
503,702	14,07
504,19	14,28
504,677	14,23
505,164	14,65
505,651	14,94
506,139	15,15
506,625	15,14
507,112	15,51
507,599	16,1
508,086	15,82
508,572	16,66
509,058	16,45
509,545	16,89
510,031	17,13
510,517	17,29
511,003	17,96
511,489	18,05
511,974	18,24
512,46	18,31
512,946	19,06
513,431	19,13
513,916	19,39
514,401	19,9
514,887	20,39
515,371	20,8
515,856	21,2
516,341	21,52
516,826	21,59
517,31	21,96
517,795	22,84
518,279	23,24
518,763	23,38
519,247	24,1
519,731	24,14
520,215	24,58
520,699	25,2
521,182	25,51
521,666	25,96
522,149	26,27
522,633	27
523,116	26,68
523,599	27,56
524,082	28,16
524,565	28,28
525,048	28,91
525,53	28,88
526,013	29,7
526,495	30,17
526,978	30,44
527,46	30,37
527,942	31,43
528,424	31,62
528,906	31,8
529,388	31,87
529,87	32,23
530,351	32,38
530,833	32,76
531,314	32,96
531,795	33,14
532,277	33,57
532,758	34,09
533,238	34,13
533,719	33,98
534,2	34,11
534,681	34,37
535,161	34,78
535,642	34,46
536,122	34,73
536,602	35,01
537,082	35,15
537,562	35,09
538,042	35,85
538,522	34,93
539,001	35,5
539,481	35,54
539,96	35,73
540,44	35,81
540,919	35,48
541,398	36,08
541,877	36,12
542,356	36,24
542,835	36,22
543,313	36,46
543,792	36,45
544,27	36,22
544,749	36,22
545,227	36,63
545,705	36,45
546,183	36,75
546,661	36,63
547,139	37,15
547,616	36,77
548,094	36,9
548,571	36,69
549,049	36,87
549,526	37,13
550,003	37,06
550,48	37,06
550,957	37,03
551,434	37,15
551,911	37,08
552,387	37,25
552,864	37,2
553,34	37,07
553,817	37,47
554,293	37,18
554,769	37,39
555,245	37,39
555,721	37,22
556,197	37,24
556,672	37,32
557,148	37,04
557,623	37,22
558,099	37,19
558,574	37,13
559,049	36,95
559,524	37,02
559,999	36,97
560,474	36,69
560,948	36,56
561,423	36,6
561,897	36,67
562,372	36,19
562,846	36,23
563,32	36,19
563,794	36,42
564,268	36,02
564,742	35,51
565,216	35,47
565,69	35,24
566,163	35,15
566,636	35,1
567,11	34,5
567,583	34,07
568,056	34,19
568,529	34,03
569,002	33,7
569,475	33,59
569,947	33,14
570,42	33,17
570,892	32,61
571,365	32,57
571,837	32,27
572,309	32,01
572,781	31,98
573,253	31,71
573,725	31,06
574,197	31,08
574,668	31,08
575,14	30,87
575,611	30,43
576,082	30,41
576,554	30,15
577,025	29,83
577,496	29,65
577,967	29,68
578,437	29,35
578,908	29,14
579,379	28,91
579,849	28,9
580,319	28,53
580,79	28,26
581,26	28,38
581,73	28,08
582,2	27,96
582,669	27,52
583,139	27,56
583,609	27,46
584,078	27,33
584,548	26,9
585,017	26,97
585,486	26,98
585,955	26,37
586,424	26,56
586,893	26,29
587,362	26
587,83	26,34
588,299	26,12
588,767	26,04
589,236	25,95
589,704	25,61
590,172	25,5
590,64	25,77
591,108	25,42
591,576	25,55
592,043	25,21
592,511	25,4
592,978	24,96
593,446	24,96
593,913	24,98
594,38	24,89
594,847	24,9
595,314	24,58
595,781	24,69
596,248	24,69
596,715	24,78
597,181	24,63
597,647	24,57
598,114	24,49
598,58	24,39
599,046	24,54
599,512	24,3
599,978	24,23
600,444	24,2
600,91	24,17
601,375	24,06
601,841	24,06
602,306	24,06
602,771	23,81
603,236	23,76
603,702	23,77
604,167	23,56
604,631	23,42
605,096	23,6
605,561	23,47
606,025	23,2
606,49	23,21
606,954	23,1
607,418	22,94
607,882	23,04
608,347	22,71
608,81	22,79
609,274	22,23
609,738	22,56
610,202	22,43
610,665	22,38
611,128	22,07
611,592	21,96
612,055	22,04
612,518	21,71
612,981	21,62
613,444	21,47
613,907	21,46
614,369	21,12
614,832	21,36
615,294	20,98
615,757	20,91
616,219	20,79
616,681	20,75
617,143	20,52
617,605	20,42
618,067	20,25
618,529	20,15
618,99	20,1
619,452	20,04
619,913	20,09
620,375	19,98
620,836	19,84
621,297	19,81
621,758	19,58
622,219	19,44
622,68	19,53
623,14	19,73
623,601	19,39
624,061	19,49
624,522	19,19
624,982	19,23
625,442	19,16
625,902	19,19
626,362	19,11
626,822	19,21
627,282	19,03
627,742	19,1
628,201	19,05
628,661	19,17
629,12	18,91
629,579	18,87
630,038	18,98
630,497	18,91
630,956	19
631,415	18,85
631,874	18,76
632,332	18,77
632,791	18,72
633,249	18,79
633,708	18,46
634,166	18,5
634,624	18,36
635,082	18,39
635,54	18,38
635,998	18,21
636,455	18,13
636,913	17,95
637,37	17,83
637,828	17,61
638,285	17,5
638,742	17,5
639,199	17,24
639,656	17,07
640,113	16,9
640,57	16,74
641,027	16,66
641,483	16,59
641,94	16,37
642,396	16,27
642,852	16,15
643,309	15,92
643,765	15,59
644,221	15,67
644,676	15,49
645,132	15,34
645,588	15,17
646,043	15,08
646,499	14,84
646,954	14,82
647,409	14,58
647,864	14,4
648,319	14,33
648,774	14,12
649,229	14,24
649,684	14,06
650,139	14,01
650,593	13,89
651,047	13,87
651,502	13,69
651,956	13,64
652,41	13,5
652,864	13,54
653,318	13,4
653,772	13,39
654,225	13,4
654,679	13,11
655,133	13,1
655,586	12,98
656,039	13,06
656,492	12,91
656,946	12,81
657,399	12,84
657,851	12,75
658,304	12,61
658,757	12,47
659,209	12,26
659,662	12,24
660,114	12,17
660,567	12,06
661,019	11,96
661,471	11,89
661,923	11,79
662,375	11,69
662,826	11,58
663,278	11,59
663,73	11,34
664,181	11,3
664,632	11,24
665,084	11,01
665,535	11
665,986	11,03
666,437	10,98
666,888	10,99
667,338	10,93
667,789	10,87
668,24	10,7
668,69	10,84
669,14	10,78
669,591	10,78
670,041	10,73
670,491	10,69
670,941	10,72
671,391	10,8
671,84	10,83
672,29	10,84
672,74	10,9
673,189	10,88
673,638	10,98
674,088	11,02
674,537	11,01
674,986	11,09
675,435	11,08
675,883	11,09
676,332	11,23
676,781	11,3
677,229	11,37
677,678	11,5
678,126	11,52
678,574	11,57
679,022	11,66
679,47	11,82
679,918	11,97
680,366	12
680,814	12,18
681,261	12,21
681,709	12,25
682,156	12,44
682,604	12,54
683,051	12,59
683,498	12,81
683,945	13,03
684,392	13,12
684,839	13,18
685,286	13,48
685,732	13,67
686,179	13,69
686,625	14,05
687,071	14,18
687,518	14,48
687,964	14,83
688,41	15
688,856	15,49
689,301	15,81
689,747	16,07
690,193	16,65
690,638	17,18
691,084	17,58
691,529	18,1
691,974	18,74
692,419	19,31
692,864	20
693,309	20,58
693,754	21,32
694,199	21,87
694,643	22,46
695,088	23,26
695,532	24,05
695,977	24,84
696,421	25,6
696,865	26,31
697,309	27,01
697,753	27,64
698,197	28,69
698,64	29,31
699,084	29,98
699,527	30,83
699,971	31,58
700,414	32,36
700,857	33,02
701,3	33,87
701,743	34,42
702,186	35,01
702,629	35,97
703,072	36,52
703,515	37,4
703,957	38,02
704,399	38,68
704,842	39,44
705,284	39,95
705,726	40,73
706,168	41,29
706,61	41,91
707,052	42,61
707,494	42,98
707,935	43,6
708,377	44,42
708,818	44,91
709,26	45,55
709,701	45,86
710,142	46,38
710,583	47,02
711,024	47,62
711,465	48,35
711,905	48,68
712,346	49,29
712,787	49,68
713,227	50,39
713,667	51,01
714,108	51,31
714,548	51,9
714,988	52,04
715,428	52,73
715,868	53,16
716,307	53,36
716,747	54,18
717,186	54,73
717,626	54,93
718,065	55,78
718,504	55,59
718,944	56,58
719,383	56,8
719,822	57,01
720,261	57,35
720,699	57,93
721,138	58,1
721,576	58,68
722,015	58,97
722,453	59,5
722,892	59,67
723,33	59,99
723,768	60,41
724,206	60,84
724,644	61,11
725,081	61,85
725,519	61,6
725,957	61,66
726,394	61,99
726,832	62,28
727,269	62,7
727,706	62,69
728,143	63,14
728,58	63,51
729,017	63,42
729,454	63,91
729,89	64,04
730,327	63,79
730,764	64,35
731,2	64,46
731,636	65,09
732,072	65,02
732,509	65,11
732,945	64,95
733,38	65,29
733,816	65,45
734,252	65,52
734,688	65,53
735,123	65,76
735,559	66,57
735,994	66,39
736,429	66,43
736,864	66,39
737,299	66,04
737,734	66,81
738,169	66,29
738,604	66,64
739,038	66,53
739,473	66,79
739,907	67,02
740,342	66,98
740,776	66,74
741,21	66,93
741,644	66,96
742,078	67,31
742,512	67,1
742,946	66,99
743,379	67,13
743,813	67,33
744,246	67,04
744,68	67,39
745,113	67,2
745,546	67,07
745,979	66,9
746,412	67,31
746,845	66,97
747,278	67,4
747,711	67,32
748,143	67,15
748,576	67,31
749,008	67,29
749,441	67,03
749,873	67,18
750,305	67,06
750,737	67,17
751,169	67,21
751,601	67,15
752,032	67,14
752,464	67,16
752,896	67,02
753,327	66,9
753,758	66,76
754,19	66,91
754,621	67,09
755,052	66,97
755,483	66,73
755,914	66,99
756,344	67,08
756,775	66,8
757,206	66,87
757,636	66,82
758,066	66,71
758,497	66,74
758,927	66,57
759,357	66,53
759,787	66,77
760,217	66,69
760,647	66,49
761,076	66,51
761,506	66,73
761,935	66,31
762,365	66,4
762,794	66,45
763,223	66,33
763,653	66,64
764,082	66,4
764,51	66,35
764,939	66,47
765,368	66,42
765,797	66,43
766,225	66,2
766,654	65,92
767,082	65,97
767,51	65,93
767,938	66,05
768,367	66,09
768,795	66,23
769,222	66,19
769,65	66,12
770,078	66,15
770,505	65,89
770,933	65,95
771,36	65,77
771,788	65,88
772,215	66,03
772,642	65,74
773,069	65,84
773,496	65,65
773,923	65,42
774,349	65,54
774,776	65,86
775,203	65,77
775,629	65,55
776,055	65,44
776,482	65,65
776,908	65,6
777,334	65,36
777,76	65,78
778,186	65,6
778,611	65,55
779,037	65,68
779,463	65,33
779,888	65,42
780,314	65,44
780,739	65,75
781,164	65,43
781,589	65,26
782,014	65,28
782,439	65,19
782,864	65,41
783,289	65,4
783,713	65,25
784,138	65,4
784,562	65,38
784,987	65,38
785,411	65,21
785,835	65,26
786,259	65,42
786,683	65,62
787,107	65,44
787,531	65,12
787,954	65,1
788,378	65,1
788,802	65,23
789,225	65,34
789,648	65,01
790,071	65,25
790,495	64,83
790,918	64,9
791,34	65,1
791,763	65,14
792,186	65,13
792,609	65,14
793,031	65,19
793,454	64,84
793,876	64,91
794,298	65,06
794,721	64,98
795,143	65,43
795,565	64,99
795,986	65,21
796,408	64,81
796,83	65,09
797,252	65,19
797,673	65,05
798,094	64,93
798,516	64,82
798,937	64,91
799,358	65,07
799,779	65
800,2	64,9
800,621	64,94
801,042	64,81
801,462	64,65
801,883	64,87
802,303	64,89
802,724	64,93
803,144	65,2
803,564	64,64
803,984	64,79
804,404	64,81
804,824	64,91
805,244	64,9
805,664	65,01
806,084	64,78
806,503	65,04
806,923	65,11
807,342	64,61
807,761	64,81
808,18	64,85
808,599	64,74
809,018	64,6
809,437	64,7
809,856	64,38
810,275	64,89
810,693	64,71
811,112	64,85
811,53	64,5
811,949	64,85
812,367	64,5
812,785	64,69
813,203	64,73
813,621	64,76
814,039	64,69
814,457	64,39
814,874	64,86
815,292	64,84
815,709	64,55
816,127	64,85
816,544	64,83
816,961	64,65
817,378	64,68
817,795	64,74
818,212	64,6
818,629	64,8
819,046	64,6
819,462	64,48
819,879	64,7
820,295	64,6
820,712	64,32
821,128	64,6
821,544	64,36
821,96	64,52
822,376	64,45
822,792	64,25
823,208	64,25
823,624	64,84
824,039	64,58
824,455	64,42
824,87	64,52
825,286	64,27
825,701	64,5
826,116	64,08
826,531	64,27
826,946	64,48
827,361	64,35
827,776	64,26
828,19	64,36
828,605	64,52
829,02	64,61
829,434	64,43
829,848	64,83
830,263	64,44
830,677	64,39
831,091	64,29
831,505	64,24
831,919	64,44
832,332	64,12
832,746	64,38
833,16	64,34
833,573	64,48
833,987	64,66
834,4	64,19
