Data from D1__Relative__1__00040.txt Node

Date: Tue Jan 30 17:54:36 CET 2024
User: diatiterra
Spectrometer: HDX00911
Trigger mode: 0
Integration Time (sec): 6,000000E-3
Scans to average: 3
Nonlinearity correction enabled: true
Boxcar width: 0
Storing dark spectrum: false
XAxis mode: Wavelengths
Number of Pixels in Spectrum: 2068
>>>>>Begin Spectral Data<<<<<
194,468	99,42
195,025	82,71
195,581	82,48
196,138	70,85
196,694	82,39
197,251	64,63
197,807	70,17
198,363	71,28
198,919	67,18
199,474	70,63
200,03	72,12
200,586	61,41
201,141	65,38
201,696	65,16
202,251	65,98
202,806	68,22
203,361	72,94
203,916	66,46
204,471	70,72
205,025	62,54
205,58	67,07
206,134	73,42
206,688	65,05
207,242	68,55
207,796	68,29
208,35	66,52
208,904	69,1
209,457	66,21
210,011	70,25
210,564	66,13
211,117	71,72
211,67	74,79
212,223	71,34
212,776	67,43
213,329	69,75
213,881	70,02
214,434	70,31
214,986	68,95
215,538	70,52
216,09	69,36
216,642	73,86
217,194	65,83
217,746	70,71
218,297	71,5
218,849	71,89
219,4	73,78
219,951	71,69
220,502	72,99
221,053	67,07
221,604	68,42
222,155	74,94
222,705	69,65
223,256	68,01
223,806	70,2
224,356	74,89
224,906	70,91
225,456	58,72
226,006	68,02
226,556	70,69
227,106	75
227,655	66,31
228,204	64,15
228,754	73,43
229,303	68,94
229,852	72,61
230,401	73,34
230,949	70,66
231,498	65,69
232,047	64,95
232,595	71,31
233,143	74,58
233,691	63,41
234,239	70,99
234,787	66,46
235,335	63,82
235,883	65,05
236,43	64,18
236,978	68,49
237,525	65,7
238,072	64,85
238,619	67,83
239,166	68,11
239,713	69,36
240,26	67,45
240,806	67,75
241,353	66,26
241,899	68,16
242,445	68,92
242,991	65,08
243,537	67,86
244,083	64,5
244,629	64,04
245,174	70,25
245,72	68,22
246,265	73,04
246,81	70,43
247,355	63,92
247,9	70,02
248,445	69,57
248,99	71,96
249,534	66,3
250,079	68,95
250,623	68,33
251,168	67,14
251,712	59,65
252,256	64,04
252,8	62,98
253,343	69,68
253,887	65,8
254,43	69,23
254,974	67,26
255,517	69,36
256,06	72,35
256,603	69,3
257,146	65,36
257,689	66,6
258,232	66,67
258,774	71,03
259,317	67,64
259,859	62,58
260,401	69,58
260,943	72,25
261,485	66,74
262,027	72,01
262,569	64,56
263,11	64,68
263,652	66,99
264,193	67,48
264,734	68,44
265,275	65,34
265,816	67,2
266,357	64,16
266,898	64,72
267,438	66,59
267,979	75,75
268,519	69,61
269,059	67,62
269,6	68,89
270,14	66,29
270,68	61,53
271,219	68,35
271,759	68,42
272,298	64,57
272,838	66,67
273,377	66,24
273,916	64,49
274,455	61,46
274,994	70,43
275,533	71,11
276,072	67,11
276,61	69,15
277,149	65,39
277,687	59,17
278,225	65,41
278,763	71,24
279,301	64,17
279,839	63,19
280,377	70,93
280,914	67,59
281,452	72,38
281,989	77,72
282,526	64,35
283,064	67,75
283,601	64,15
284,137	66,67
284,674	68,99
285,211	68,11
285,747	65,74
286,284	68,96
286,82	66,66
287,356	65,34
287,892	72,77
288,428	58,59
288,964	68,26
289,5	64,72
290,035	69,52
290,571	65,32
291,106	74,01
291,641	67,88
292,176	69,85
292,711	67,6
293,246	65,74
293,781	71,6
294,315	67,3
294,85	71,91
295,384	65,98
295,918	63,07
296,453	64,99
296,987	62,95
297,52	64,24
298,054	64,91
298,588	71,38
299,121	65,85
299,655	70,39
300,188	64,41
300,721	63,44
301,254	66,75
301,787	62,92
302,32	71,08
302,853	59,74
303,385	68,22
303,918	72,74
304,45	60,47
304,982	70,47
305,514	67,65
306,046	62,52
306,578	67,03
307,11	59,61
307,641	71,51
308,173	65,11
308,704	70,69
309,236	76,81
309,767	71,07
310,298	58,57
310,829	68,84
311,359	64,31
311,89	62,93
312,421	59,87
312,951	70,05
313,481	66,07
314,012	68,21
314,542	68,71
315,072	63,97
315,601	61,27
316,131	69,29
316,661	63,24
317,19	65,32
317,72	67,36
318,249	64,82
318,778	63,58
319,307	65,7
319,836	66,9
320,365	72,21
320,893	65,5
321,422	69,78
321,95	62,42
322,479	66,68
323,007	59,82
323,535	65,09
324,063	59,16
324,591	68,64
325,118	67,53
325,646	62,8
326,173	62,31
326,701	67,98
327,228	62,45
327,755	65,72
328,282	61,54
328,809	64,04
329,336	62,45
329,862	62,61
330,389	63,14
330,915	70,96
331,441	67,23
331,968	63,96
332,494	62,42
333,02	62,37
333,545	66,96
334,071	65,78
334,597	59,49
335,122	63,46
335,648	59,99
336,173	65,2
336,698	55,84
337,223	59,63
337,748	60,69
338,272	56,99
338,797	62,97
339,322	65,59
339,846	59,96
340,37	62,11
340,894	60,26
341,419	60,75
341,942	59,75
342,466	56,99
342,99	62,24
343,514	55,62
344,037	54,44
344,56	60,78
345,084	51,9
345,607	61
346,13	56,96
346,653	55,16
347,175	55,3
347,698	55,77
348,221	52,28
348,743	55,37
349,265	58,17
349,787	55,77
350,309	56,58
350,831	56,91
351,353	51,7
351,875	52,8
352,397	47,18
352,918	58,67
353,439	57,23
353,961	54,99
354,482	51,13
355,003	51,13
355,524	53,08
356,044	48,9
356,565	55,82
357,086	50,19
357,606	52,28
358,126	54,24
358,646	52,02
359,167	48,19
359,687	51,64
360,206	48,73
360,726	50,99
361,246	48,26
361,765	46,37
362,285	45,61
362,804	47,39
363,323	49,03
363,842	53,15
364,361	50,62
364,88	48,18
365,398	47,23
365,917	45,52
366,435	46,15
366,954	48,34
367,472	47,7
367,99	48,6
368,508	44,07
369,026	44,62
369,544	43,75
370,061	44,84
370,579	40,71
371,096	44,4
371,613	46,39
372,131	48,2
372,648	45,8
373,165	44,2
373,681	40,7
374,198	41,32
374,715	45,81
375,231	43,69
375,747	42,16
376,264	40,74
376,78	43,09
377,296	42,3
377,812	42,67
378,327	41,3
378,843	41,05
379,359	40,52
379,874	41,96
380,389	43,08
380,905	40,16
381,42	40,34
381,935	39,43
382,449	34,69
382,964	38,02
383,479	38,83
383,993	38,74
384,508	35,61
385,022	33,92
385,536	38,24
386,05	33,98
386,564	36,53
387,078	35,86
387,592	33,47
388,105	34,48
388,619	34,23
389,132	32,32
389,645	33,8
390,158	31,44
390,671	31,27
391,184	31,26
391,697	31,27
392,21	30,62
392,722	30,75
393,235	30,59
393,747	30,73
394,259	29,4
394,771	32,01
395,283	29,29
395,795	30,33
396,307	29,97
396,818	29,4
397,33	29,15
397,841	28,38
398,353	28,03
398,864	26,52
399,375	27,95
399,886	25,85
400,397	24,7
400,907	25,12
401,418	24,21
401,928	23,33
402,439	23,89
402,949	23,02
403,459	23,38
403,969	22,63
404,479	21,88
404,989	20,64
405,498	20,38
406,008	20,61
406,517	20,16
407,027	19,03
407,536	17,98
408,045	17,94
408,554	17,83
409,063	17,05
409,572	15,75
410,08	16,71
410,589	15,04
411,097	15,2
411,606	14,61
412,114	13,75
412,622	14,23
413,13	14,26
413,638	13,53
414,145	12,89
414,653	12,77
415,16	12,32
415,668	12,53
416,175	11,42
416,682	11,32
417,189	11,55
417,696	10,97
418,203	10,52
418,71	10,36
419,216	10,61
419,723	10,24
420,229	9,94
420,735	10,24
421,242	10,1
421,748	9,91
422,254	9,57
422,759	9,3
423,265	9,63
423,771	9,28
424,276	9,24
424,781	8,86
425,287	9,44
425,792	9,21
426,297	9,04
426,802	8,69
427,306	8,93
427,811	9,17
428,316	9,03
428,82	8,59
429,324	8,93
429,829	8,46
430,333	8,49
430,837	8,67
431,34	8,26
431,844	8,41
432,348	8,37
432,851	8,14
433,355	8,31
433,858	8,5
434,361	8,24
434,864	7,93
435,367	7,96
435,87	8,08
436,373	8,34
436,876	7,85
437,378	8,04
437,88	8,24
438,383	7,84
438,885	7,97
439,387	8,23
439,889	7,91
440,391	7,74
440,892	8,05
441,394	8,07
441,896	7,74
442,397	7,86
442,898	7,98
443,399	8,06
443,9	7,99
444,401	7,87
444,902	7,8
445,403	7,67
445,903	7,67
446,404	7,99
446,904	7,94
447,405	7,8
447,905	7,78
448,405	8,13
448,905	7,96
449,404	8,02
449,904	8
450,404	7,81
450,903	8,1
451,403	7,85
451,902	7,99
452,401	7,82
452,9	8,12
453,399	7,72
453,898	8,16
454,396	8,23
454,895	8,19
455,393	7,92
455,892	7,98
456,39	7,91
456,888	8,29
457,386	8,17
457,884	8,01
458,382	8,12
458,879	8,01
459,377	8,09
459,874	8,08
460,372	8,19
460,869	8,43
461,366	8,01
461,863	8,24
462,36	8,07
462,857	8,15
463,353	7,86
463,85	8,22
464,346	7,93
464,843	8,07
465,339	8,01
465,835	8,09
466,331	7,94
466,827	8,02
467,323	8,11
467,818	7,99
468,314	8,04
468,809	8,01
469,305	7,87
469,8	8,11
470,295	7,9
470,79	8,07
471,285	8,11
471,78	8,08
472,274	7,94
472,769	8,09
473,263	7,97
473,758	8,14
474,252	7,86
474,746	7,84
475,24	7,94
475,734	8,01
476,228	7,96
476,721	8,15
477,215	8,19
477,708	8,23
478,202	8,15
478,695	8,06
479,188	8,1
479,681	8,14
480,174	8,07
480,667	8,21
481,159	8,19
481,652	8,16
482,144	8,15
482,637	8,28
483,129	8,22
483,621	8,32
484,113	8,22
484,605	8,07
485,097	8,13
485,588	8,36
486,08	8,17
486,571	8,36
487,063	8,29
487,554	8,38
488,045	8,34
488,536	8,24
489,027	8,3
489,518	8,43
490,008	8,42
490,499	8,42
490,989	8,57
491,48	8,54
491,97	8,51
492,46	8,46
492,95	8,59
493,44	8,61
493,93	8,8
494,419	8,68
494,909	8,85
495,398	8,78
495,888	8,95
496,377	8,81
496,866	8,97
497,355	9,01
497,844	9,19
498,333	9,05
498,821	9,1
499,31	9,35
499,798	9,24
500,287	9,61
500,775	9,63
501,263	9,62
501,751	9,92
502,239	9,82
502,727	10,18
503,215	10,45
503,702	10,08
504,19	10,06
504,677	10,75
505,164	10,59
505,651	10,79
506,139	11,04
506,625	10,9
507,112	11,33
507,599	11,66
508,086	11,76
508,572	12,01
509,058	12,02
509,545	12,2
510,031	12,44
510,517	12,9
511,003	13,08
511,489	13,27
511,974	13,48
512,46	13,8
512,946	13,93
513,431	14,21
513,916	14,47
514,401	14,79
514,887	15,32
515,371	15,19
515,856	15,69
516,341	16,23
516,826	16,32
517,31	16,62
517,795	17,05
518,279	17,48
518,763	17,65
519,247	18,22
519,731	18,37
520,215	18,84
520,699	19,4
521,182	19,27
521,666	20,05
522,149	20,31
522,633	20,79
523,116	20,99
523,599	21,79
524,082	21,91
524,565	22,12
525,048	22,66
525,53	23,05
526,013	23,36
526,495	23,51
526,978	24,29
527,46	24,47
527,942	24,55
528,424	24,8
528,906	25,02
529,388	25,14
529,87	25,58
530,351	25,57
530,833	26,26
531,314	26,57
531,795	26,4
532,277	26,63
532,758	27,06
533,238	27,19
533,719	27,24
534,2	27,2
534,681	27,87
535,161	27,82
535,642	27,73
536,122	28,2
536,602	28,1
537,082	28,38
537,562	28,31
538,042	28,43
538,522	28,43
539,001	28,51
539,481	28,33
539,96	28,84
540,44	28,81
540,919	28,77
541,398	29,03
541,877	28,93
542,356	29,35
542,835	29,09
543,313	29,47
543,792	29,47
544,27	29,38
544,749	29,41
545,227	29,59
545,705	29,67
546,183	29,77
546,661	29,85
547,139	29,53
547,616	29,76
548,094	29,69
548,571	29,8
549,049	29,66
549,526	29,94
550,003	29,88
550,48	30,2
550,957	30,15
551,434	29,98
551,911	29,93
552,387	30,19
552,864	29,99
553,34	29,96
553,817	30,53
554,293	30,11
554,769	30,65
555,245	30,03
555,721	30,24
556,197	30,05
556,672	30,16
557,148	29,97
557,623	29,97
558,099	30,01
558,574	29,99
559,049	29,54
559,524	29,69
559,999	29,68
560,474	29,62
560,948	29,19
561,423	29,4
561,897	29,05
562,372	28,99
562,846	28,99
563,32	28,81
563,794	28,87
564,268	28,63
564,742	28,48
565,216	28,05
565,69	28,2
566,163	27,98
566,636	27,72
567,11	27,82
567,583	27,24
568,056	27,11
568,529	26,86
569,002	26,49
569,475	26,45
569,947	26,4
570,42	26,1
570,892	25,89
571,365	25,78
571,837	25,32
572,309	25,2
572,781	25
573,253	24,77
573,725	24,39
574,197	24,42
574,668	24,32
575,14	23,88
575,611	23,89
576,082	23,56
576,554	23,52
577,025	23,35
577,496	22,96
577,967	23,11
578,437	22,68
578,908	22,68
579,379	22,25
579,849	22,17
580,319	22,01
580,79	22,14
581,26	21,86
581,73	21,58
582,2	21,56
582,669	21,31
583,139	21,2
583,609	21,02
584,078	21,06
584,548	20,82
585,017	20,93
585,486	20,89
585,955	20,46
586,424	20,3
586,893	20,22
587,362	20,35
587,83	20,01
588,299	19,77
588,767	20
589,236	19,85
589,704	19,82
590,172	19,79
590,64	19,73
591,108	19,46
591,576	19,49
592,043	19,31
592,511	19,29
592,978	19,21
593,446	19,17
593,913	19,2
594,38	18,8
594,847	19,21
595,314	18,86
595,781	18,95
596,248	18,81
596,715	18,83
597,181	18,77
597,647	18,55
598,114	18,64
598,58	18,74
599,046	18,69
599,512	18,45
599,978	18,55
600,444	18,51
600,91	18,29
601,375	18,37
601,841	18,4
602,306	18,35
602,771	18,33
603,236	18,07
603,702	18,09
604,167	18,06
604,631	18,09
605,096	18,02
605,561	17,8
606,025	17,63
606,49	17,72
606,954	17,55
607,418	17,49
607,882	17,29
608,347	17,25
608,81	17,31
609,274	16,93
609,738	16,87
610,202	17,04
610,665	16,72
611,128	16,66
611,592	16,52
612,055	16,5
612,518	16,35
612,981	16,3
613,444	16,06
613,907	15,86
614,369	15,85
614,832	15,82
615,294	15,7
615,757	15,66
616,219	15,3
616,681	15,39
617,143	15,23
617,605	15,16
618,067	15,26
618,529	15,04
618,99	14,87
619,452	14,93
619,913	14,86
620,375	14,8
620,836	14,8
621,297	14,57
621,758	14,55
622,219	14,41
622,68	14,36
623,14	14,54
623,601	14,5
624,061	14,38
624,522	14,28
624,982	14,36
625,442	14,23
625,902	14,1
626,362	14,22
626,822	14,18
627,282	14,05
627,742	14,11
628,201	13,91
628,661	14,07
629,12	14,04
629,579	13,99
630,038	14,05
630,497	13,84
630,956	13,91
631,415	13,76
631,874	13,88
632,332	13,87
632,791	13,81
633,249	13,68
633,708	13,59
634,166	13,63
634,624	13,5
635,082	13,52
635,54	13,43
635,998	13,4
636,455	13,29
636,913	13,13
637,37	13,17
637,828	13,01
638,285	12,78
638,742	12,81
639,199	12,58
639,656	12,55
640,113	12,45
640,57	12,45
641,027	12,3
641,483	12,13
641,94	12,04
642,396	12,01
642,852	11,84
643,309	11,66
643,765	11,64
644,221	11,36
644,676	11,29
645,132	11,21
645,588	11,1
646,043	10,93
646,499	10,82
646,954	10,75
647,409	10,69
647,864	10,39
648,319	10,37
648,774	10,27
649,229	10,18
649,684	10,15
650,139	10,1
650,593	10,03
651,047	9,96
651,502	9,87
651,956	9,83
652,41	9,77
652,864	9,69
653,318	9,79
653,772	9,64
654,225	9,63
654,679	9,55
655,133	9,5
655,586	9,52
656,039	9,4
656,492	9,27
656,946	9,22
657,399	9,14
657,851	9,17
658,304	9,02
658,757	9,01
659,209	8,83
659,662	8,81
660,114	8,79
660,567	8,68
661,019	8,65
661,471	8,55
661,923	8,48
662,375	8,45
662,826	8,4
663,278	8,31
663,73	8,19
664,181	8,22
664,632	8,09
665,084	8,09
665,535	8,07
665,986	8,12
666,437	7,98
666,888	7,92
667,338	8,05
667,789	8,02
668,24	7,9
668,69	8
669,14	7,98
669,591	7,94
670,041	8,02
670,491	7,9
670,941	7,94
671,391	8,02
671,84	8,01
672,29	8,1
672,74	8,17
673,189	8,13
673,638	8,22
674,088	8,34
674,537	8,4
674,986	8,37
675,435	8,38
675,883	8,5
676,332	8,61
676,781	8,69
677,229	8,77
677,678	8,93
678,126	8,93
678,574	9,05
679,022	9,03
679,47	9,19
679,918	9,33
680,366	9,35
680,814	9,45
681,261	9,49
681,709	9,63
682,156	9,77
682,604	9,87
683,051	9,94
683,498	10,12
683,945	10,19
684,392	10,24
684,839	10,32
685,286	10,51
685,732	10,67
686,179	10,88
686,625	10,91
687,071	11,12
687,518	11,28
687,964	11,46
688,41	11,61
688,856	11,97
689,301	12,14
689,747	12,48
690,193	12,82
690,638	13,04
691,084	13,6
691,529	13,96
691,974	14,51
692,419	14,79
692,864	15,37
693,309	15,83
693,754	16,33
694,199	17,06
694,643	17,63
695,088	18,26
695,532	18,87
695,977	19,64
696,421	20,14
696,865	20,8
697,309	21,63
697,753	22,19
698,197	23,03
698,64	23,73
699,084	24,35
699,527	25,21
699,971	25,85
700,414	26,51
700,857	27,4
701,3	28,1
701,743	28,7
702,186	29,64
702,629	30,16
703,072	30,84
703,515	31,54
703,957	32,2
704,399	32,9
704,842	33,49
705,284	34,07
705,726	35,07
706,168	35,51
706,61	36,17
707,052	36,94
707,494	37,23
707,935	38,03
708,377	38,57
708,818	39,25
709,26	39,83
709,701	40,31
710,142	40,82
710,583	41,54
711,024	42,02
711,465	42,79
711,905	43,26
712,346	43,81
712,787	44,43
713,227	44,81
713,667	45,46
714,108	45,97
714,548	46,57
714,988	47,04
715,428	47,39
715,868	47,92
716,307	48,2
716,747	48,89
717,186	49,66
717,626	49,97
718,065	50,65
718,504	50,72
718,944	51,51
719,383	51,93
719,822	52,18
720,261	52,74
720,699	53,02
721,138	53,32
721,576	53,93
722,015	54,23
722,453	54,9
722,892	55,22
723,33	55,54
723,768	55,77
724,206	56,51
724,644	56,61
725,081	56,93
725,519	57,1
725,957	57,4
726,394	57,87
726,832	57,92
727,269	58,48
727,706	58,34
728,143	58,96
728,58	59,31
729,017	59,39
729,454	59,82
729,89	59,91
730,327	60,08
730,764	60,6
731,2	60,48
731,636	60,71
732,072	61
732,509	61,07
732,945	61,1
733,38	61,43
733,816	61,73
734,252	61,8
734,688	61,67
735,123	61,84
735,559	62,33
735,994	62,21
736,429	62,43
736,864	62,55
737,299	62,69
737,734	62,97
738,169	62,96
738,604	62,72
739,038	63,13
739,473	63,19
739,907	63,32
740,342	63,19
740,776	63,2
741,21	63,64
741,644	63,42
742,078	63,9
742,512	63,56
742,946	63,74
743,379	63,88
743,813	63,71
744,246	63,73
744,68	63,96
745,113	63,97
745,546	63,82
745,979	63,81
746,412	63,97
746,845	63,96
747,278	64,04
747,711	64,21
748,143	63,92
748,576	63,81
749,008	64,15
749,441	63,86
749,873	64,15
750,305	63,67
750,737	63,83
751,169	63,94
751,601	63,71
752,032	63,9
752,464	64,06
752,896	64,03
753,327	63,6
753,758	63,99
754,19	63,77
754,621	63,99
755,052	64,12
755,483	63,69
755,914	63,89
756,344	63,85
756,775	63,83
757,206	63,9
757,636	63,69
758,066	63,66
758,497	63,8
758,927	63,57
759,357	63,79
759,787	63,82
760,217	63,69
760,647	63,58
761,076	63,69
761,506	63,62
761,935	63,4
762,365	63,67
762,794	63,44
763,223	63,55
763,653	63,59
764,082	63,64
764,51	63,44
764,939	63,34
765,368	63,39
765,797	63,3
766,225	63,24
766,654	63,06
767,082	63,02
767,51	63,25
767,938	63,47
768,367	63,17
768,795	63,32
769,222	63,18
769,65	63,27
770,078	63,06
770,505	62,79
770,933	62,95
771,36	62,98
771,788	62,97
772,215	63,25
772,642	63,01
773,069	62,93
773,496	62,99
773,923	62,88
774,349	62,67
774,776	62,76
775,203	62,8
775,629	62,81
776,055	62,92
776,482	62,75
776,908	62,93
777,334	62,75
777,76	62,66
778,186	62,76
778,611	62,66
779,037	62,63
779,463	62,59
779,888	62,53
780,314	62,82
780,739	62,77
781,164	62,86
781,589	62,49
782,014	62,63
782,439	62,72
782,864	62,68
783,289	62,72
783,713	62,45
784,138	62,13
784,562	62,81
784,987	62,3
785,411	62,41
785,835	62,48
786,259	62,7
786,683	62,83
787,107	62,64
787,531	62,52
787,954	62,32
788,378	63,09
788,802	62,55
789,225	62,49
789,648	62,53
790,071	62,61
790,495	62,37
790,918	62,47
791,34	62,61
791,763	62,36
792,186	62,67
792,609	62,64
793,031	62,62
793,454	62,5
793,876	62,41
794,298	62,63
794,721	62,32
795,143	62,63
795,565	62,33
795,986	62,45
796,408	62,61
796,83	62,37
797,252	62,34
797,673	62,52
798,094	62,41
798,516	62,36
798,937	62,31
799,358	62,53
799,779	62,08
800,2	62,22
800,621	62,62
801,042	62,34
801,462	62,47
801,883	62,39
802,303	62,43
802,724	62,36
803,144	62,43
803,564	62,27
803,984	62,5
804,404	62,48
804,824	62,51
805,244	62,29
805,664	62,29
806,084	62,6
806,503	62,38
806,923	62,35
807,342	62,28
807,761	62,05
808,18	62,37
808,599	62,44
809,018	62,4
809,437	62,49
809,856	61,91
810,275	62,21
810,693	62,1
811,112	62,17
811,53	62,16
811,949	62,51
812,367	62,14
812,785	62,63
813,203	62,36
813,621	62,32
814,039	62,15
814,457	62,13
814,874	62,12
815,292	62,26
815,709	62,23
816,127	62,13
816,544	62,3
816,961	62,37
817,378	62,39
817,795	62,28
818,212	62,18
818,629	62,41
819,046	62,16
819,462	62,06
819,879	62,39
820,295	62,21
820,712	62,01
821,128	62,23
821,544	62,25
821,96	61,74
822,376	62,3
822,792	62,25
823,208	62,01
823,624	62,35
824,039	62,13
824,455	62,18
824,87	62,31
825,286	62,17
825,701	62,1
826,116	62,12
826,531	62,13
826,946	62,18
827,361	62,16
827,776	62,04
828,19	61,79
828,605	61,92
829,02	62,05
829,434	62,4
829,848	62,29
830,263	62,15
830,677	62
831,091	62,3
831,505	62,17
831,919	62,06
832,332	61,74
832,746	62,05
833,16	62,16
833,573	61,83
833,987	61,92
834,4	62,03
834,813	61,69
835,226	62
835,639	62,12
836,052	62,01
836,465	62,34
836,878	62,27
837,29	62,02
837,703	61,99
838,116	62,08
838,528	62,02
838,94	61,96
839,352	62
839,765	62,03
840,177	61,91
840,589	62,09
