Data from D3__Relative__1__00049.txt Node

Date: Tue Jan 30 17:55:27 CET 2024
User: diatiterra
Spectrometer: HDX00911
Trigger mode: 0
Integration Time (sec): 6,000000E-3
Scans to average: 3
Nonlinearity correction enabled: true
Boxcar width: 0
Storing dark spectrum: false
XAxis mode: Wavelengths
Number of Pixels in Spectrum: 2068
>>>>>Begin Spectral Data<<<<<
194,468	89,16
195,025	68,69
195,581	69,19
196,138	69,49
196,694	70,96
197,251	60,59
197,807	58,83
198,363	57,02
198,919	57,4
199,474	62,66
200,03	56,81
200,586	54,74
201,141	57,08
201,696	55,48
202,251	53,76
202,806	61,3
203,361	60,89
203,916	53,4
204,471	57,11
205,025	58,29
205,58	54,34
206,134	58,65
206,688	54,81
207,242	53,42
207,796	55,08
208,35	58,91
208,904	57,02
209,457	56,91
210,011	63,29
210,564	51,28
211,117	56,96
211,67	62,51
212,223	56,9
212,776	58,82
213,329	57,73
213,881	54,5
214,434	48,79
214,986	52,25
215,538	56,5
216,09	50,3
216,642	55,14
217,194	57,6
217,746	60,46
218,297	52,98
218,849	57,08
219,4	56,66
219,951	52,27
220,502	57,11
221,053	50,92
221,604	54,69
222,155	56,05
222,705	53,43
223,256	51,31
223,806	55,99
224,356	55,02
224,906	58,6
225,456	52,17
226,006	49,7
226,556	51,55
227,106	56,84
227,655	56,54
228,204	58,7
228,754	55,85
229,303	49,79
229,852	54,78
230,401	57,5
230,949	56,61
231,498	53,82
232,047	51,63
232,595	61,46
233,143	57,2
233,691	53,67
234,239	53,84
234,787	54,39
235,335	59,45
235,883	51,33
236,43	58,8
236,978	55,08
237,525	56,67
238,072	54,8
238,619	54,57
239,166	54,64
239,713	53,74
240,26	52,46
240,806	55,09
241,353	54,01
241,899	52,92
242,445	55,17
242,991	50,51
243,537	55,81
244,083	53,95
244,629	58,58
245,174	52,53
245,72	56,71
246,265	56,76
246,81	57,62
247,355	53,12
247,9	53,88
248,445	52,41
248,99	54,78
249,534	52,46
250,079	56,39
250,623	52,1
251,168	52,68
251,712	51,8
252,256	49,16
252,8	50,71
253,343	55,37
253,887	52,17
254,43	61,35
254,974	52,44
255,517	53,03
256,06	52,39
256,603	57,36
257,146	54,25
257,689	58,59
258,232	56,28
258,774	49,35
259,317	56,99
259,859	53,06
260,401	64,44
260,943	56,78
261,485	58,37
262,027	54
262,569	55,19
263,11	54
263,652	62,13
264,193	57,3
264,734	55,44
265,275	53,86
265,816	54,75
266,357	57,7
266,898	56,49
267,438	56,28
267,979	62,14
268,519	57,93
269,059	54,05
269,6	60,89
270,14	58,55
270,68	51
271,219	56,5
271,759	57,46
272,298	52,69
272,838	57,95
273,377	59,19
273,916	56,3
274,455	53,12
274,994	57,18
275,533	58
276,072	58,78
276,61	55,41
277,149	51,38
277,687	58,08
278,225	53,75
278,763	54,16
279,301	49,14
279,839	54,32
280,377	53,36
280,914	54,87
281,452	58,23
281,989	58,7
282,526	56,82
283,064	59,57
283,601	57,45
284,137	58,23
284,674	58,86
285,211	59,74
285,747	56,32
286,284	57,09
286,82	49,77
287,356	58,66
287,892	58,78
288,428	54,4
288,964	56,43
289,5	55,41
290,035	55,39
290,571	59,36
291,106	60,4
291,641	54,98
292,176	54,88
292,711	55,94
293,246	58,94
293,781	55,26
294,315	54,43
294,85	61,31
295,384	60,11
295,918	54,84
296,453	50,33
296,987	54,82
297,52	58,94
298,054	52,19
298,588	54,24
299,121	55,89
299,655	53,01
300,188	54,37
300,721	53,3
301,254	54,27
301,787	53,6
302,32	58,84
302,853	50,75
303,385	58,22
303,918	52,88
304,45	46,65
304,982	56,83
305,514	53,49
306,046	54,31
306,578	53,23
307,11	55,63
307,641	58,61
308,173	54,02
308,704	56,59
309,236	54,53
309,767	54,47
310,298	50,97
310,829	47,31
311,359	56,84
311,89	54,61
312,421	50,42
312,951	52,2
313,481	58,5
314,012	53,48
314,542	54,27
315,072	50,75
315,601	45,74
316,131	57,41
316,661	50,11
317,19	53,12
317,72	52,6
318,249	50,11
318,778	55,17
319,307	45,74
319,836	54,14
320,365	52,34
320,893	56,26
321,422	54,35
321,95	52,86
322,479	59,12
323,007	49,35
323,535	53,53
324,063	48
324,591	50
325,118	55
325,646	52,52
326,173	53,73
326,701	55,56
327,228	57,78
327,755	54,6
328,282	52,35
328,809	56,14
329,336	52,72
329,862	48,91
330,389	56,46
330,915	54,55
331,441	54,54
331,968	48,82
332,494	48,88
333,02	52,48
333,545	50,11
334,071	56,22
334,597	51,98
335,122	55,36
335,648	56,04
336,173	55,2
336,698	52,97
337,223	48,36
337,748	49,21
338,272	47,9
338,797	48,68
339,322	53,38
339,846	49,48
340,37	47,76
340,894	54,06
341,419	47,6
341,942	49,01
342,466	49,53
342,99	50,77
343,514	50,3
344,037	45,52
344,56	50,88
345,084	48,4
345,607	49,28
346,13	46,16
346,653	46,28
347,175	47,32
347,698	48,94
348,221	43,23
348,743	44,58
349,265	49,7
349,787	47,57
350,309	46,59
350,831	51,87
351,353	43,61
351,875	40,97
352,397	42,38
352,918	42,47
353,439	44,09
353,961	42,05
354,482	39,59
355,003	40,53
355,524	42
356,044	41,51
356,565	42,15
357,086	41,11
357,606	40,61
358,126	40,79
358,646	42,56
359,167	41,11
359,687	40,27
360,206	41,04
360,726	46,1
361,246	41,91
361,765	39,9
362,285	36,05
362,804	45,24
363,323	40,36
363,842	41,21
364,361	42,52
364,88	40,85
365,398	40,76
365,917	40,2
366,435	40,43
366,954	40,68
367,472	38,98
367,99	40,39
368,508	37,78
369,026	38,38
369,544	40,56
370,061	41,94
370,579	37,71
371,096	37,73
371,613	40,47
372,131	40,46
372,648	36,88
373,165	35,12
373,681	37,15
374,198	38,69
374,715	36,52
375,231	40,36
375,747	36,01
376,264	32,32
376,78	39,49
377,296	37,56
377,812	35,22
378,327	37,04
378,843	33,83
379,359	36,3
379,874	34,6
380,389	35,26
380,905	33,39
381,42	35
381,935	35,02
382,449	33,41
382,964	34,68
383,479	33,17
383,993	34,56
384,508	30,04
385,022	30,04
385,536	32,24
386,05	32,07
386,564	32,8
387,078	32,04
387,592	31,24
388,105	28,54
388,619	28,76
389,132	26,65
389,645	30,03
390,158	28,13
390,671	29,06
391,184	28,24
391,697	27,6
392,21	25,9
392,722	27,48
393,235	27,52
393,747	26,11
394,259	25,85
394,771	27,01
395,283	25,9
395,795	26,34
396,307	27,32
396,818	25,02
397,33	23,42
397,841	23,93
398,353	24,09
398,864	24,41
399,375	23,84
399,886	22,64
400,397	23,15
400,907	21,69
401,418	21,45
401,928	21,28
402,439	20,77
402,949	20,49
403,459	20,19
403,969	19,99
404,479	18,21
404,989	18,4
405,498	17,65
406,008	18,79
406,517	18,16
407,027	17,54
407,536	15,67
408,045	15,14
408,554	15,17
409,063	14,9
409,572	14,25
410,08	13,92
410,589	13,28
411,097	13,58
411,606	13,3
412,114	12,15
412,622	12
413,13	11,93
413,638	11,49
414,145	11,24
414,653	11,1
415,16	10,71
415,668	9,92
416,175	9,92
416,682	9,87
417,189	9,83
417,696	9,73
418,203	9,21
418,71	9,12
419,216	9,49
419,723	8,67
420,229	8,68
420,735	8,93
421,242	8,83
421,748	8,5
422,254	8,51
422,759	8,54
423,265	8,23
423,771	7,81
424,276	8,08
424,781	7,74
425,287	7,83
425,792	7,79
426,297	7,88
426,802	7,52
427,306	7,67
427,811	7,59
428,316	7,71
428,82	7,45
429,324	7,52
429,829	6,88
430,333	7,37
430,837	7,24
431,34	7,6
431,844	7,51
432,348	7,6
432,851	7,45
433,355	7,4
433,858	6,94
434,361	7,22
434,864	6,7
435,367	6,92
435,87	7,02
436,373	7,23
436,876	6,73
437,378	6,98
437,88	6,86
438,383	7
438,885	6,94
439,387	6,99
439,889	6,8
440,391	6,9
440,892	6,66
441,394	6,68
441,896	6,8
442,397	7,15
442,898	6,83
443,399	6,83
443,9	6,95
444,401	6,9
444,902	6,74
445,403	6,74
445,903	6,8
446,404	6,78
446,904	6,79
447,405	6,82
447,905	7,01
448,405	7,16
448,905	6,82
449,404	7,01
449,904	7,05
450,404	7,08
450,903	7,16
451,403	6,88
451,902	6,86
452,401	6,94
452,9	6,95
453,399	7,08
453,898	7,07
454,396	7,04
454,895	7,26
455,393	6,94
455,892	7,28
456,39	7,15
456,888	7,26
457,386	7,06
457,884	6,97
458,382	7,11
458,879	7,08
459,377	7,08
459,874	7,13
460,372	7,25
460,869	7,19
461,366	7,26
461,863	7,11
462,36	7
462,857	7,07
463,353	7,07
463,85	7,2
464,346	7,11
464,843	7,14
465,339	7,09
465,835	7,27
466,331	7,3
466,827	6,96
467,323	7,05
467,818	7,15
468,314	7,06
468,809	6,97
469,305	6,86
469,8	6,83
470,295	7,19
470,79	7,06
471,285	7,13
471,78	7,3
472,274	7,14
472,769	7,06
473,263	7,33
473,758	7,21
474,252	7,13
474,746	7,24
475,24	7,13
475,734	6,98
476,228	6,99
476,721	7,21
477,215	7,12
477,708	7,27
478,202	7,14
478,695	7,35
479,188	7,23
479,681	7
480,174	7,26
480,667	7,4
481,159	7,24
481,652	7,35
482,144	7,26
482,637	7,43
483,129	7,26
483,621	7,36
484,113	7,37
484,605	7,31
485,097	7,46
485,588	7,26
486,08	7,34
486,571	7,42
487,063	7,37
487,554	7,47
488,045	7,39
488,536	7,51
489,027	7,34
489,518	7,41
490,008	7,7
490,499	7,57
490,989	7,59
491,48	7,56
491,97	7,83
492,46	7,82
492,95	7,81
493,44	7,77
493,93	7,76
494,419	7,83
494,909	7,92
495,398	7,84
495,888	8,02
496,377	8
496,866	8,11
497,355	8,32
497,844	8,18
498,333	8,42
498,821	8,57
499,31	8,29
499,798	8,25
500,287	8,67
500,775	8,65
501,263	8,77
501,751	9,2
502,239	9,16
502,727	9,37
503,215	9,44
503,702	9,51
504,19	9,38
504,677	9,89
505,164	9,88
505,651	9,89
506,139	10,3
506,625	10,44
507,112	10,58
507,599	10,66
508,086	10,88
508,572	11,16
509,058	11,24
509,545	11,42
510,031	11,43
510,517	12,02
511,003	12,22
511,489	12,43
511,974	12,57
512,46	12,82
512,946	12,94
513,431	13,27
513,916	13,61
514,401	13,78
514,887	14,22
515,371	14,28
515,856	14,82
516,341	15,14
516,826	15,28
517,31	15,4
517,795	15,93
518,279	15,93
518,763	16,28
519,247	16,84
519,731	17,12
520,215	17,5
520,699	17,37
521,182	18
521,666	18,84
522,149	18,66
522,633	19,22
523,116	19,39
523,599	19,63
524,082	20,37
524,565	20,52
525,048	20,88
525,53	20,97
526,013	21,17
526,495	21,31
526,978	21,71
527,46	22,01
527,942	22,33
528,424	22,59
528,906	22,93
529,388	22,86
529,87	23,54
530,351	23,44
530,833	23,75
531,314	24,07
531,795	23,94
532,277	24,26
532,758	24,62
533,238	24,55
533,719	24,84
534,2	24,45
534,681	24,54
535,161	25,03
535,642	24,82
536,122	25,15
536,602	25,26
537,082	25,41
537,562	25,1
538,042	25,89
538,522	25,33
539,001	25,91
539,481	25,8
539,96	25,81
540,44	25,7
540,919	25,64
541,398	25,96
541,877	25,99
542,356	26,08
542,835	26,2
543,313	26,01
543,792	26,12
544,27	26,3
544,749	26,17
545,227	26,56
545,705	26,51
546,183	26,75
546,661	26,38
547,139	26,65
547,616	26,63
548,094	26,64
548,571	26,59
549,049	26,96
549,526	26,83
550,003	26,68
550,48	26,68
550,957	26,91
551,434	26,79
551,911	27,1
552,387	26,77
552,864	26,72
553,34	26,89
553,817	26,9
554,293	26,85
554,769	27,18
555,245	26,55
555,721	26,74
556,197	26,79
556,672	26,73
557,148	26,79
557,623	26,88
558,099	26,69
558,574	26,62
559,049	26,83
559,524	26,54
559,999	26,56
560,474	26,52
560,948	26,33
561,423	26,35
561,897	25,94
562,372	26,06
562,846	25,94
563,32	26,08
563,794	26
564,268	25,42
564,742	25,38
565,216	25,41
565,69	25,35
566,163	25,13
566,636	24,81
567,11	24,85
567,583	24,67
568,056	24,43
568,529	24,2
569,002	24,02
569,475	24,03
569,947	23,55
570,42	23,69
570,892	23,31
571,365	23,03
571,837	22,96
572,309	22,88
572,781	22,72
573,253	22,69
573,725	22,35
574,197	22,09
574,668	22,03
575,14	21,59
575,611	21,52
576,082	21,35
576,554	21,29
577,025	21,13
577,496	20,96
577,967	20,93
578,437	20,98
578,908	20,57
579,379	20,47
579,849	20,22
580,319	20,09
580,79	19,96
581,26	20,08
581,73	19,73
582,2	19,56
582,669	19,48
583,139	19,56
583,609	19,21
584,078	19,31
584,548	19,09
585,017	19,21
585,486	19,06
585,955	18,62
586,424	18,62
586,893	18,75
587,362	18,61
587,83	18,38
588,299	18,25
588,767	18,27
589,236	18,18
589,704	18,17
590,172	18,05
590,64	18,15
591,108	17,89
591,576	17,61
592,043	17,83
592,511	17,6
592,978	17,59
593,446	17,48
593,913	17,31
594,38	17,49
594,847	17,38
595,314	17,05
595,781	17,25
596,248	17,27
596,715	17,24
597,181	17,28
597,647	17,25
598,114	17,15
598,58	17,09
599,046	17,07
599,512	17,11
599,978	16,91
600,444	16,79
600,91	16,82
601,375	16,95
601,841	16,88
602,306	16,7
602,771	16,63
603,236	16,75
603,702	16,62
604,167	16,46
604,631	16,45
605,096	16,5
605,561	16,37
606,025	16,22
606,49	16,2
606,954	16,27
607,418	15,91
607,882	15,95
608,347	15,87
608,81	15,85
609,274	15,63
609,738	15,43
610,202	15,58
610,665	15,41
611,128	15,42
611,592	15,29
612,055	15,21
612,518	15,21
612,981	15,06
613,444	14,93
613,907	14,79
614,369	14,63
614,832	14,53
615,294	14,43
615,757	14,38
616,219	14,13
616,681	14,26
617,143	14,24
617,605	14,03
618,067	14,03
618,529	13,91
618,99	13,91
619,452	13,84
619,913	13,78
620,375	13,5
620,836	13,78
621,297	13,6
621,758	13,53
622,219	13,52
622,68	13,54
623,14	13,53
623,601	13,35
624,061	13,31
624,522	13,26
624,982	13,25
625,442	13,26
625,902	13,14
626,362	13,13
626,822	13,13
627,282	13,21
627,742	13,05
628,201	13,04
628,661	13,04
629,12	13,07
629,579	13,03
630,038	13,02
630,497	12,95
630,956	12,93
631,415	12,91
631,874	12,84
632,332	12,75
632,791	12,93
633,249	12,64
633,708	12,66
634,166	12,72
634,624	12,52
635,082	12,48
635,54	12,48
635,998	12,31
636,455	12,36
636,913	12,2
637,37	12,05
637,828	12
638,285	11,91
638,742	11,84
639,199	11,71
639,656	11,57
640,113	11,53
640,57	11,28
641,027	11,16
641,483	11,09
641,94	11,03
642,396	10,94
642,852	10,72
643,309	10,63
643,765	10,57
644,221	10,35
644,676	10,32
645,132	10,25
645,588	10,13
646,043	9,94
646,499	9,89
646,954	9,85
647,409	9,73
647,864	9,59
648,319	9,46
648,774	9,41
649,229	9,26
649,684	9,27
650,139	9,17
650,593	9,17
651,047	9,13
651,502	9,02
651,956	8,98
652,41	8,8
652,864	8,97
653,318	8,84
653,772	8,8
654,225	8,84
654,679	8,66
655,133	8,68
655,586	8,63
656,039	8,56
656,492	8,47
656,946	8,44
657,399	8,42
657,851	8,39
658,304	8,3
658,757	8,23
659,209	8,05
659,662	8,11
660,114	8,03
660,567	7,98
661,019	7,95
661,471	7,92
661,923	7,78
662,375	7,78
662,826	7,63
663,278	7,71
663,73	7,64
664,181	7,58
664,632	7,55
665,084	7,53
665,535	7,45
665,986	7,51
666,437	7,53
666,888	7,44
667,338	7,39
667,789	7,4
668,24	7,44
668,69	7,45
669,14	7,45
669,591	7,46
670,041	7,53
670,491	7,45
670,941	7,49
671,391	7,55
671,84	7,69
672,29	7,71
672,74	7,65
673,189	7,77
673,638	7,81
674,088	7,95
674,537	7,92
674,986	8,12
675,435	8,15
675,883	8,2
676,332	8,3
676,781	8,36
677,229	8,58
677,678	8,58
678,126	8,68
678,574	8,83
679,022	8,92
679,47	8,99
679,918	9,12
680,366	9,33
680,814	9,3
681,261	9,45
681,709	9,54
682,156	9,74
682,604	9,85
683,051	9,92
683,498	10,05
683,945	10,13
684,392	10,29
684,839	10,44
685,286	10,47
685,732	10,69
686,179	10,88
686,625	10,92
687,071	11,03
687,518	11,3
687,964	11,44
688,41	11,6
688,856	11,81
689,301	12,07
689,747	12,27
690,193	12,66
690,638	12,88
691,084	13,33
691,529	13,65
691,974	13,98
692,419	14,45
692,864	14,92
693,309	15,43
693,754	16,04
694,199	16,43
694,643	16,93
695,088	17,45
695,532	18,03
695,977	18,62
696,421	19,2
696,865	19,67
697,309	20,29
697,753	20,85
698,197	21,45
698,64	21,99
699,084	22,56
699,527	23,08
699,971	23,58
700,414	24,33
700,857	24,79
701,3	25,33
701,743	25,84
702,186	26,36
702,629	26,99
703,072	27,29
703,515	28,18
703,957	28,31
704,399	29,04
704,842	29,54
705,284	29,91
705,726	30,43
706,168	30,79
706,61	31,39
707,052	31,77
707,494	32,23
707,935	32,6
708,377	33,17
708,818	33,31
709,26	34,01
709,701	34,24
710,142	34,65
710,583	34,99
711,024	35,36
711,465	35,84
711,905	36,25
712,346	36,59
712,787	36,71
713,227	37,43
713,667	38,11
714,108	38,25
714,548	38,31
714,988	38,72
715,428	38,93
715,868	39,63
716,307	39,6
716,747	40,23
717,186	40,61
717,626	40,49
718,065	41,27
718,504	41,04
718,944	41,63
719,383	41,94
719,822	41,97
720,261	42,23
720,699	42,69
721,138	42,77
721,576	43,09
722,015	43,44
722,453	43,77
722,892	44,01
723,33	44,12
723,768	44,45
724,206	44,72
724,644	44,66
725,081	44,92
725,519	45,24
725,957	45,36
726,394	45,37
726,832	45,72
727,269	45,97
727,706	46
728,143	46,36
728,58	46,31
729,017	46,42
729,454	46,79
729,89	46,87
730,327	46,9
730,764	47,15
731,2	47,11
731,636	47,31
732,072	47,55
732,509	47,35
732,945	47,57
733,38	47,72
733,816	47,75
734,252	47,71
734,688	47,78
735,123	47,72
735,559	48,14
735,994	48,06
736,429	48,08
736,864	48,32
737,299	48,02
737,734	48,4
738,169	48,27
738,604	48,23
739,038	48,48
739,473	48,38
739,907	48,68
740,342	48,46
740,776	48,2
741,21	48,7
741,644	48,78
742,078	48,7
742,512	48,76
742,946	48,85
743,379	48,81
743,813	48,68
744,246	48,71
744,68	48,8
745,113	48,71
745,546	48,62
745,979	48,63
746,412	48,83
746,845	48,6
747,278	48,85
747,711	48,7
748,143	48,73
748,576	48,43
749,008	48,62
749,441	48,5
749,873	48,42
750,305	48,51
750,737	48,43
751,169	48,28
751,601	48,4
752,032	48,19
752,464	48,49
752,896	48,34
753,327	48,09
753,758	48,23
754,19	48,06
754,621	48,18
755,052	48,19
755,483	47,9
755,914	48,03
756,344	48,08
756,775	48,05
757,206	48,29
757,636	47,73
758,066	47,88
758,497	47,97
758,927	47,99
759,357	47,71
759,787	47,94
760,217	47,66
760,647	47,93
761,076	47,7
761,506	47,55
761,935	47,43
762,365	47,64
762,794	47,55
763,223	47,43
763,653	47,72
764,082	47,41
764,51	47,48
764,939	47,61
765,368	47,51
765,797	47,55
766,225	47,5
766,654	47,34
767,082	47,25
767,51	47,18
767,938	47,19
768,367	47,28
768,795	47,12
769,222	47,29
769,65	47,23
770,078	47,35
770,505	47,22
770,933	46,91
771,36	47,19
771,788	46,94
772,215	47,13
772,642	47,14
773,069	46,77
773,496	46,87
773,923	46,86
774,349	47,03
774,776	46,84
775,203	46,79
775,629	46,86
776,055	46,96
776,482	46,75
776,908	46,78
777,334	46,46
777,76	46,6
778,186	46,73
778,611	46,87
779,037	46,79
779,463	46,62
779,888	46,73
780,314	46,66
780,739	46,65
781,164	46,55
781,589	46,61
782,014	46,46
782,439	46,52
782,864	46,72
783,289	46,51
783,713	46,27
784,138	46,34
784,562	46,55
784,987	46,37
785,411	46,64
785,835	46,55
786,259	46,35
786,683	46,51
787,107	46,25
787,531	46,42
787,954	46,14
788,378	46,49
788,802	46,43
789,225	46,32
789,648	46,47
790,071	46,3
790,495	46,26
790,918	46,32
791,34	46,46
791,763	46,34
792,186	46,22
792,609	46,39
793,031	46,25
793,454	46,18
793,876	46,36
794,298	46,38
794,721	46,08
795,143	46,26
795,565	46,13
795,986	46,42
796,408	46,28
796,83	46,4
797,252	46,39
797,673	46,12
798,094	46,02
798,516	46,1
798,937	46,15
799,358	46,25
799,779	46,05
800,2	46,23
800,621	46,18
801,042	46,06
801,462	46,05
801,883	46,2
802,303	46,18
802,724	46,36
803,144	46,02
803,564	45,83
803,984	46,31
804,404	46,12
804,824	46,23
805,244	46,3
805,664	46,22
806,084	46,08
806,503	46,16
806,923	45,98
807,342	46,07
807,761	46,04
808,18	46
808,599	46,13
809,018	46,07
809,437	46,13
809,856	45,97
810,275	45,97
810,693	45,97
811,112	46,02
811,53	45,93
811,949	46,28
812,367	46
812,785	46,14
813,203	46,08
813,621	46,05
814,039	46,12
814,457	45,7
814,874	46,1
815,292	46,05
815,709	45,99
816,127	46,03
816,544	46,14
816,961	46,06
817,378	45,9
817,795	45,93
818,212	46,01
818,629	45,95
819,046	45,84
819,462	46,17
819,879	46,14
820,295	45,83
820,712	45,65
821,128	45,94
821,544	45,95
821,96	45,89
822,376	45,86
822,792	45,96
823,208	45,9
823,624	45,95
824,039	46,18
824,455	45,96
824,87	45,97
825,286	45,73
825,701	45,93
826,116	45,51
826,531	45,76
826,946	45,97
827,361	45,73
827,776	45,92
828,19	45,87
828,605	45,59
829,02	45,85
829,434	46,05
829,848	46,02
830,263	45,72
830,677	45,83
831,091	45,95
831,505	46,07
831,919	45,56
832,332	45,54
832,746	45,56
833,16	45,8
833,573	45,55
833,987	45,75
834,4	45,73
834,813	45,86
835,226	45,75
835,639	45,65
836,052	45,87
836,465	45,87
836,878	45,73
837,29	45,86
837,703	45,6
838,116	45,68
838,528	45,82
838,94	45,6
839,352	45,6
839,765	45,68
840,177	45,74
840,589	45,76
841	45,47
841,412	45,8
841,824	45,6
842,235	45,59
