Data from D5__Relative__5__00060.txt Node

Date: Tue Jan 30 17:56:08 CET 2024
User: diatiterra
Spectrometer: HDX00911
Trigger mode: 0
Integration Time (sec): 6,000000E-3
Scans to average: 3
Nonlinearity correction enabled: true
Boxcar width: 0
Storing dark spectrum: false
XAxis mode: Wavelengths
Number of Pixels in Spectrum: 2068
>>>>>Begin Spectral Data<<<<<
194,468	80,69
195,025	59,98
195,581	61,4
196,138	54,5
196,694	56,53
197,251	49,66
197,807	44,96
198,363	38,78
198,919	38,92
199,474	47,62
200,03	40,04
200,586	43,23
201,141	40,68
201,696	40,58
202,251	42,36
202,806	39,71
203,361	42,07
203,916	39,95
204,471	46,39
205,025	40,28
205,58	45,65
206,134	41,35
206,688	44,57
207,242	36,53
207,796	44,71
208,35	39,47
208,904	40,39
209,457	44,2
210,011	44,51
210,564	39,79
211,117	45,28
211,67	46,28
212,223	47,35
212,776	40,96
213,329	44,85
213,881	42,55
214,434	38,84
214,986	43,04
215,538	42,07
216,09	39,34
216,642	44,85
217,194	42,59
217,746	40,16
218,297	38,64
218,849	43,78
219,4	42,28
219,951	39,25
220,502	40,2
221,053	37,88
221,604	40,77
222,155	45,17
222,705	40,12
223,256	37,47
223,806	41,2
224,356	41,63
224,906	40,97
225,456	41,06
226,006	41,51
226,556	40,22
227,106	40,81
227,655	38,04
228,204	43,81
228,754	42,26
229,303	39,11
229,852	43,7
230,401	40,83
230,949	44,62
231,498	39,26
232,047	38,93
232,595	40,47
233,143	41,1
233,691	41,14
234,239	37,47
234,787	41,71
235,335	38,25
235,883	41,81
236,43	38,51
236,978	38,61
237,525	42,71
238,072	38,7
238,619	39,78
239,166	36,82
239,713	33,66
240,26	36,83
240,806	39,79
241,353	40,96
241,899	34,95
242,445	42,7
242,991	37,57
243,537	42,07
244,083	40,76
244,629	42,42
245,174	35,65
245,72	37,74
246,265	35,59
246,81	41,72
247,355	33,9
247,9	33,33
248,445	42,79
248,99	39,78
249,534	42,86
250,079	39,43
250,623	39,07
251,168	36,98
251,712	40,12
252,256	35,32
252,8	38,03
253,343	43,58
253,887	36,95
254,43	44,22
254,974	39,38
255,517	38,93
256,06	38,1
256,603	44,14
257,146	41,61
257,689	39,82
258,232	40,91
258,774	38,2
259,317	42,38
259,859	42,49
260,401	43,63
260,943	38,77
261,485	39,43
262,027	44,45
262,569	44,39
263,11	37,16
263,652	41,11
264,193	42,92
264,734	39,66
265,275	37,53
265,816	36,2
266,357	40,62
266,898	37,01
267,438	37,89
267,979	45,36
268,519	42,73
269,059	40,48
269,6	41,11
270,14	38,04
270,68	40,07
271,219	38,27
271,759	35,09
272,298	35,42
272,838	40,52
273,377	37,6
273,916	36,13
274,455	33,96
274,994	37,97
275,533	34,22
276,072	39,04
276,61	35,14
277,149	36,94
277,687	38,65
278,225	41,04
278,763	39,55
279,301	35,62
279,839	39,77
280,377	39,26
280,914	37,92
281,452	42,24
281,989	42,5
282,526	37,06
283,064	40
283,601	34,99
284,137	37,56
284,674	39,87
285,211	37,79
285,747	38,97
286,284	39,05
286,82	38
287,356	39,87
287,892	41,95
288,428	37,88
288,964	41,91
289,5	42,86
290,035	40,36
290,571	39,36
291,106	40,34
291,641	39,14
292,176	39,92
292,711	37,8
293,246	37,66
293,781	36,47
294,315	36,92
294,85	40,1
295,384	39,91
295,918	34,59
296,453	37,86
296,987	38,76
297,52	40,62
298,054	33,55
298,588	40,15
299,121	39,6
299,655	34,76
300,188	40,61
300,721	36,34
301,254	39,61
301,787	40,04
302,32	41,89
302,853	34,9
303,385	37,55
303,918	38,52
304,45	36,5
304,982	42,05
305,514	39,33
306,046	35,79
306,578	39,87
307,11	40,84
307,641	42,54
308,173	39,39
308,704	37,88
309,236	38,06
309,767	40,64
310,298	36,44
310,829	41,71
311,359	40,04
311,89	37,08
312,421	35,92
312,951	38,55
313,481	42,67
314,012	35,16
314,542	35,23
315,072	41,15
315,601	35,1
316,131	43,06
316,661	36,54
317,19	36,61
317,72	39,08
318,249	40,94
318,778	38,58
319,307	35,2
319,836	38,03
320,365	40,89
320,893	40,44
321,422	37,39
321,95	36,73
322,479	40
323,007	34,83
323,535	36,4
324,063	38,4
324,591	40,23
325,118	40,38
325,646	38,73
326,173	42,44
326,701	39,43
327,228	45,11
327,755	39,87
328,282	37,18
328,809	37,28
329,336	40,27
329,862	38,04
330,389	36,64
330,915	42,35
331,441	39,74
331,968	36,88
332,494	36,96
333,02	38,5
333,545	39,74
334,071	39,11
334,597	34,23
335,122	36,76
335,648	34,99
336,173	37,91
336,698	35,72
337,223	34,01
337,748	36,96
338,272	33,13
338,797	32,79
339,322	39
339,846	35,11
340,37	39,02
340,894	38,46
341,419	35,7
341,942	32,22
342,466	31,86
342,99	34,04
343,514	32,92
344,037	31,96
344,56	35,44
345,084	31,8
345,607	33,32
346,13	30,71
346,653	28,5
347,175	30,98
347,698	36,42
348,221	29
348,743	30,25
349,265	31,29
349,787	32,25
350,309	30,7
350,831	33,5
351,353	28,9
351,875	30,15
352,397	32,33
352,918	28,82
353,439	30,26
353,961	29,79
354,482	29,15
355,003	26,5
355,524	25,29
356,044	23,3
356,565	25,88
357,086	27,56
357,606	24,3
358,126	25,36
358,646	28,68
359,167	26,67
359,687	26,24
360,206	22,59
360,726	27,42
361,246	26,86
361,765	27,38
362,285	24,03
362,804	24,23
363,323	23,73
363,842	25,01
364,361	24,57
364,88	27,01
365,398	25,88
365,917	24,67
366,435	24,07
366,954	22,56
367,472	22,17
367,99	24,77
368,508	22,22
369,026	18,7
369,544	23,04
370,061	21,66
370,579	22,72
371,096	22,48
371,613	24,49
372,131	21,38
372,648	21,14
373,165	20,1
373,681	22,55
374,198	21,48
374,715	17,73
375,231	22,26
375,747	20,07
376,264	19,32
376,78	20,98
377,296	21,34
377,812	21,57
378,327	20,46
378,843	19,6
379,359	19,25
379,874	17,94
380,389	17,14
380,905	17,49
381,42	19,15
381,935	18,47
382,449	16,66
382,964	18,21
383,479	17,21
383,993	15,8
384,508	14,69
385,022	16,53
385,536	16,91
386,05	16,48
386,564	17
387,078	17,16
387,592	16,54
388,105	14,37
388,619	14,16
389,132	13,81
389,645	14,89
390,158	13,89
390,671	13,7
391,184	12,16
391,697	12,72
392,21	12,12
392,722	13,34
393,235	12,57
393,747	13,16
394,259	12,66
394,771	13,61
395,283	13,02
395,795	12,68
396,307	13,98
396,818	11,82
397,33	12,97
397,841	11,8
398,353	12,66
398,864	11,84
399,375	10,98
399,886	10,73
400,397	9,52
400,907	10,47
401,418	9,45
401,928	10,2
402,439	9,91
402,949	9,97
403,459	9,08
403,969	9,57
404,479	9,34
404,989	8,05
405,498	8,09
406,008	8,99
406,517	7,72
407,027	7,58
407,536	6,92
408,045	6,83
408,554	7,14
409,063	6,37
409,572	6,23
410,08	6,89
410,589	5,82
411,097	5,85
411,606	5,55
412,114	5,28
412,622	5,31
413,13	5,64
413,638	5,41
414,145	5,18
414,653	4,91
415,16	4,24
415,668	4,53
416,175	4,47
416,682	4,08
417,189	4,24
417,696	4,14
418,203	4,11
418,71	4,1
419,216	3,75
419,723	3,86
420,229	3,61
420,735	3,83
421,242	3,62
421,748	3,4
422,254	3,72
422,759	3,43
423,265	3,19
423,771	3,32
424,276	3,21
424,781	3,24
425,287	3,42
425,792	3,23
426,297	3,38
426,802	3,03
427,306	2,96
427,811	3,27
428,316	2,96
428,82	3,24
429,324	2,99
429,829	2,8
430,333	2,94
430,837	3,03
431,34	2,99
431,844	2,97
432,348	2,7
432,851	2,51
433,355	2,84
433,858	2,77
434,361	3
434,864	2,69
435,367	2,47
435,87	2,66
436,373	2,76
436,876	2,52
437,378	2,81
437,88	2,42
438,383	2,65
438,885	2,57
439,387	2,8
439,889	2,55
440,391	2,48
440,892	2,6
441,394	2,54
441,896	2,67
442,397	2,53
442,898	2,58
443,399	2,42
443,9	2,47
444,401	2,68
444,902	2,56
445,403	2,4
445,903	2,36
446,404	2,31
446,904	2,44
447,405	2,41
447,905	2,45
448,405	2,65
448,905	2,46
449,404	2,74
449,904	2,48
450,404	2,38
450,903	2,56
451,403	2,41
451,902	2,56
452,401	2,55
452,9	2,58
453,399	2,45
453,898	2,5
454,396	2,62
454,895	2,57
455,393	2,4
455,892	2,57
456,39	2,62
456,888	2,48
457,386	2,51
457,884	2,55
458,382	2,57
458,879	2,56
459,377	2,62
459,874	2,58
460,372	2,54
460,869	2,44
461,366	2,51
461,863	2,54
462,36	2,46
462,857	2,64
463,353	2,4
463,85	2,62
464,346	2,34
464,843	2,48
465,339	2,63
465,835	2,43
466,331	2,45
466,827	2,49
467,323	2,4
467,818	2,42
468,314	2,33
468,809	2,42
469,305	2,5
469,8	2,43
470,295	2,64
470,79	2,43
471,285	2,47
471,78	2,49
472,274	2,48
472,769	2,58
473,263	2,47
473,758	2,37
474,252	2,29
474,746	2,39
475,24	2,36
475,734	2,47
476,228	2,51
476,721	2,36
477,215	2,56
477,708	2,56
478,202	2,49
478,695	2,36
479,188	2,33
479,681	2,37
480,174	2,35
480,667	2,34
481,159	2,51
481,652	2,62
482,144	2,4
482,637	2,45
483,129	2,39
483,621	2,45
484,113	2,4
484,605	2,39
485,097	2,52
485,588	2,43
486,08	2,45
486,571	2,54
487,063	2,46
487,554	2,48
488,045	2,47
488,536	2,68
489,027	2,47
489,518	2,58
490,008	2,49
490,499	2,59
490,989	2,54
491,48	2,74
491,97	2,82
492,46	2,7
492,95	2,7
493,44	2,8
493,93	2,77
494,419	2,81
494,909	2,88
495,398	2,84
495,888	2,84
496,377	2,84
496,866	2,92
497,355	2,82
497,844	2,98
498,333	3,06
498,821	3,06
499,31	3,12
499,798	3,13
500,287	3,25
500,775	3,28
501,263	3,47
501,751	3,54
502,239	3,53
502,727	3,53
503,215	3,56
503,702	3,67
504,19	3,78
504,677	3,68
505,164	4,07
505,651	4,07
506,139	3,97
506,625	4,28
507,112	4,28
507,599	4,46
508,086	4,43
508,572	4,68
509,058	4,6
509,545	4,71
510,031	4,95
510,517	5,11
511,003	5,18
511,489	5,25
511,974	5,48
512,46	5,47
512,946	5,81
513,431	5,85
513,916	5,94
514,401	6,05
514,887	6,39
515,371	6,67
515,856	6,61
516,341	6,76
516,826	6,86
517,31	7,13
517,795	7,26
518,279	7,44
518,763	7,57
519,247	7,93
519,731	7,9
520,215	8,09
520,699	8,56
521,182	8,5
521,666	8,77
522,149	8,94
522,633	9,19
523,116	9,2
523,599	9,34
524,082	9,79
524,565	9,77
525,048	9,98
525,53	10,02
526,013	10,24
526,495	10,64
526,978	10,5
527,46	10,8
527,942	10,81
528,424	10,9
528,906	11,34
529,388	11,18
529,87	11,44
530,351	11,42
530,833	11,51
531,314	11,86
531,795	11,66
532,277	11,97
532,758	11,93
533,238	12,14
533,719	12,18
534,2	12,03
534,681	12,4
535,161	12,34
535,642	12,59
536,122	12,67
536,602	12,5
537,082	12,52
537,562	12,54
538,042	12,73
538,522	12,64
539,001	12,7
539,481	12,77
539,96	12,98
540,44	12,92
540,919	12,83
541,398	12,98
541,877	12,94
542,356	12,98
542,835	13,04
543,313	13,11
543,792	13,08
544,27	12,98
544,749	13,18
545,227	13,25
545,705	13,18
546,183	13,28
546,661	13,17
547,139	13,24
547,616	13,25
548,094	13,23
548,571	13,28
549,049	13,11
549,526	13,35
550,003	13,39
550,48	13,35
550,957	13,48
551,434	13,33
551,911	13,44
552,387	13,53
552,864	13,22
553,34	13,31
553,817	13,41
554,293	13,42
554,769	13,59
555,245	13,48
555,721	13,55
556,197	13,49
556,672	13,5
557,148	13,36
557,623	13,43
558,099	13,37
558,574	13,28
559,049	13,39
559,524	13,12
559,999	13,36
560,474	13,21
560,948	13,05
561,423	13,06
561,897	12,96
562,372	12,99
562,846	12,88
563,32	12,76
563,794	12,77
564,268	12,71
564,742	12,64
565,216	12,54
565,69	12,43
566,163	12,47
566,636	12,2
567,11	12,4
567,583	12,34
568,056	12,13
568,529	11,96
569,002	11,87
569,475	11,75
569,947	11,58
570,42	11,61
570,892	11,37
571,365	11,36
571,837	11,24
572,309	11,1
572,781	11,07
573,253	11,17
573,725	10,81
574,197	10,67
574,668	10,67
575,14	10,49
575,611	10,42
576,082	10,18
576,554	10,4
577,025	10,24
577,496	10,14
577,967	10,03
578,437	9,91
578,908	9,84
579,379	9,83
579,849	9,58
580,319	9,63
580,79	9,53
581,26	9,55
581,73	9,36
582,2	9,39
582,669	9,24
583,139	9,2
583,609	9,21
584,078	9,1
584,548	9,03
585,017	9,05
585,486	8,9
585,955	8,93
586,424	8,8
586,893	8,83
587,362	8,71
587,83	8,64
588,299	8,54
588,767	8,43
589,236	8,67
589,704	8,54
590,172	8,48
590,64	8,37
591,108	8,45
591,576	8,3
592,043	8,28
592,511	8,22
592,978	8,35
593,446	8,23
593,913	8,2
594,38	8,06
594,847	8,15
595,314	7,97
595,781	8,21
596,248	8,03
596,715	8,04
597,181	8,13
597,647	7,94
598,114	7,88
598,58	8,01
599,046	7,91
599,512	7,99
599,978	7,81
600,444	7,85
600,91	7,8
601,375	7,87
601,841	7,78
602,306	7,68
602,771	7,77
603,236	7,69
603,702	7,66
604,167	7,68
604,631	7,63
605,096	7,62
605,561	7,45
606,025	7,43
606,49	7,42
606,954	7,42
607,418	7,29
607,882	7,35
608,347	7,28
608,81	7,24
609,274	7,07
609,738	7,09
610,202	7,14
610,665	6,93
611,128	6,96
611,592	6,87
612,055	6,81
612,518	6,79
612,981	6,74
613,444	6,7
613,907	6,6
614,369	6,54
614,832	6,53
615,294	6,42
615,757	6,4
616,219	6,33
616,681	6,31
617,143	6,37
617,605	6,16
618,067	6,33
618,529	6,09
618,99	6,03
619,452	6,06
619,913	6,01
620,375	5,99
620,836	6,03
621,297	5,92
621,758	5,91
622,219	5,79
622,68	5,74
623,14	5,89
623,601	5,75
624,061	5,74
624,522	5,69
624,982	5,68
625,442	5,75
625,902	5,7
626,362	5,65
626,822	5,64
627,282	5,68
627,742	5,71
628,201	5,63
628,661	5,63
629,12	5,62
629,579	5,63
630,038	5,63
630,497	5,65
630,956	5,61
631,415	5,59
631,874	5,53
632,332	5,59
632,791	5,54
633,249	5,52
633,708	5,51
634,166	5,54
634,624	5,51
635,082	5,38
635,54	5,46
635,998	5,35
636,455	5,24
636,913	5,27
637,37	5,17
637,828	5,2
638,285	5,1
638,742	5,02
639,199	4,9
639,656	4,96
640,113	4,94
640,57	4,86
641,027	4,76
641,483	4,73
641,94	4,63
642,396	4,59
642,852	4,45
643,309	4,46
643,765	4,39
644,221	4,33
644,676	4,26
645,132	4,25
645,588	4,12
646,043	4
646,499	4
646,954	4
647,409	3,93
647,864	3,88
648,319	3,78
648,774	3,76
649,229	3,67
649,684	3,6
650,139	3,53
650,593	3,57
651,047	3,56
651,502	3,52
651,956	3,5
652,41	3,46
652,864	3,41
653,318	3,45
653,772	3,32
654,225	3,42
654,679	3,32
655,133	3,36
655,586	3,31
656,039	3,28
656,492	3,23
656,946	3,22
657,399	3,18
657,851	3,13
658,304	3,08
658,757	3,09
659,209	3
659,662	2,96
660,114	2,93
660,567	2,91
661,019	2,87
661,471	2,79
661,923	2,79
662,375	2,74
662,826	2,68
663,278	2,69
663,73	2,65
664,181	2,72
664,632	2,59
665,084	2,55
665,535	2,53
665,986	2,56
666,437	2,52
666,888	2,53
667,338	2,56
667,789	2,52
668,24	2,54
668,69	2,53
669,14	2,52
669,591	2,53
670,041	2,53
670,491	2,55
670,941	2,58
671,391	2,61
671,84	2,57
672,29	2,66
672,74	2,64
673,189	2,69
673,638	2,69
674,088	2,78
674,537	2,82
674,986	2,85
675,435	2,87
675,883	2,91
676,332	3
676,781	3,14
677,229	3,12
677,678	3,16
678,126	3,2
678,574	3,25
679,022	3,31
679,47	3,42
679,918	3,45
680,366	3,47
680,814	3,53
681,261	3,61
681,709	3,73
682,156	3,79
682,604	3,86
683,051	3,9
683,498	4,03
683,945	3,98
684,392	4,13
684,839	4,14
685,286	4,23
685,732	4,31
686,179	4,41
686,625	4,47
687,071	4,58
687,518	4,64
687,964	4,73
688,41	4,82
688,856	5
689,301	5,11
689,747	5,28
690,193	5,47
690,638	5,57
691,084	5,93
691,529	6,05
691,974	6,26
692,419	6,51
692,864	6,79
693,309	7,12
693,754	7,33
694,199	7,67
694,643	7,89
695,088	8,24
695,532	8,55
695,977	8,83
696,421	9,16
696,865	9,36
697,309	9,83
697,753	10,17
698,197	10,4
698,64	10,69
699,084	11,04
699,527	11,4
699,971	11,61
700,414	12,05
700,857	12,26
701,3	12,64
701,743	12,85
702,186	13,28
702,629	13,55
703,072	13,8
703,515	14,04
703,957	14,26
704,399	14,68
704,842	14,99
705,284	15,1
705,726	15,35
706,168	15,73
706,61	16,07
707,052	16,18
707,494	16,34
707,935	16,74
708,377	16,94
708,818	17,18
709,26	17,41
709,701	17,66
710,142	17,73
710,583	18,15
711,024	18,25
711,465	18,47
711,905	18,68
712,346	18,96
712,787	19,13
713,227	19,38
713,667	19,6
714,108	19,8
714,548	19,81
714,988	19,96
715,428	20,36
715,868	20,46
716,307	20,56
716,747	20,81
717,186	21,11
717,626	21,34
718,065	21,46
718,504	21,54
718,944	21,87
719,383	21,78
719,822	21,98
720,261	22,12
720,699	22,35
721,138	22,49
721,576	22,51
722,015	22,81
722,453	22,88
722,892	22,98
723,33	23,08
723,768	23,44
724,206	23,42
724,644	23,46
725,081	23,59
725,519	23,66
725,957	23,82
726,394	23,98
726,832	24,07
727,269	24,17
727,706	24,18
728,143	24,21
728,58	24,43
729,017	24,39
729,454	24,61
729,89	24,74
730,327	24,63
730,764	24,67
731,2	24,85
731,636	24,86
732,072	24,9
732,509	25,09
732,945	25,11
733,38	25,18
733,816	25,24
734,252	25,22
734,688	25,24
735,123	25,41
735,559	25,48
735,994	25,37
736,429	25,61
736,864	25,52
737,299	25,36
737,734	25,47
738,169	25,57
738,604	25,55
739,038	25,55
739,473	25,52
739,907	25,61
740,342	25,64
740,776	25,66
741,21	25,78
741,644	25,76
742,078	25,71
742,512	25,73
742,946	25,63
743,379	25,67
743,813	25,79
744,246	25,67
744,68	25,8
745,113	25,72
745,546	25,64
745,979	25,66
746,412	25,67
746,845	25,64
747,278	25,83
747,711	25,7
748,143	25,63
748,576	25,53
749,008	25,53
749,441	25,52
749,873	25,61
750,305	25,48
750,737	25,55
751,169	25,47
751,601	25,56
752,032	25,55
752,464	25,66
752,896	25,55
753,327	25,57
753,758	25,37
754,19	25,5
754,621	25,3
755,052	25,44
755,483	25,23
755,914	25,36
756,344	25,43
756,775	25,22
757,206	25,44
757,636	25,4
758,066	25,23
758,497	25,36
758,927	25,23
759,357	25,33
759,787	25,28
760,217	25,24
760,647	25,1
761,076	25,28
761,506	25,18
761,935	25,06
762,365	25,28
762,794	25,25
763,223	25,13
763,653	25,09
764,082	25,08
764,51	25,13
764,939	24,97
765,368	24,94
765,797	25,06
766,225	24,92
766,654	24,86
767,082	24,99
767,51	24,97
767,938	24,92
768,367	24,92
768,795	24,87
769,222	24,97
769,65	24,87
770,078	24,97
770,505	24,66
770,933	24,94
771,36	24,84
771,788	24,77
772,215	24,96
772,642	24,69
773,069	24,78
773,496	24,73
773,923	24,78
774,349	24,69
774,776	24,82
775,203	24,77
775,629	24,81
776,055	24,76
776,482	24,82
776,908	24,74
777,334	24,61
777,76	24,76
778,186	24,71
778,611	24,69
779,037	24,77
779,463	24,44
779,888	24,52
780,314	24,43
780,739	24,63
781,164	24,61
781,589	24,6
782,014	24,41
782,439	24,54
782,864	24,43
783,289	24,67
783,713	24,51
784,138	24,38
784,562	24,48
784,987	24,55
785,411	24,47
785,835	24,39
786,259	24,7
786,683	24,64
787,107	24,39
787,531	24,28
787,954	24,41
788,378	24,6
788,802	24,55
789,225	24,49
789,648	24,49
790,071	24,53
790,495	24,46
790,918	24,4
791,34	24,5
791,763	24,35
792,186	24,42
792,609	24,3
793,031	24,36
793,454	24,45
793,876	24,34
794,298	24,48
794,721	24,33
795,143	24,4
795,565	24,43
795,986	24,42
796,408	24,26
796,83	24,35
797,252	24,38
797,673	24,54
798,094	24,28
798,516	24,25
798,937	24,38
799,358	24,38
799,779	24,34
800,2	24,26
800,621	24,3
801,042	24,11
801,462	24,38
801,883	24,29
802,303	24,3
802,724	24,29
803,144	24,43
803,564	24,28
803,984	24,39
804,404	24,24
804,824	24,31
805,244	24,3
805,664	24,45
806,084	24,2
806,503	24,31
806,923	24,35
807,342	24,24
807,761	24,22
808,18	24,46
808,599	24,28
809,018	24,27
809,437	24,23
809,856	24,13
810,275	24,28
810,693	24,23
811,112	24,28
811,53	24,17
811,949	24,47
812,367	24,08
812,785	24,36
813,203	24,23
813,621	24,29
814,039	24,28
814,457	24,18
814,874	24,08
815,292	24,35
815,709	24,13
816,127	24,26
816,544	24,25
816,961	24,05
817,378	24,35
817,795	24,11
818,212	24,2
818,629	24,27
819,046	24,25
819,462	24,13
819,879	24,26
820,295	24,14
820,712	24,03
821,128	24,21
821,544	24,01
821,96	24,26
822,376	24,15
822,792	24,09
823,208	24,05
823,624	24,15
824,039	24,13
824,455	24,14
824,87	24,14
825,286	23,92
825,701	24,26
826,116	23,98
826,531	24,23
826,946	24,13
827,361	24,08
827,776	24,03
828,19	24,06
828,605	24,04
829,02	24,06
829,434	24,18
829,848	24,31
830,263	24,11
830,677	24,11
831,091	24,1
831,505	24,03
831,919	24,07
832,332	24,11
832,746	24,08
833,16	24,06
833,573	24,18
833,987	24,16
834,4	24,1
834,813	24,05
835,226	23,96
835,639	24,1
836,052	24,04
836,465	23,92
836,878	24,1
837,29	24,05
837,703	23,97
838,116	24,07
838,528	24,01
838,94	24,15
839,352	23,99
839,765	23,98
840,177	23,94
840,589	24,16
841	23,99
841,412	23,92
841,824	23,95
842,235	23,81
842,647	23,96
843,058	23,95
843,47	23,99
843,881	23,92
844,292	23,81
844,703	23,94
845,114	24
845,525	24,01
845,935	24,07
846,346	23,94
846,757	24,03
847,167	24,09
847,577	24,15
847,988	24,1
848,398	23,99
