Data from D5__Relative__9__00064.txt Node

Date: Tue Jan 30 17:56:21 CET 2024
User: diatiterra
Spectrometer: HDX00911
Trigger mode: 0
Integration Time (sec): 6,000000E-3
Scans to average: 3
Nonlinearity correction enabled: true
Boxcar width: 0
Storing dark spectrum: false
XAxis mode: Wavelengths
Number of Pixels in Spectrum: 2068
>>>>>Begin Spectral Data<<<<<
194,468	87,82
195,025	59,49
195,581	70,11
196,138	57,22
196,694	64,35
197,251	49,19
197,807	51,26
198,363	46,75
198,919	52,18
199,474	51,04
200,03	51,15
200,586	46,86
201,141	45,94
201,696	43,94
202,251	47,04
202,806	51,12
203,361	49,05
203,916	45,57
204,471	51,13
205,025	49,18
205,58	50,91
206,134	46,41
206,688	47,58
207,242	45,37
207,796	46,54
208,35	47,09
208,904	47,91
209,457	47,24
210,011	50,84
210,564	47,32
211,117	50,41
211,67	50,66
212,223	51,82
212,776	47,06
213,329	52,79
213,881	48,63
214,434	43,22
214,986	45,82
215,538	50,4
216,09	47,05
216,642	49,17
217,194	43,41
217,746	48,32
218,297	43,82
218,849	53,86
219,4	50,1
219,951	45,66
220,502	49,07
221,053	42,64
221,604	46,07
222,155	43,94
222,705	46,15
223,256	42,15
223,806	46,2
224,356	50,21
224,906	44,8
225,456	45,62
226,006	49,31
226,556	41,98
227,106	49,15
227,655	44,49
228,204	47,17
228,754	45,81
229,303	48,38
229,852	44,78
230,401	50,42
230,949	44,83
231,498	44,43
232,047	51,43
232,595	42,83
233,143	47,88
233,691	42,93
234,239	44,76
234,787	42,94
235,335	43,24
235,883	48,23
236,43	45,75
236,978	43,49
237,525	42,3
238,072	43,51
238,619	45
239,166	44,74
239,713	43,4
240,26	45,61
240,806	44,69
241,353	45,77
241,899	49,41
242,445	43,76
242,991	46,19
243,537	46,72
244,083	45,23
244,629	48,28
245,174	46,83
245,72	38,59
246,265	43,96
246,81	50,78
247,355	41,68
247,9	44,44
248,445	45,08
248,99	49,57
249,534	44,64
250,079	49,12
250,623	47,09
251,168	43,18
251,712	45,22
252,256	36,35
252,8	47,23
253,343	50,52
253,887	41,3
254,43	47
254,974	49,12
255,517	42,29
256,06	44,45
256,603	48,19
257,146	47,28
257,689	45,31
258,232	46,1
258,774	51,5
259,317	51,98
259,859	48,83
260,401	54,14
260,943	48,94
261,485	46,25
262,027	48
262,569	46,84
263,11	45,99
263,652	48,27
264,193	46,91
264,734	48,83
265,275	39,95
265,816	42,08
266,357	48,33
266,898	43,51
267,438	45,74
267,979	53,3
268,519	45,6
269,059	44,86
269,6	48
270,14	46,25
270,68	44,12
271,219	44,88
271,759	46,71
272,298	45,14
272,838	53,6
273,377	45,08
273,916	45,37
274,455	47,71
274,994	53,65
275,533	51,78
276,072	51,32
276,61	48,2
277,149	43,31
277,687	49,78
278,225	45
278,763	52,59
279,301	41,85
279,839	44,32
280,377	43,17
280,914	46,61
281,452	50,23
281,989	47,66
282,526	49,49
283,064	51,62
283,601	51,19
284,137	47,78
284,674	47,89
285,211	50,68
285,747	50,54
286,284	50,46
286,82	47,55
287,356	52,4
287,892	45,03
288,428	43,83
288,964	48,75
289,5	45,67
290,035	47,99
290,571	44,04
291,106	47,27
291,641	43,9
292,176	51,77
292,711	47,73
293,246	50,21
293,781	48,77
294,315	43,04
294,85	53,93
295,384	50,48
295,918	45,35
296,453	45,3
296,987	45,18
297,52	43,71
298,054	45,61
298,588	50,71
299,121	46,16
299,655	42,7
300,188	43,89
300,721	48,24
301,254	49,89
301,787	46,61
302,32	53,9
302,853	45,82
303,385	45,56
303,918	48,33
304,45	45,57
304,982	49,1
305,514	44,95
306,046	47,79
306,578	48,49
307,11	47,46
307,641	49,33
308,173	48,59
308,704	53,36
309,236	43,63
309,767	48,72
310,298	44,25
310,829	49,11
311,359	50,41
311,89	43,82
312,421	47,27
312,951	48,9
313,481	47,03
314,012	46,95
314,542	45,08
315,072	49,9
315,601	43,61
316,131	48,21
316,661	44,64
317,19	48,1
317,72	44,9
318,249	48,19
318,778	45,04
319,307	46,86
319,836	48,1
320,365	45,57
320,893	48,35
321,422	51,09
321,95	46,28
322,479	50,45
323,007	44,65
323,535	44,75
324,063	39,07
324,591	47,96
325,118	48,73
325,646	45,51
326,173	47,63
326,701	44,23
327,228	50,22
327,755	49,29
328,282	46,79
328,809	45,61
329,336	45,93
329,862	48,04
330,389	45,86
330,915	52,11
331,441	47,57
331,968	47,54
332,494	46,05
333,02	48,17
333,545	48,16
334,071	47,56
334,597	45,3
335,122	45,3
335,648	48,54
336,173	43,95
336,698	43,94
337,223	48,15
337,748	41,82
338,272	44,31
338,797	46,27
339,322	47,06
339,846	47,64
340,37	48,21
340,894	45,3
341,419	48,22
341,942	45,49
342,466	41,15
342,99	45,71
343,514	44,37
344,037	46,82
344,56	46,13
345,084	41,59
345,607	45,44
346,13	44,3
346,653	43,31
347,175	41,81
347,698	47,04
348,221	39,54
348,743	40,69
349,265	42,34
349,787	44,19
350,309	40,87
350,831	42,5
351,353	40,47
351,875	40,31
352,397	37,59
352,918	41,27
353,439	42,19
353,961	44,61
354,482	36,79
355,003	34,76
355,524	36,69
356,044	38,72
356,565	35,64
357,086	36,95
357,606	36,93
358,126	36,97
358,646	39,05
359,167	39,93
359,687	38,45
360,206	37,66
360,726	38,24
361,246	34,24
361,765	35,91
362,285	34,75
362,804	36,62
363,323	37,8
363,842	38,23
364,361	36,99
364,88	37,19
365,398	34,03
365,917	37,89
366,435	33,52
366,954	32,49
367,472	30,01
367,99	36,35
368,508	32,96
369,026	32,03
369,544	36,4
370,061	35,34
370,579	30,44
371,096	33,44
371,613	33,96
372,131	33,75
372,648	33,36
373,165	28,85
373,681	31,89
374,198	30,14
374,715	32,3
375,231	30,68
375,747	32,27
376,264	28,5
376,78	31,16
377,296	30,42
377,812	31,64
378,327	30,5
378,843	29,12
379,359	29,15
379,874	30,09
380,389	28,78
380,905	30,41
381,42	27,8
381,935	29,78
382,449	26,44
382,964	28,08
383,479	26,88
383,993	27,2
384,508	27,14
385,022	25,29
385,536	26,67
386,05	25,63
386,564	25,57
387,078	26,21
387,592	24,44
388,105	24,2
388,619	25,03
389,132	24,12
389,645	23,3
390,158	22,61
390,671	21,89
391,184	21,31
391,697	20,59
392,21	22,25
392,722	21,91
393,235	22,61
393,747	21,81
394,259	20,97
394,771	22,49
395,283	21,13
395,795	19,95
396,307	22,72
396,818	20,59
397,33	20,11
397,841	18,87
398,353	18,59
398,864	19,9
399,375	18,94
399,886	17,7
400,397	17,81
400,907	17,51
401,418	17,75
401,928	17,37
402,439	17,06
402,949	16,62
403,459	16,52
403,969	17,21
404,479	14,52
404,989	14,16
405,498	14,92
406,008	14,25
406,517	13,72
407,027	13,14
407,536	12,56
408,045	11,93
408,554	12,2
409,063	11,74
409,572	11,44
410,08	11,29
410,589	10,95
411,097	11,01
411,606	10,26
412,114	9,73
412,622	9,62
413,13	9,53
413,638	9,47
414,145	8,65
414,653	8,58
415,16	7,87
415,668	7,91
416,175	8,2
416,682	7,32
417,189	7,9
417,696	7,17
418,203	7,76
418,71	7,19
419,216	7,51
419,723	6,94
420,229	6,7
420,735	6,82
421,242	7,19
421,748	6,46
422,254	6,32
422,759	6,72
423,265	6,31
423,771	6,51
424,276	6,38
424,781	6,25
425,287	6,22
425,792	6,13
426,297	5,89
426,802	5,86
427,306	6,27
427,811	5,83
428,316	6,11
428,82	6
429,324	6
429,829	5,41
430,333	5,65
430,837	5,47
431,34	5,5
431,844	5,67
432,348	5,6
432,851	5,55
433,355	5,64
433,858	5,27
434,361	5,63
434,864	5,35
435,367	5,18
435,87	5,09
436,373	5,32
436,876	5,12
437,378	5,41
437,88	5,08
438,383	5,31
438,885	5,12
439,387	5,31
439,889	5,48
440,391	5,28
440,892	5,16
441,394	5,2
441,896	5,19
442,397	5,4
442,898	5,04
443,399	5,18
443,9	5,12
444,401	5,3
444,902	5,01
445,403	5,15
445,903	5,24
446,404	5,19
446,904	5,17
447,405	5,16
447,905	5,25
448,405	5,58
448,905	5,24
449,404	5,21
449,904	5,24
450,404	5,2
450,903	5,43
451,403	5,35
451,902	5,55
452,401	5,25
452,9	5,42
453,399	5,28
453,898	5,41
454,396	5,41
454,895	5,36
455,393	5,21
455,892	5,54
456,39	5,43
456,888	5,6
457,386	5,52
457,884	5,71
458,382	5,47
458,879	5,33
459,377	5,6
459,874	5,65
460,372	5,5
460,869	5,56
461,366	5,57
461,863	5,48
462,36	5,41
462,857	5,57
463,353	5,47
463,85	5,49
464,346	5,46
464,843	5,64
465,339	5,66
465,835	5,48
466,331	5,63
466,827	5,48
467,323	5,59
467,818	5,44
468,314	5,27
468,809	5,49
469,305	5,51
469,8	5,3
470,295	5,65
470,79	5,51
471,285	5,34
471,78	5,55
472,274	5,6
472,769	5,48
473,263	5,43
473,758	5,52
474,252	5,47
474,746	5,39
475,24	5,4
475,734	5,63
476,228	5,62
476,721	5,57
477,215	5,41
477,708	5,56
478,202	5,73
478,695	5,47
479,188	5,54
479,681	5,43
480,174	5,61
480,667	5,66
481,159	5,54
481,652	5,67
482,144	5,35
482,637	5,77
483,129	5,61
483,621	5,69
484,113	5,69
484,605	5,56
485,097	5,67
485,588	5,68
486,08	5,62
486,571	5,75
487,063	5,76
487,554	5,81
488,045	5,79
488,536	5,86
489,027	5,73
489,518	5,81
490,008	5,81
490,499	5,83
490,989	5,87
491,48	5,98
491,97	5,77
492,46	5,85
492,95	5,95
493,44	6,06
493,93	6,16
494,419	6,13
494,909	6,3
495,398	6,15
495,888	6,14
496,377	6,27
496,866	6,25
497,355	6,59
497,844	6,5
498,333	6,31
498,821	6,56
499,31	6,6
499,798	6,63
500,287	6,79
500,775	6,86
501,263	6,93
501,751	7,04
502,239	7,13
502,727	7,26
503,215	7,27
503,702	7,24
504,19	7,43
504,677	7,59
505,164	7,74
505,651	7,7
506,139	7,8
506,625	8,11
507,112	8,12
507,599	8,32
508,086	8,41
508,572	8,71
509,058	8,74
509,545	8,88
510,031	8,92
510,517	9,23
511,003	9,21
511,489	9,38
511,974	9,67
512,46	9,76
512,946	10,11
513,431	10,35
513,916	10,13
514,401	10,6
514,887	10,93
515,371	10,99
515,856	11,28
516,341	11,46
516,826	11,44
517,31	11,9
517,795	11,98
518,279	12,31
518,763	12,52
519,247	12,61
519,731	12,87
520,215	13,13
520,699	13,36
521,182	13,55
521,666	13,88
522,149	14,04
522,633	14,3
523,116	14,2
523,599	14,63
524,082	14,81
524,565	15,41
525,048	15,19
525,53	15,55
526,013	15,8
526,495	16,06
526,978	15,97
527,46	16,25
527,942	16,62
528,424	16,54
528,906	16,83
529,388	16,81
529,87	17,14
530,351	17,08
530,833	17,07
531,314	17,44
531,795	17,56
532,277	17,55
532,758	17,86
533,238	17,67
533,719	17,92
534,2	17,97
534,681	17,97
535,161	18,25
535,642	18,3
536,122	18,25
536,602	18,35
537,082	18,56
537,562	18,64
538,042	18,66
538,522	18,37
539,001	18,68
539,481	18,68
539,96	18,82
540,44	18,61
540,919	18,85
541,398	18,74
541,877	18,94
542,356	18,92
542,835	18,94
543,313	18,9
543,792	19,06
544,27	18,98
544,749	19,28
545,227	19,25
545,705	19,09
546,183	19,27
546,661	19,12
547,139	19,22
547,616	19,25
548,094	19,21
548,571	19,27
549,049	19,23
549,526	19,36
550,003	19,3
550,48	19,34
550,957	19,62
551,434	19,45
551,911	19,36
552,387	19,31
552,864	19,44
553,34	19,31
553,817	19,73
554,293	19,62
554,769	19,73
555,245	19,5
555,721	19,46
556,197	19,36
556,672	19,51
557,148	19,67
557,623	19,39
558,099	19,49
558,574	19,35
559,049	19,38
559,524	19,29
559,999	19,34
560,474	19,39
560,948	18,97
561,423	19,13
561,897	19,12
562,372	18,84
562,846	18,9
563,32	18,65
563,794	18,77
564,268	18,57
564,742	18,52
565,216	18,29
565,69	18,33
566,163	18,44
566,636	18,07
567,11	18,17
567,583	17,76
568,056	17,89
568,529	17,76
569,002	17,61
569,475	17,62
569,947	17,37
570,42	17,36
570,892	17,13
571,365	16,96
571,837	16,9
572,309	16,75
572,781	16,65
573,253	16,63
573,725	16,45
574,197	16,31
574,668	16,3
575,14	16,16
575,611	15,79
576,082	15,78
576,554	15,79
577,025	15,78
577,496	15,45
577,967	15,52
578,437	15,34
578,908	15,24
579,379	15,18
579,849	15,06
580,319	15,04
580,79	14,95
581,26	15
581,73	14,61
582,2	14,51
582,669	14,43
583,139	14,58
583,609	14,37
584,078	14,33
584,548	14,18
585,017	14,16
585,486	14,11
585,955	13,85
586,424	13,78
586,893	13,95
587,362	13,93
587,83	13,79
588,299	13,55
588,767	13,67
589,236	13,62
589,704	13,4
590,172	13,53
590,64	13,44
591,108	13,39
591,576	13,4
592,043	13,3
592,511	13,25
592,978	13,1
593,446	13,24
593,913	13,09
594,38	13,09
594,847	13,06
595,314	13,11
595,781	13,08
596,248	13,05
596,715	12,78
597,181	12,86
597,647	12,88
598,114	12,93
598,58	12,88
599,046	12,92
599,512	12,93
599,978	12,71
600,444	12,78
600,91	12,83
601,375	12,57
601,841	12,69
602,306	12,65
602,771	12,68
603,236	12,59
603,702	12,54
604,167	12,49
604,631	12,45
605,096	12,51
605,561	12,25
606,025	12,22
606,49	12,3
606,954	12,14
607,418	12,19
607,882	11,96
608,347	12,12
608,81	11,96
609,274	11,67
609,738	11,85
610,202	11,72
610,665	11,78
611,128	11,78
611,592	11,67
612,055	11,44
612,518	11,54
612,981	11,26
613,444	11,27
613,907	11,2
614,369	11,28
614,832	11,23
615,294	10,87
615,757	11,01
616,219	10,9
616,681	10,86
617,143	10,9
617,605	10,81
618,067	10,88
618,529	10,6
618,99	10,65
619,452	10,54
619,913	10,54
620,375	10,43
620,836	10,33
621,297	10,51
621,758	10,26
622,219	10,28
622,68	10,33
623,14	10,25
623,601	10,2
624,061	10,18
624,522	10,13
624,982	10,15
625,442	10,07
625,902	10,06
626,362	10
626,822	10,06
627,282	10,04
627,742	10,05
628,201	10
628,661	9,97
629,12	9,85
629,579	9,92
630,038	9,95
630,497	9,93
630,956	10
631,415	9,9
631,874	9,81
632,332	9,83
632,791	9,85
633,249	9,89
633,708	9,8
634,166	9,75
634,624	9,72
635,082	9,6
635,54	9,63
635,998	9,46
636,455	9,56
636,913	9,36
637,37	9,35
637,828	9,26
638,285	9,14
638,742	9,15
639,199	9,04
639,656	8,9
640,113	8,88
640,57	8,92
641,027	8,77
641,483	8,64
641,94	8,47
642,396	8,46
642,852	8,39
643,309	8,34
643,765	8,28
644,221	8,25
644,676	8,12
645,132	8,07
645,588	7,89
646,043	7,7
646,499	7,85
646,954	7,7
647,409	7,61
647,864	7,47
648,319	7,38
648,774	7,39
649,229	7,36
649,684	7,31
650,139	7,17
650,593	7,2
651,047	7,11
651,502	7,1
651,956	7,03
652,41	6,94
652,864	6,95
653,318	6,91
653,772	6,91
654,225	6,91
654,679	6,84
655,133	6,83
655,586	6,72
656,039	6,84
656,492	6,68
656,946	6,67
657,399	6,67
657,851	6,66
658,304	6,59
658,757	6,36
659,209	6,34
659,662	6,32
660,114	6,29
660,567	6,22
661,019	6,15
661,471	6,07
661,923	6,08
662,375	5,94
662,826	6
663,278	5,87
663,73	5,8
664,181	5,82
664,632	5,78
665,084	5,74
665,535	5,72
665,986	5,62
666,437	5,71
666,888	5,52
667,338	5,65
667,789	5,58
668,24	5,56
668,69	5,6
669,14	5,52
669,591	5,53
670,041	5,56
670,491	5,54
670,941	5,56
671,391	5,56
671,84	5,57
672,29	5,6
672,74	5,64
673,189	5,63
673,638	5,62
674,088	5,73
674,537	5,71
674,986	5,75
675,435	5,86
675,883	5,92
676,332	5,96
676,781	5,99
677,229	6,1
677,678	6,09
678,126	6,22
678,574	6,26
679,022	6,24
679,47	6,31
679,918	6,44
680,366	6,49
680,814	6,59
681,261	6,56
681,709	6,68
682,156	6,77
682,604	6,86
683,051	6,94
683,498	7,06
683,945	7,11
684,392	7,24
684,839	7,38
685,286	7,45
685,732	7,49
686,179	7,57
686,625	7,72
687,071	7,92
687,518	8,02
687,964	8,1
688,41	8,46
688,856	8,61
689,301	8,7
689,747	8,85
690,193	9,22
690,638	9,53
691,084	9,84
691,529	10,03
691,974	10,3
692,419	10,67
692,864	10,98
693,309	11,39
693,754	11,72
694,199	12,08
694,643	12,39
695,088	12,81
695,532	13,19
695,977	13,61
696,421	13,89
696,865	14,3
697,309	14,81
697,753	15,19
698,197	15,54
698,64	15,91
699,084	16,29
699,527	16,73
699,971	17,2
700,414	17,47
700,857	17,96
701,3	18,32
701,743	18,61
702,186	19,1
702,629	19,42
703,072	19,58
703,515	20,16
703,957	20,47
704,399	20,78
704,842	21,17
705,284	21,48
705,726	21,8
706,168	22,18
706,61	22,58
707,052	22,73
707,494	22,9
707,935	23,38
708,377	23,74
708,818	24,02
709,26	24,27
709,701	24,57
710,142	24,81
710,583	25,01
711,024	25,4
711,465	25,69
711,905	25,82
712,346	26,1
712,787	26,27
713,227	26,52
713,667	27,07
714,108	27,24
714,548	27,29
714,988	27,58
715,428	27,87
715,868	28,03
716,307	28,17
716,747	28,63
717,186	28,8
717,626	28,86
718,065	29,19
718,504	29,15
718,944	29,56
719,383	29,75
719,822	29,96
720,261	30,02
720,699	30,24
721,138	30,43
721,576	30,6
722,015	30,8
722,453	31,05
722,892	31,01
723,33	31,52
723,768	31,58
724,206	31,56
724,644	31,76
725,081	32,04
725,519	32,02
725,957	31,95
726,394	32,34
726,832	32,35
727,269	32,58
727,706	32,52
728,143	32,77
728,58	32,8
729,017	32,96
729,454	33,15
729,89	33,28
730,327	33,37
730,764	33,4
731,2	33,47
731,636	33,58
732,072	33,72
732,509	33,65
732,945	33,75
733,38	33,78
733,816	33,77
734,252	33,84
734,688	33,85
735,123	33,89
735,559	34,15
735,994	34,2
736,429	34,17
736,864	34,24
737,299	34,12
737,734	34,33
738,169	34,3
738,604	34,46
739,038	34,46
739,473	34,37
739,907	34,35
740,342	34,49
740,776	34,4
741,21	34,55
741,644	34,7
742,078	34,5
742,512	34,67
742,946	34,57
743,379	34,62
743,813	34,59
744,246	34,63
744,68	34,56
745,113	34,49
745,546	34,64
745,979	34,55
746,412	34,91
746,845	34,59
747,278	34,8
747,711	34,69
748,143	34,62
748,576	34,46
749,008	34,31
749,441	34,45
749,873	34,59
750,305	34,34
750,737	34,5
751,169	34,49
751,601	34,52
752,032	34,47
752,464	34,42
752,896	34,43
753,327	34,21
753,758	34,53
754,19	34,35
754,621	34,36
755,052	34,56
755,483	34,48
755,914	34,33
756,344	34,36
756,775	34,3
757,206	34,45
757,636	34,14
758,066	34,21
758,497	34,22
758,927	34,18
759,357	34,18
759,787	34,16
760,217	34,17
760,647	34,18
761,076	34,23
761,506	34,21
761,935	34,06
762,365	33,96
762,794	34,06
763,223	33,92
763,653	34,09
764,082	34,15
764,51	34,02
764,939	34,02
765,368	34,02
765,797	34,21
766,225	34
766,654	33,88
767,082	33,85
767,51	33,89
767,938	34,01
768,367	33,94
768,795	33,88
769,222	33,98
769,65	33,98
770,078	33,92
770,505	33,78
770,933	33,83
771,36	33,73
771,788	33,85
772,215	33,92
772,642	33,69
773,069	33,71
773,496	33,7
773,923	33,73
774,349	33,66
774,776	33,67
775,203	33,49
775,629	33,52
776,055	33,73
776,482	33,75
776,908	33,77
777,334	33,59
777,76	33,62
778,186	33,75
778,611	33,52
779,037	33,67
779,463	33,43
779,888	33,71
780,314	33,48
780,739	33,63
781,164	33,63
781,589	33,49
782,014	33,62
782,439	33,55
782,864	33,4
783,289	33,63
783,713	33,39
784,138	33,41
784,562	33,6
784,987	33,55
785,411	33,59
785,835	33,58
786,259	33,47
786,683	33,53
787,107	33,26
787,531	33,59
787,954	33,33
788,378	33,58
788,802	33,51
789,225	33,38
789,648	33,49
790,071	33,36
790,495	33,2
790,918	33,65
791,34	33,5
791,763	33,4
792,186	33,45
792,609	33,58
793,031	33,45
793,454	33,4
793,876	33,58
794,298	33,48
794,721	33,32
795,143	33,44
795,565	33,29
795,986	33,49
796,408	33,24
796,83	33,32
797,252	33,39
797,673	33,43
798,094	33,3
798,516	33,46
798,937	33,34
799,358	33,26
799,779	33,34
800,2	33,32
800,621	33,41
801,042	33,29
801,462	33,4
801,883	33,36
802,303	33,35
802,724	33,37
803,144	33,36
803,564	33,15
803,984	33,4
804,404	33,34
804,824	33,36
805,244	33,42
805,664	33,33
806,084	33,31
806,503	33,36
806,923	33,45
807,342	33,38
807,761	33,12
808,18	33,31
808,599	33,38
809,018	33,28
809,437	33,42
809,856	33,28
810,275	33,33
810,693	33,21
811,112	33,36
811,53	33,24
811,949	33,26
812,367	33,32
812,785	33,24
813,203	33,29
813,621	33,37
814,039	33,33
814,457	33,15
814,874	33,5
815,292	33,34
815,709	33,27
816,127	33,21
816,544	33,4
816,961	33,18
817,378	33,64
817,795	33,32
818,212	33,27
818,629	33,24
819,046	33,06
819,462	33,34
819,879	33,31
820,295	33,27
820,712	33,09
821,128	33,21
821,544	33,18
821,96	33,31
822,376	33,18
822,792	33,13
823,208	33,19
823,624	33,24
824,039	33,15
824,455	33,1
824,87	33,31
825,286	33,3
825,701	33,18
826,116	33,16
826,531	33,13
826,946	33,28
827,361	33,22
827,776	33,09
828,19	33,19
828,605	33,01
829,02	33,34
829,434	33,13
829,848	33,29
830,263	33,21
830,677	33,25
831,091	33,32
831,505	33,05
831,919	33,3
832,332	32,96
832,746	33,22
833,16	33,18
833,573	33,04
833,987	33,12
834,4	33,12
834,813	33,14
835,226	32,95
835,639	33,05
836,052	33,1
836,465	32,92
836,878	33,18
837,29	33
837,703	33,13
838,116	33,12
838,528	33,15
838,94	33,02
839,352	33
839,765	33,05
840,177	33,24
840,589	33,04
841	33,08
841,412	32,98
841,824	32,96
842,235	33,07
842,647	33,27
843,058	33,2
843,47	33,11
843,881	32,96
