Data from D5__Relative__1__00056.txt Node

Date: Tue Jan 30 17:55:58 CET 2024
User: diatiterra
Spectrometer: HDX00911
Trigger mode: 0
Integration Time (sec): 6,000000E-3
Scans to average: 3
Nonlinearity correction enabled: true
Boxcar width: 0
Storing dark spectrum: false
XAxis mode: Wavelengths
Number of Pixels in Spectrum: 2068
>>>>>Begin Spectral Data<<<<<
194,468	89,61
195,025	72,07
195,581	72,86
196,138	71,3
196,694	70,96
197,251	58,93
197,807	57,36
198,363	57,44
198,919	59,36
199,474	61,29
200,03	56,18
200,586	55,75
201,141	48,78
201,696	53,62
202,251	57,22
202,806	55,19
203,361	56,45
203,916	51,2
204,471	60,41
205,025	52,22
205,58	62,62
206,134	57,81
206,688	57,42
207,242	52,24
207,796	54,67
208,35	56,7
208,904	59,79
209,457	56,54
210,011	64,98
210,564	57,42
211,117	56,76
211,67	63,6
212,223	59,95
212,776	59,87
213,329	61,8
213,881	57,86
214,434	52,38
214,986	58,67
215,538	56,5
216,09	52,53
216,642	59,05
217,194	55,34
217,746	57,11
218,297	54,77
218,849	59,01
219,4	57,5
219,951	60,12
220,502	59,59
221,053	54,44
221,604	53,13
222,155	53,18
222,705	57,59
223,256	54,57
223,806	56,59
224,356	58,99
224,906	51,8
225,456	55,54
226,006	50,28
226,556	52,14
227,106	62,61
227,655	53,42
228,204	53,67
228,754	60,25
229,303	57,25
229,852	58,26
230,401	54,38
230,949	58,05
231,498	53,82
232,047	47,94
232,595	60,39
233,143	59,96
233,691	55,46
234,239	53,64
234,787	57,87
235,335	55,29
235,883	56,19
236,43	57,97
236,978	62,6
237,525	55,44
238,072	54,8
238,619	57,18
239,166	52,46
239,713	51,1
240,26	58,88
240,806	56,11
241,353	56,82
241,899	54,68
242,445	57,08
242,991	58,72
243,537	58,14
244,083	57,8
244,629	61,61
245,174	57,59
245,72	51,38
246,265	59,78
246,81	58,06
247,355	51,4
247,9	56,82
248,445	55,15
248,99	60,22
249,534	55,13
250,079	61,9
250,623	56,91
251,168	55,37
251,712	50,31
252,256	54,95
252,8	59,3
253,343	54,95
253,887	58,1
254,43	63,44
254,974	56,64
255,517	57,28
256,06	56,02
256,603	59,92
257,146	54,47
257,689	57,67
258,232	58,22
258,774	57,08
259,317	54,07
259,859	55,81
260,401	59,51
260,943	60,17
261,485	58,15
262,027	60,67
262,569	52,95
263,11	57,29
263,652	61,67
264,193	55,09
264,734	57,57
265,275	57,17
265,816	58,15
266,357	56,04
266,898	54,76
267,438	59,64
267,979	62,14
268,519	57,93
269,059	60,4
269,6	59,56
270,14	58,55
270,68	57,08
271,219	63,79
271,759	57,02
272,298	55,93
272,838	59,26
273,377	56,19
273,916	53,57
274,455	54,58
274,994	63,8
275,533	54
276,072	59,88
276,61	62,39
277,149	51,59
277,687	54,8
278,225	56,45
278,763	55,73
279,301	56,87
279,839	57,05
280,377	66,38
280,914	55,51
281,452	60,51
281,989	62,93
282,526	54,98
283,064	55,7
283,601	50,97
284,137	56,67
284,674	56,75
285,211	54,31
285,747	62,96
286,284	57,09
286,82	54,66
287,356	57,2
287,892	59,73
288,428	52,42
288,964	58,09
289,5	55,41
290,035	60,77
290,571	58,94
291,106	63,26
291,641	56,79
292,176	56,55
292,711	55,51
293,246	60
293,781	59,96
294,315	57,17
294,85	55,54
295,384	61,52
295,918	47,88
296,453	54,71
296,987	62,74
297,52	55,63
298,054	54,82
298,588	52,83
299,121	58,15
299,655	54,08
300,188	54,58
300,721	53,52
301,254	59,09
301,787	57,63
302,32	63,55
302,853	51,17
303,385	54,22
303,918	56,23
304,45	52,05
304,982	58,87
305,514	54,84
306,046	53,89
306,578	52,59
307,11	54,53
307,641	60,19
308,173	56,38
308,704	61,68
309,236	54,53
309,767	53,4
310,298	54,45
310,829	56,96
311,359	62,03
311,89	54,61
312,421	57,14
312,951	55,73
313,481	60,79
314,012	55,16
314,542	51,86
315,072	60,35
315,601	52,33
316,131	51,35
316,661	58,86
317,19	55,99
317,72	52,6
318,249	49,68
318,778	53,23
319,307	53,14
319,836	57,5
320,365	51,18
320,893	54,29
321,422	52,82
321,95	53,93
322,479	61,34
323,007	51,7
323,535	48,18
324,063	49,34
324,591	56,82
325,118	60,8
325,646	52,3
326,173	57,79
326,701	59,48
327,228	54
327,755	57,99
328,282	51,28
328,809	53,95
329,336	57,25
329,862	52,83
330,389	48,39
330,915	49,67
331,441	52,22
331,968	50,74
332,494	50,7
333,02	53,98
333,545	53,35
334,071	50
334,597	51,56
335,122	54,49
335,648	49,37
336,173	54,58
336,698	49,27
337,223	53,07
337,748	49,79
338,272	46,96
338,797	47,07
339,322	52,08
339,846	50,31
340,37	52,7
340,894	54,7
341,419	49,06
341,942	50,77
342,466	42,42
342,99	53,88
343,514	46,82
344,037	46,45
344,56	49,69
345,084	42,64
345,607	48,47
346,13	47,65
346,653	45,91
347,175	48,08
347,698	50,65
348,221	38,98
348,743	47,23
349,265	46,39
349,787	45,97
350,309	48,19
350,831	49,89
351,353	44,27
351,875	44,8
352,397	41,92
352,918	41,95
353,439	44,96
353,961	44,44
354,482	41,62
355,003	43,34
355,524	43,56
356,044	47,58
356,565	46,06
357,086	47,57
357,606	43,81
358,126	45,99
358,646	45,46
359,167	43,91
359,687	40,69
360,206	35,81
360,726	44,32
361,246	43,98
361,765	41,42
362,285	42,13
362,804	41,2
363,323	39,93
363,842	43,77
364,361	42,93
364,88	43,16
365,398	39,08
365,917	42,79
366,435	37,77
366,954	41,08
367,472	44,09
367,99	41,73
368,508	38,15
369,026	38,38
369,544	40,69
370,061	38,58
370,579	40,13
371,096	39,09
371,613	40,23
372,131	37,22
372,648	36
373,165	36,85
373,681	37,04
374,198	41
374,715	35,47
375,231	37,24
375,747	37,32
376,264	35,29
376,78	38,25
377,296	35,05
377,812	36,57
378,327	37,7
378,843	33,74
379,359	39,15
379,874	37,27
380,389	31,53
380,905	36,65
381,42	34,41
381,935	32,78
382,449	34,45
382,964	33,96
383,479	34,03
383,993	32,67
384,508	32,57
385,022	29,96
385,536	33,03
386,05	33,1
386,564	30,98
387,078	30,3
387,592	32,62
388,105	28,03
388,619	30,31
389,132	28,7
389,645	29,72
390,158	29,64
390,671	28,43
391,184	28,93
391,697	26,9
392,21	27,56
392,722	28,92
393,235	28,16
393,747	27,6
394,259	25,11
394,771	27,27
395,283	24,38
395,795	26,8
396,307	25,47
396,818	24,63
397,33	26,28
397,841	24,49
398,353	25,51
398,864	24,45
399,375	23,79
399,886	23,82
400,397	21,32
400,907	21,17
401,418	21,86
401,928	21,36
402,439	21,32
402,949	20,31
403,459	18,99
403,969	20,9
404,479	19,25
404,989	17,74
405,498	18,35
406,008	17,83
406,517	17,85
407,027	17,59
407,536	17,05
408,045	15,6
408,554	15,22
409,063	14,68
409,572	14,66
410,08	14,54
410,589	13,79
411,097	13,71
411,606	12,8
412,114	12,13
412,622	12,1
413,13	12,15
413,638	11,99
414,145	11,5
414,653	11,39
415,16	10,49
415,668	10,16
416,175	10,44
416,682	9,53
417,189	9,7
417,696	9,55
418,203	9,55
418,71	9,56
419,216	9,58
419,723	8,61
420,229	8,64
420,735	8,87
421,242	8,7
421,748	8,56
422,254	8,39
422,759	8,53
423,265	8,73
423,771	7,81
424,276	8,07
424,781	8,19
425,287	8,2
425,792	7,48
426,297	7,94
426,802	7,61
427,306	7,79
427,811	7,76
428,316	7,9
428,82	7,63
429,324	7,96
429,829	7,56
430,333	7,65
430,837	7,38
431,34	7,56
431,844	7,56
432,348	7,46
432,851	7,25
433,355	7,29
433,858	7,28
434,361	6,95
434,864	7,38
435,367	7,14
435,87	6,91
436,373	6,87
436,876	6,79
437,378	7,12
437,88	7,14
438,383	6,81
438,885	7,08
439,387	6,87
439,889	7,01
440,391	6,84
440,892	7,13
441,394	6,94
441,896	6,87
442,397	7,11
442,898	6,97
443,399	6,98
443,9	6,87
444,401	7,29
444,902	6,59
445,403	7,01
445,903	7,08
446,404	7,1
446,904	7,23
447,405	6,78
447,905	7,31
448,405	7,32
448,905	7,14
449,404	7,21
449,904	7,11
450,404	7,24
450,903	7,3
451,403	7,16
451,902	7,19
452,401	7,45
452,9	7,3
453,399	7,2
453,898	7,61
454,396	7,36
454,895	7,22
455,393	7,33
455,892	7,09
456,39	7,46
456,888	7,22
457,386	7,32
457,884	7,34
458,382	7,28
458,879	7,41
459,377	7,43
459,874	7,25
460,372	7,26
460,869	7,36
461,366	7,26
461,863	7,38
462,36	7,46
462,857	7,54
463,353	7,38
463,85	7,56
464,346	7,45
464,843	7,47
465,339	7,47
465,835	7,39
466,331	7,3
466,827	7,17
467,323	7,4
467,818	7,31
468,314	7,31
468,809	7,14
469,305	7,18
469,8	7,41
470,295	7,49
470,79	7,22
471,285	7,16
471,78	7,25
472,274	7,38
472,769	7,17
473,263	7,38
473,758	7,32
474,252	7,44
474,746	7,32
475,24	7,48
475,734	7,19
476,228	7,22
476,721	7,4
477,215	7,41
477,708	7,42
478,202	7,5
478,695	7,55
479,188	7,47
479,681	7,37
480,174	7,44
480,667	7,67
481,159	7,56
481,652	7,66
482,144	7,36
482,637	7,71
483,129	7,43
483,621	7,48
484,113	7,53
484,605	7,45
485,097	7,79
485,588	7,64
486,08	7,53
486,571	7,5
487,063	7,63
487,554	7,72
488,045	7,74
488,536	7,75
489,027	7,64
489,518	7,71
490,008	7,89
490,499	7,82
490,989	7,85
491,48	7,91
491,97	7,96
492,46	8,01
492,95	8,02
493,44	8,17
493,93	8,22
494,419	8,03
494,909	8,24
495,398	8,15
495,888	8,13
496,377	8,41
496,866	8,3
497,355	8,44
497,844	8,61
498,333	8,43
498,821	8,55
499,31	8,56
499,798	8,57
500,287	8,63
500,775	8,89
501,263	8,95
501,751	9,17
502,239	9,07
502,727	9,46
503,215	9,62
503,702	9,62
504,19	9,78
504,677	9,75
505,164	9,83
505,651	10,02
506,139	10,16
506,625	10,27
507,112	10,53
507,599	10,78
508,086	11,2
508,572	10,9
509,058	11,01
509,545	11,23
510,031	11,45
510,517	11,74
511,003	11,88
511,489	12,08
511,974	12,34
512,46	12,51
512,946	12,8
513,431	12,97
513,916	13,01
514,401	13,68
514,887	13,71
515,371	13,92
515,856	14,15
516,341	14,51
516,826	14,54
517,31	15,19
517,795	15,28
518,279	15,46
518,763	15,76
519,247	16,12
519,731	16,32
520,215	16,51
520,699	16,92
521,182	17,35
521,666	17,74
522,149	17,79
522,633	18,2
523,116	18,2
523,599	18,56
524,082	19,06
524,565	19,25
525,048	19,61
525,53	19,92
526,013	20,1
526,495	20,29
526,978	20,33
527,46	20,64
527,942	20,9
528,424	21,31
528,906	21,37
529,388	21,75
529,87	21,82
530,351	21,75
530,833	22,07
531,314	21,76
531,795	21,97
532,277	22,57
532,758	22,82
533,238	22,62
533,719	22,79
534,2	22,82
534,681	22,88
535,161	23,29
535,642	23,23
536,122	23,38
536,602	23,58
537,082	23,51
537,562	23,65
538,042	23,84
538,522	23,7
539,001	23,72
539,481	24,02
539,96	24,05
540,44	23,71
540,919	23,9
541,398	24,12
541,877	24,24
542,356	24,24
542,835	24,17
543,313	24,18
543,792	24,65
544,27	24,23
544,749	24,59
545,227	24,5
545,705	24,68
546,183	24,8
546,661	24,85
547,139	24,75
547,616	24,6
548,094	24,63
548,571	24,75
549,049	24,76
549,526	25,02
550,003	24,8
550,48	24,9
550,957	24,99
551,434	24,89
551,911	24,82
552,387	24,94
552,864	24,91
553,34	24,87
553,817	25,1
554,293	24,99
554,769	25,38
555,245	24,84
555,721	24,58
556,197	24,68
556,672	25,06
557,148	25,03
557,623	24,96
558,099	24,88
558,574	24,9
559,049	24,91
559,524	24,49
559,999	24,69
560,474	24,67
560,948	24,36
561,423	24,29
561,897	24,26
562,372	24,05
562,846	24,23
563,32	23,92
563,794	23,95
564,268	23,82
564,742	23,8
565,216	23,74
565,69	23,48
566,163	23,45
566,636	23,22
567,11	23,19
567,583	22,82
568,056	22,95
568,529	22,75
569,002	22,47
569,475	22,34
569,947	22,34
570,42	22,18
570,892	21,82
571,365	22
571,837	21,51
572,309	21,62
572,781	21,27
573,253	21,19
573,725	20,96
574,197	20,92
574,668	20,7
575,14	20,64
575,611	20,35
576,082	20,15
576,554	20,2
577,025	20,11
577,496	19,77
577,967	19,8
578,437	19,53
578,908	19,51
579,379	19,38
579,849	19,3
580,319	19,07
580,79	18,94
581,26	18,83
581,73	18,8
582,2	18,73
582,669	18,6
583,139	18,36
583,609	18,33
584,078	18,34
584,548	18,1
585,017	18,09
585,486	18,17
585,955	17,79
586,424	17,77
586,893	17,74
587,362	17,56
587,83	17,49
588,299	17,5
588,767	17,49
589,236	17,26
589,704	17,38
590,172	17,21
590,64	17,14
591,108	17,15
591,576	16,96
592,043	17,21
592,511	17,04
592,978	16,74
593,446	17,06
593,913	16,73
594,38	16,81
594,847	16,58
595,314	16,68
595,781	16,55
596,248	16,59
596,715	16,61
597,181	16,5
597,647	16,58
598,114	16,46
598,58	16,52
599,046	16,23
599,512	16,43
599,978	16,33
600,444	16,3
600,91	16,25
601,375	16,11
601,841	16,24
602,306	16,07
602,771	16,17
603,236	16,16
603,702	16,02
604,167	15,88
604,631	15,89
605,096	15,92
605,561	15,8
606,025	15,77
606,49	15,66
606,954	15,7
607,418	15,49
607,882	15,48
608,347	15,4
608,81	15,47
609,274	15,17
609,738	15,29
610,202	15,05
610,665	14,95
611,128	14,77
611,592	14,75
612,055	14,68
612,518	14,8
612,981	14,53
613,444	14,41
613,907	14,35
614,369	14,27
614,832	14,28
615,294	14,09
615,757	13,98
616,219	13,89
616,681	13,94
617,143	13,81
617,605	13,65
618,067	13,68
618,529	13,59
618,99	13,57
619,452	13,42
619,913	13,28
620,375	13,36
620,836	13,25
621,297	13,27
621,758	13,17
622,219	13,27
622,68	13,15
623,14	13,22
623,601	13,1
624,061	12,99
624,522	12,99
624,982	12,95
625,442	13,09
625,902	12,97
626,362	12,86
626,822	13,01
627,282	12,92
627,742	12,72
628,201	12,98
628,661	12,69
629,12	12,76
629,579	12,8
630,038	12,91
630,497	12,8
630,956	12,75
631,415	12,68
631,874	12,6
632,332	12,68
632,791	12,67
633,249	12,47
633,708	12,55
634,166	12,58
634,624	12,45
635,082	12,34
635,54	12,26
635,998	12,27
636,455	12,15
636,913	12,12
637,37	12,18
637,828	11,92
638,285	11,88
638,742	11,79
639,199	11,64
639,656	11,58
640,113	11,5
640,57	11,48
641,027	11,28
641,483	11,22
641,94	11,05
642,396	11,02
642,852	10,85
643,309	10,81
643,765	10,78
644,221	10,57
644,676	10,48
645,132	10,46
645,588	10,28
646,043	10,18
646,499	10,11
646,954	9,95
647,409	9,89
647,864	9,77
648,319	9,75
648,774	9,62
649,229	9,58
649,684	9,49
650,139	9,44
650,593	9,44
651,047	9,38
651,502	9,28
651,956	9,24
652,41	9,11
652,864	9,08
653,318	9,08
653,772	8,95
654,225	9,09
654,679	9,04
655,133	8,97
655,586	8,82
656,039	8,73
656,492	8,77
656,946	8,63
657,399	8,64
657,851	8,59
658,304	8,47
658,757	8,42
659,209	8,38
659,662	8,36
660,114	8,19
660,567	8,16
661,019	8,14
661,471	7,97
661,923	8,01
662,375	7,89
662,826	7,83
663,278	7,79
663,73	7,8
664,181	7,65
664,632	7,58
665,084	7,57
665,535	7,5
665,986	7,44
666,437	7,49
666,888	7,46
667,338	7,43
667,789	7,38
668,24	7,37
668,69	7,34
669,14	7,33
669,591	7,32
670,041	7,3
670,491	7,27
670,941	7,44
671,391	7,36
671,84	7,32
672,29	7,34
672,74	7,46
673,189	7,5
673,638	7,54
674,088	7,54
674,537	7,64
674,986	7,67
675,435	7,69
675,883	7,74
676,332	7,74
676,781	7,83
677,229	7,88
677,678	7,96
678,126	8,01
678,574	8,16
679,022	8,22
679,47	8,24
679,918	8,32
680,366	8,38
680,814	8,49
681,261	8,56
681,709	8,65
682,156	8,75
682,604	8,76
683,051	8,97
683,498	9,04
683,945	9,18
684,392	9,29
684,839	9,32
685,286	9,47
685,732	9,67
686,179	9,76
686,625	9,85
687,071	9,92
687,518	10,28
687,964	10,33
688,41	10,52
688,856	10,83
689,301	11,04
689,747	11,23
690,193	11,61
690,638	11,94
691,084	12,26
691,529	12,44
691,974	12,94
692,419	13,25
692,864	13,64
693,309	14,08
693,754	14,55
694,199	15,04
694,643	15,51
695,088	15,95
695,532	16,51
695,977	16,84
696,421	17,29
696,865	17,84
697,309	18,37
697,753	19,01
698,197	19,49
698,64	20,12
699,084	20,34
699,527	21,11
699,971	21,61
700,414	22,03
700,857	22,66
701,3	23,03
701,743	23,42
702,186	24,08
702,629	24,6
703,072	25,03
703,515	25,55
703,957	26,02
704,399	26,48
704,842	26,99
705,284	27,19
705,726	27,77
706,168	28,3
706,61	28,8
707,052	29,16
707,494	29,5
707,935	29,87
708,377	30,44
708,818	30,8
709,26	31,19
709,701	31,44
710,142	31,92
710,583	32,28
711,024	32,61
711,465	33,24
711,905	33,4
712,346	33,87
712,787	34,22
713,227	34,55
713,667	35,13
714,108	35,17
714,548	35,8
714,988	35,85
715,428	36,31
715,868	36,65
716,307	36,83
716,747	37,32
717,186	37,44
717,626	37,83
718,065	38,18
718,504	38,26
718,944	39,01
719,383	39,18
719,822	39,5
720,261	39,45
720,699	39,84
721,138	40,09
721,576	40,35
722,015	40,54
722,453	40,92
722,892	41,17
723,33	41,39
723,768	41,42
724,206	41,95
724,644	41,92
725,081	42,31
725,519	42,36
725,957	42,6
726,394	42,89
726,832	43,11
727,269	43,22
727,706	43,2
728,143	43,35
728,58	43,61
729,017	43,61
729,454	44,06
729,89	44,25
730,327	44,04
730,764	44,41
731,2	44,45
731,636	44,49
732,072	44,91
732,509	44,8
732,945	45
733,38	45,11
733,816	44,97
734,252	45,31
734,688	45,1
735,123	45,26
735,559	45,61
735,994	45,45
736,429	45,48
736,864	45,68
737,299	45,59
737,734	45,92
738,169	45,65
738,604	46,04
739,038	45,89
739,473	46
739,907	46,19
740,342	46
740,776	45,89
741,21	46,24
741,644	46,32
742,078	46,46
742,512	46,39
742,946	46,42
743,379	46,29
743,813	46,37
744,246	46,24
744,68	46,3
745,113	46,25
745,546	46,16
745,979	46,21
746,412	46,48
746,845	46,19
747,278	46,56
747,711	46,52
748,143	46,15
748,576	46,25
749,008	46,31
749,441	46,21
749,873	46,35
750,305	46,17
750,737	46,43
751,169	46,15
751,601	46,19
752,032	46,29
752,464	46,2
752,896	46,42
753,327	45,94
753,758	46,26
754,19	46,13
754,621	46,23
755,052	46,04
755,483	45,91
755,914	46,19
756,344	46,16
756,775	46,18
757,206	46,01
757,636	45,94
758,066	45,9
758,497	46,07
758,927	45,83
759,357	46,05
759,787	45,98
760,217	45,72
760,647	45,68
761,076	46,1
761,506	45,83
761,935	45,84
762,365	45,89
762,794	45,93
763,223	45,87
763,653	45,78
764,082	45,61
764,51	45,79
764,939	45,61
765,368	45,66
765,797	45,97
766,225	45,83
766,654	45,43
767,082	45,46
767,51	45,51
767,938	45,51
768,367	45,39
768,795	45,45
769,222	45,68
769,65	45,56
770,078	45,43
770,505	45,22
770,933	45,38
771,36	45,45
771,788	45,4
772,215	45,58
772,642	45,39
773,069	45,33
773,496	45,33
773,923	45,25
774,349	45,11
774,776	45,39
775,203	45,33
775,629	45,14
776,055	45,27
776,482	45,15
776,908	45,23
777,334	45,12
777,76	45,31
778,186	45,14
778,611	45,23
779,037	45,1
779,463	44,97
779,888	45,28
780,314	45,06
780,739	45,26
781,164	45,14
781,589	45,16
782,014	44,97
782,439	45,14
782,864	45,07
783,289	44,89
783,713	45,01
784,138	44,8
784,562	45,03
784,987	44,72
785,411	45,14
785,835	44,94
786,259	44,98
786,683	45,1
787,107	45,03
787,531	44,87
787,954	44,99
788,378	45,03
788,802	44,82
789,225	44,96
789,648	44,94
790,071	44,83
790,495	44,91
790,918	44,96
791,34	44,89
791,763	44,81
792,186	45,02
792,609	44,82
793,031	44,91
793,454	44,88
793,876	44,92
794,298	44,87
794,721	44,9
795,143	45,1
795,565	44,69
795,986	44,9
796,408	44,7
796,83	44,97
797,252	45,03
797,673	44,68
798,094	44,66
798,516	44,68
798,937	44,79
799,358	44,75
799,779	44,77
800,2	44,91
800,621	45,02
801,042	44,83
801,462	44,68
801,883	45,05
802,303	44,78
802,724	44,93
803,144	44,93
803,564	44,76
803,984	44,74
804,404	44,81
804,824	44,94
805,244	44,92
805,664	44,8
806,084	44,5
806,503	44,92
806,923	44,89
807,342	44,67
807,761	44,46
808,18	44,68
808,599	44,97
809,018	44,75
809,437	44,74
809,856	44,5
810,275	44,53
810,693	44,82
811,112	44,68
811,53	44,54
811,949	44,88
812,367	44,68
812,785	44,8
813,203	44,93
813,621	44,82
814,039	44,63
814,457	44,64
814,874	44,95
815,292	44,69
815,709	44,52
816,127	44,69
816,544	44,9
816,961	44,76
817,378	44,81
817,795	44,81
818,212	44,84
818,629	44,76
819,046	44,6
819,462	44,58
819,879	44,67
820,295	44,63
820,712	44,68
821,128	44,71
821,544	44,59
821,96	44,58
822,376	44,71
822,792	44,66
823,208	44,65
823,624	44,85
824,039	44,72
824,455	44,71
824,87	44,75
825,286	44,56
825,701	44,76
826,116	44,35
826,531	44,53
826,946	44,5
827,361	44,51
827,776	44,5
828,19	44,37
828,605	44,75
829,02	44,52
829,434	44,26
829,848	44,84
830,263	44,5
830,677	44,48
831,091	44,44
831,505	44,73
831,919	44,43
832,332	44,44
832,746	44,63
833,16	44,41
833,573	44,46
833,987	44,62
834,4	44,44
834,813	44,27
835,226	44,4
835,639	44,49
836,052	44,57
836,465	44,73
836,878	44,5
837,29	44,55
837,703	44,42
838,116	44,48
838,528	44,23
838,94	44,46
839,352	44,62
839,765	44,57
840,177	44,6
840,589	44,65
841	44,33
841,412	44,32
