Data from E2__Relative__5__00071.txt Node

Date: Tue Jan 30 17:57:01 CET 2024
User: diatiterra
Spectrometer: HDX00911
Trigger mode: 0
Integration Time (sec): 6,000000E-3
Scans to average: 3
Nonlinearity correction enabled: true
Boxcar width: 0
Storing dark spectrum: false
XAxis mode: Wavelengths
Number of Pixels in Spectrum: 2068
>>>>>Begin Spectral Data<<<<<
194,468	109,22
195,025	98,19
195,581	103,56
196,138	86,29
196,694	88,4
197,251	83,41
197,807	79
198,363	74,85
198,919	81,75
199,474	81,57
200,03	75,05
200,586	72,32
201,141	67,4
201,696	69,63
202,251	75,55
202,806	72,09
203,361	79,49
203,916	76,09
204,471	75,88
205,025	76,91
205,58	83,03
206,134	73,42
206,688	79,1
207,242	74,05
207,796	73,16
208,35	78,15
208,904	77,02
209,457	77,22
210,011	79,54
210,564	77,41
211,117	80,12
211,67	80,71
212,223	76,82
212,776	79,62
213,329	84,56
213,881	81,34
214,434	74,49
214,986	79,66
215,538	77,03
216,09	72,4
216,642	75,92
217,194	72,21
217,746	76,99
218,297	74,69
218,849	80,26
219,4	82,24
219,951	76,86
220,502	77,73
221,053	78,04
221,604	74,5
222,155	78,43
222,705	77,75
223,256	77,18
223,806	76,8
224,356	76,36
224,906	78,98
225,456	72,8
226,006	72,89
226,556	77,52
227,106	80,35
227,655	72,76
228,204	77,99
228,754	84,73
229,303	76
229,852	85,44
230,401	78,96
230,949	81,61
231,498	74,89
232,047	73,76
232,595	79,02
233,143	72,67
233,691	73,74
234,239	70,99
234,787	77,09
235,335	76,08
235,883	79,65
236,43	75,36
236,978	75,81
237,525	76,18
238,072	71,54
238,619	78,7
239,166	74,05
239,713	73,21
240,26	75,16
240,806	80,81
241,353	70,47
241,899	73,62
242,445	79,7
242,991	73,3
243,537	75,9
244,083	75,25
244,629	78,78
245,174	73,63
245,72	79,31
246,265	81,18
246,81	81,47
247,355	78,39
247,9	80,3
248,445	81,24
248,99	78,27
249,534	80,14
250,079	69,61
250,623	73,34
251,168	71,07
251,712	76,64
252,256	68,37
252,8	71,98
253,343	80,63
253,887	70,15
254,43	81,04
254,974	76,11
255,517	81,89
256,06	84,37
256,603	82,09
257,146	76,26
257,689	81,93
258,232	82,69
258,774	73,39
259,317	75,78
259,859	71,46
260,401	82,34
260,943	77,76
261,485	79,52
262,027	83,56
262,569	76,37
263,11	76,38
263,652	82
264,193	72,57
264,734	79,32
265,275	75,94
265,816	71,5
266,357	72,29
266,898	73,6
267,438	77,36
267,979	83,46
268,519	81,95
269,059	80,97
269,6	78,01
270,14	74,95
270,68	78,13
271,219	79,74
271,759	78,73
272,298	69,33
272,838	74,73
273,377	77,56
273,916	70,58
274,455	70
274,994	75,51
275,533	73,56
276,072	79,62
276,61	80,19
277,149	74,73
277,687	70,96
278,225	79,58
278,763	76,64
279,301	77,47
279,839	72,96
280,377	75,06
280,914	72,46
281,452	82,89
281,989	77,95
282,526	74,54
283,064	83,88
283,601	74,3
284,137	81,34
284,674	75,11
285,211	83,05
285,747	74,52
286,284	77,64
286,82	71,78
287,356	77,25
287,892	79,88
288,428	80,62
288,964	71,37
289,5	72,95
290,035	81,4
290,571	76,17
291,106	81,65
291,641	80,1
292,176	84,62
292,711	72,79
293,246	73,83
293,781	76,07
294,315	68,99
294,85	77,9
295,384	79,13
295,918	71,3
296,453	77,25
296,987	74,95
297,52	73,07
298,054	70,4
298,588	80,06
299,121	75,12
299,655	77,9
300,188	78,17
300,721	74,67
301,254	78,13
301,787	72,67
302,32	83,08
302,853	69,16
303,385	78,23
303,918	76,33
304,45	71,05
304,982	74,33
305,514	69
306,046	73,89
306,578	66,81
307,11	72,19
307,641	77,62
308,173	76,19
308,704	76,92
309,236	79,6
309,767	70,64
310,298	75,7
310,829	76,24
311,359	72,2
311,89	72,14
312,421	74,79
312,951	74,23
313,481	80,75
314,012	71,79
314,542	63,9
315,072	73,78
315,601	73,19
316,131	75,13
316,661	69,59
317,19	74,42
317,72	72,56
318,249	70,58
318,778	74,79
319,307	73,99
319,836	72,72
320,365	73,14
320,893	74,95
321,422	76,74
321,95	67,94
322,479	76,9
323,007	68,37
323,535	68,95
324,063	72,33
324,591	76,37
325,118	76,35
325,646	74,18
326,173	74,73
326,701	76,7
327,228	70,67
327,755	76,59
328,282	66,02
328,809	70,4
329,336	74,22
329,862	70,22
330,389	72,82
330,915	72,29
331,441	71,67
331,968	68,23
332,494	69,69
333,02	68,61
333,545	79,48
334,071	71,78
334,597	71,18
335,122	77,69
335,648	69,78
336,173	69,37
336,698	70,22
337,223	76,84
337,748	67,11
338,272	66,84
338,797	63,57
339,322	72,34
339,846	76,59
340,37	73,1
340,894	73,93
341,419	72,86
341,942	68,73
342,466	67,01
342,99	68,27
343,514	68,5
344,037	68,75
344,56	70,09
345,084	61,86
345,607	68,47
346,13	68,32
346,653	65,34
347,175	70,32
347,698	70,94
348,221	65,4
348,743	62,27
349,265	66,46
349,787	71,45
350,309	66,4
350,831	70,6
351,353	63,1
351,875	63,13
352,397	57,7
352,918	67,71
353,439	70,9
353,961	67,93
354,482	60,17
355,003	66,41
355,524	61,52
356,044	65,47
356,565	65,59
357,086	69,13
357,606	60,91
358,126	64,93
358,646	66,36
359,167	64,4
359,687	60,76
360,206	62,56
360,726	63,45
361,246	65,08
361,765	61,37
362,285	66,61
362,804	61,8
363,323	61,54
363,842	64,38
364,361	66,15
364,88	64,88
365,398	62,63
365,917	64,46
366,435	64,64
366,954	66,6
367,472	61,65
367,99	67,05
368,508	59,14
369,026	60,63
369,544	62,99
370,061	63,96
370,579	62,51
371,096	62,93
371,613	66,39
372,131	69,13
372,648	61,33
373,165	62,47
373,681	63,89
374,198	63,91
374,715	59,32
375,231	64,18
375,747	61,23
376,264	60,64
376,78	61,4
377,296	61,61
377,812	62,21
378,327	59,87
378,843	60,09
379,359	57,85
379,874	62,85
380,389	59,16
380,905	61,35
381,42	57,97
381,935	58,24
382,449	56,81
382,964	60,22
383,479	56,75
383,993	56,75
384,508	53,35
385,022	53,04
385,536	55,15
386,05	54,34
386,564	53,67
387,078	51,95
387,592	54,97
388,105	49,04
388,619	52,96
389,132	50,06
389,645	51,85
390,158	49
390,671	47,09
391,184	49,05
391,697	48,15
392,21	47,25
392,722	50,25
393,235	47,66
393,747	48,63
394,259	47,57
394,771	48,7
395,283	45,21
395,795	45,99
396,307	46,9
396,818	44,04
397,33	44,46
397,841	41,07
398,353	42,83
398,864	43,35
399,375	42,96
399,886	40,94
400,397	38,69
400,907	38,61
401,418	38,31
401,928	39,69
402,439	39,71
402,949	36,57
403,459	36,89
403,969	36,22
404,479	37,2
404,989	32,77
405,498	34,69
406,008	33,32
406,517	32,62
407,027	31,72
407,536	30,49
408,045	28,01
408,554	28,34
409,063	26,64
409,572	26,47
410,08	26,72
410,589	25,5
411,097	24,62
411,606	24,81
412,114	23,41
412,622	23,19
413,13	22,38
413,638	21,65
414,145	20,68
414,653	20,3
415,16	20,03
415,668	20,49
416,175	18,82
416,682	18,37
417,189	18,38
417,696	17,88
418,203	17,67
418,71	17,77
419,216	17,57
419,723	17,35
420,229	16,62
420,735	16,59
421,242	16,43
421,748	15,95
422,254	15,8
422,759	16,11
423,265	15,26
423,771	15,53
424,276	15,21
424,781	15,16
425,287	15,14
425,792	15,32
426,297	15,09
426,802	14,69
427,306	15,35
427,811	15,13
428,316	15,07
428,82	14,39
429,324	14,76
429,829	14,68
430,333	14,15
430,837	14,42
431,34	14
431,844	14,53
432,348	14
432,851	13,75
433,355	13,96
433,858	13,97
434,361	13,9
434,864	14,12
435,367	13,8
435,87	14,11
436,373	13,88
436,876	13,57
437,378	13,56
437,88	13,99
438,383	13,61
438,885	13,61
439,387	13,96
439,889	13,53
440,391	13,43
440,892	13,54
441,394	13,42
441,896	13,37
442,397	13,73
442,898	13,3
443,399	13,25
443,9	13,5
444,401	13,66
444,902	13,33
445,403	13,43
445,903	13,41
446,404	13,37
446,904	13,69
447,405	13,7
447,905	13,59
448,405	13,98
448,905	13,74
449,404	13,92
449,904	13,45
450,404	13,72
450,903	14,17
451,403	14,05
451,902	14
452,401	14,05
452,9	13,92
453,399	13,92
453,898	14,33
454,396	14,29
454,895	13,98
455,393	14,11
455,892	14,27
456,39	14,5
456,888	14,39
457,386	14,54
457,884	14,05
458,382	14,23
458,879	14,07
459,377	14,45
459,874	14,39
460,372	14,67
460,869	14,38
461,366	14,62
461,863	14,46
462,36	14,39
462,857	14,6
463,353	14,35
463,85	14,15
464,346	14,36
464,843	14,11
465,339	14,51
465,835	14,23
466,331	14,39
466,827	14,19
467,323	14,37
467,818	14,41
468,314	14,09
468,809	14,05
469,305	14,48
469,8	14,59
470,295	14,47
470,79	14,43
471,285	14,52
471,78	14,37
472,274	14,22
472,769	14,41
473,263	14,64
473,758	14,21
474,252	14,21
474,746	14,45
475,24	14,29
475,734	14,6
476,228	14,27
476,721	14,61
477,215	14,65
477,708	14,63
478,202	14,49
478,695	14,37
479,188	14,7
479,681	14,56
480,174	14,57
480,667	14,62
481,159	14,73
481,652	14,76
482,144	14,54
482,637	15
483,129	14,82
483,621	14,86
484,113	14,61
484,605	14,75
485,097	14,88
485,588	14,76
486,08	14,98
486,571	15
487,063	14,81
487,554	14,91
488,045	14,82
488,536	14,88
489,027	14,88
489,518	15,11
490,008	15,41
490,499	15,44
490,989	15,37
491,48	15,67
491,97	15,56
492,46	15,66
492,95	15,63
493,44	15,7
493,93	15,51
494,419	15,67
494,909	15,95
495,398	15,91
495,888	15,98
496,377	16,03
496,866	16,08
497,355	16,61
497,844	16,52
498,333	16,49
498,821	16,83
499,31	16,86
499,798	16,61
500,287	16,92
500,775	17,02
501,263	17,67
501,751	17,59
502,239	17,54
502,727	17,93
503,215	18,17
503,702	18,48
504,19	18,38
504,677	18,75
505,164	18,88
505,651	19,43
506,139	19,23
506,625	19,47
507,112	19,74
507,599	20,12
508,086	20,31
508,572	20,71
509,058	20,97
509,545	21,04
510,031	21,53
510,517	21,52
511,003	22,09
511,489	22,51
511,974	22,85
512,46	22,8
512,946	23,61
513,431	23,86
513,916	24
514,401	24,48
514,887	25,2
515,371	25,52
515,856	25,64
516,341	26,18
516,826	26,79
517,31	26,72
517,795	27,3
518,279	27,92
518,763	28,3
519,247	28,48
519,731	29,26
520,215	29,61
520,699	29,9
521,182	30,67
521,666	31,01
522,149	31,47
522,633	31,93
523,116	31,98
523,599	32,83
524,082	33,7
524,565	33,85
525,048	34,07
525,53	34,54
526,013	34,79
526,495	35,46
526,978	35,9
527,46	35,91
527,942	36,31
528,424	36,51
528,906	36,64
529,388	37,36
529,87	37,78
530,351	37,93
530,833	38,08
531,314	38,27
531,795	38,4
532,277	38,97
532,758	39,19
533,238	39,36
533,719	39,56
534,2	39,33
534,681	39,89
535,161	40,41
535,642	40,04
536,122	40,02
536,602	40,11
537,082	40,57
537,562	40,85
538,042	40,83
538,522	40,33
539,001	40,5
539,481	40,99
539,96	40,74
540,44	40,89
540,919	40,91
541,398	41,46
541,877	41,53
542,356	41,74
542,835	41,22
543,313	41,52
543,792	41,53
544,27	41,46
544,749	41,91
545,227	41,68
545,705	41,44
546,183	42,33
546,661	41,68
547,139	42,01
547,616	42,14
548,094	41,85
548,571	42,3
549,049	42,17
549,526	42,43
550,003	42,27
550,48	42,22
550,957	42,41
551,434	42
551,911	41,99
552,387	42,36
552,864	42,81
553,34	42,57
553,817	43,06
554,293	42,51
554,769	42,99
555,245	42,74
555,721	42,46
556,197	42,53
556,672	42,57
557,148	42,58
557,623	42,51
558,099	42,47
558,574	42,23
559,049	42,25
559,524	42,57
559,999	42,06
560,474	42,23
560,948	41,76
561,423	41,98
561,897	42,03
562,372	41,54
562,846	41,58
563,32	41,37
563,794	41,45
564,268	41,48
564,742	41
565,216	40,63
565,69	40,48
566,163	40,59
566,636	39,68
567,11	40,06
567,583	39,76
568,056	39,8
568,529	39,5
569,002	39,22
569,475	39,2
569,947	38,37
570,42	38,38
570,892	37,96
571,365	37,84
571,837	37,54
572,309	37,38
572,781	37,2
573,253	37
573,725	36,63
574,197	36,48
574,668	36,35
575,14	36,04
575,611	35,47
576,082	35,34
576,554	35,46
577,025	35,1
577,496	34,84
577,967	34,94
578,437	34,4
578,908	34,17
579,379	34,08
579,849	33,98
580,319	33,58
580,79	33,59
581,26	33,67
581,73	33,36
582,2	33,22
582,669	32,62
583,139	32,85
583,609	32,54
584,078	32,24
584,548	32,16
585,017	32,17
585,486	32,08
585,955	31,61
586,424	31,66
586,893	31,61
587,362	31,2
587,83	31,1
588,299	30,89
588,767	31,05
589,236	30,93
589,704	30,55
590,172	30,81
590,64	30,84
591,108	30,39
591,576	30,25
592,043	30,43
592,511	30,42
592,978	29,88
593,446	29,98
593,913	29,92
594,38	29,87
594,847	29,72
595,314	29,71
595,781	29,6
596,248	29,73
596,715	29,44
597,181	29,61
597,647	29,5
598,114	29,41
598,58	29,35
599,046	29,16
599,512	29,27
599,978	29,21
600,444	29
600,91	29,04
601,375	29,01
601,841	29,09
602,306	28,77
602,771	28,95
603,236	28,71
603,702	28,67
604,167	28,65
604,631	28,28
605,096	28,4
605,561	28,42
606,025	28,02
606,49	27,92
606,954	28,19
607,418	27,77
607,882	27,93
608,347	27,56
608,81	27,63
609,274	27,4
609,738	27,41
610,202	27,44
610,665	26,95
611,128	26,99
611,592	26,74
612,055	26,61
612,518	26,57
612,981	26,42
613,444	26,47
613,907	26,2
614,369	25,97
614,832	25,96
615,294	25,61
615,757	25,74
616,219	25,49
616,681	25,39
617,143	25,28
617,605	25,06
618,067	24,99
618,529	24,69
618,99	24,86
619,452	24,82
619,913	24,76
620,375	24,44
620,836	24,44
621,297	24,36
621,758	24,07
622,219	24,3
622,68	24,25
623,14	24,27
623,601	24,24
624,061	24,02
624,522	24
624,982	23,73
625,442	23,89
625,902	23,9
626,362	23,77
626,822	23,74
627,282	23,69
627,742	23,69
628,201	23,58
628,661	23,57
629,12	23,49
629,579	23,44
630,038	23,51
630,497	23,42
630,956	23,44
631,415	23,44
631,874	23,26
632,332	23,07
632,791	23,07
633,249	23,09
633,708	22,77
634,166	23,05
634,624	22,85
635,082	22,68
635,54	22,6
635,998	22,42
636,455	22,33
636,913	22,33
637,37	22,27
637,828	21,92
638,285	21,92
638,742	21,74
639,199	21,38
639,656	21,2
640,113	21,09
640,57	20,93
641,027	20,67
641,483	20,52
641,94	20,5
642,396	20,37
642,852	20,1
643,309	19,86
643,765	19,73
644,221	19,67
644,676	19,63
645,132	19,33
645,588	19,2
646,043	18,93
646,499	18,63
646,954	18,51
647,409	18,47
647,864	18,28
648,319	18,03
648,774	18,01
649,229	17,87
649,684	17,89
650,139	17,7
650,593	17,54
651,047	17,51
651,502	17,44
651,956	17,3
652,41	17,23
652,864	17,27
653,318	17
653,772	16,98
654,225	17
654,679	16,75
655,133	16,77
655,586	16,83
656,039	16,57
656,492	16,5
656,946	16,55
657,399	16,46
657,851	16,23
658,304	16,19
658,757	16,1
659,209	15,97
659,662	15,84
660,114	15,72
660,567	15,73
661,019	15,67
661,471	15,28
661,923	15,42
662,375	15,19
662,826	15,19
663,278	15,07
663,73	14,96
664,181	15,02
664,632	14,9
665,084	14,69
665,535	14,72
665,986	14,59
666,437	14,56
666,888	14,47
667,338	14,51
667,789	14,51
668,24	14,45
668,69	14,48
669,14	14,44
669,591	14,46
670,041	14,55
670,491	14,37
670,941	14,54
671,391	14,63
671,84	14,56
672,29	14,54
672,74	14,8
673,189	14,8
673,638	14,77
674,088	14,99
674,537	15,04
674,986	15,05
675,435	15,11
675,883	15,27
676,332	15,47
676,781	15,68
677,229	15,64
677,678	15,8
678,126	15,81
678,574	15,99
679,022	16,19
679,47	16,19
679,918	16,38
680,366	16,46
680,814	16,73
681,261	16,85
681,709	17
682,156	17,16
682,604	17,38
683,051	17,36
683,498	17,69
683,945	17,84
684,392	18,08
684,839	18,37
685,286	18,38
685,732	18,74
686,179	18,91
686,625	18,88
687,071	19,37
687,518	19,7
687,964	19,86
688,41	20,27
688,856	20,47
689,301	20,96
689,747	21,49
690,193	21,72
690,638	22,33
691,084	22,82
691,529	23,3
691,974	23,94
692,419	24,55
692,864	25,11
693,309	25,72
693,754	26,48
694,199	27,29
694,643	27,79
695,088	28,61
695,532	29,42
695,977	29,84
696,421	30,57
696,865	31,46
697,309	32,2
697,753	33,13
698,197	33,68
698,64	34,54
699,084	35,19
699,527	35,99
699,971	36,8
700,414	37,48
700,857	38,27
701,3	38,83
701,743	39,51
702,186	40,44
702,629	40,87
703,072	41,66
703,515	42,57
703,957	42,87
704,399	43,49
704,842	44,17
705,284	44,71
705,726	45,28
706,168	46,08
706,61	46,71
707,052	47,2
707,494	47,61
707,935	48,35
708,377	49
708,818	49,18
709,26	49,94
709,701	50,59
710,142	50,68
710,583	51,5
711,024	51,86
711,465	52,65
711,905	52,93
712,346	53,67
712,787	53,74
713,227	54,42
713,667	55
714,108	55,59
714,548	55,93
714,988	56,2
715,428	56,7
715,868	57,34
716,307	57,37
716,747	58,02
717,186	58,27
717,626	58,83
718,065	59,4
718,504	59,45
718,944	60,15
719,383	60,39
719,822	60,84
720,261	60,84
720,699	61,35
721,138	61,72
721,576	62,05
722,015	62,66
722,453	62,9
722,892	63,25
723,33	63,63
723,768	63,71
724,206	64,3
724,644	64,19
725,081	64,55
725,519	65,01
725,957	65,26
726,394	65,31
726,832	65,52
727,269	66,04
727,706	65,86
728,143	66,28
728,58	66,73
729,017	66,48
729,454	66,96
729,89	67,09
730,327	67,2
730,764	67,37
731,2	67,5
731,636	67,64
732,072	67,97
732,509	68,02
732,945	68,02
733,38	68,39
733,816	68,12
734,252	68,43
734,688	68,11
735,123	68,53
735,559	68,83
735,994	68,77
736,429	68,78
736,864	69
737,299	68,75
737,734	68,99
738,169	69,03
738,604	69,25
739,038	69,35
739,473	69,28
739,907	69,47
740,342	69,37
740,776	69,3
741,21	69,62
741,644	69,72
742,078	69,58
742,512	69,86
742,946	69,8
743,379	69,41
743,813	69,36
744,246	69,26
744,68	69,7
745,113	69,5
745,546	69,46
745,979	69,44
746,412	69,34
746,845	69,09
747,278	69,67
747,711	69,53
748,143	69,61
748,576	69,36
749,008	69,27
749,441	69,16
749,873	69,27
750,305	69,1
750,737	69,1
751,169	69,37
751,601	69,14
752,032	69,03
752,464	69,04
752,896	69,03
753,327	69,01
753,758	68,85
754,19	68,97
754,621	68,99
755,052	69,04
755,483	68,6
755,914	68,83
756,344	68,85
756,775	68,73
757,206	68,89
757,636	68,49
758,066	68,41
758,497	68,51
758,927	68,29
759,357	68,34
759,787	68,28
760,217	68,34
760,647	67,93
761,076	68,37
761,506	68,06
761,935	67,8
762,365	68,13
762,794	67,97
763,223	67,8
763,653	68,24
764,082	67,96
764,51	67,94
764,939	68,05
765,368	67,77
765,797	67,84
766,225	67,89
766,654	67,32
767,082	67,27
767,51	67,57
767,938	67,78
768,367	67,31
768,795	67,48
769,222	67,68
769,65	67,24
770,078	67,42
770,505	67,34
770,933	67,31
771,36	67,05
771,788	67,2
772,215	67,15
772,642	67,13
773,069	67
773,496	66,89
773,923	66,84
774,349	66,75
774,776	67
775,203	66,98
775,629	66,91
776,055	66,94
776,482	66,8
776,908	66,7
777,334	66,73
777,76	66,78
778,186	66,87
778,611	66,67
779,037	66,83
779,463	66,7
779,888	66,43
780,314	66,59
780,739	66,67
781,164	66,33
781,589	66,73
782,014	66,39
782,439	66,46
782,864	66,66
783,289	66,58
783,713	66,58
784,138	66,41
784,562	66,54
784,987	66,5
785,411	66,58
785,835	66,32
786,259	66,37
786,683	66,52
787,107	66,43
787,531	66,2
787,954	66,1
788,378	66,54
788,802	66,48
789,225	66,32
789,648	66,34
790,071	66,21
790,495	65,98
790,918	66,24
791,34	66,23
791,763	66,28
792,186	66,25
792,609	66,38
793,031	66,13
793,454	66,23
793,876	66,06
794,298	66,02
794,721	66,08
795,143	66,28
795,565	65,9
795,986	66,4
796,408	66,17
796,83	66
797,252	66,02
797,673	66,13
798,094	65,96
798,516	65,72
798,937	66,01
799,358	65,9
799,779	66,29
800,2	66,38
800,621	66,08
801,042	65,59
801,462	65,77
801,883	65,98
802,303	66,05
802,724	65,84
803,144	66,1
803,564	65,74
803,984	66,01
804,404	65,98
804,824	65,85
805,244	66,01
805,664	66,15
806,084	65,87
806,503	66,17
806,923	66,15
807,342	66,01
807,761	65,72
808,18	66,06
808,599	65,69
809,018	65,76
809,437	65,64
809,856	65,38
810,275	65,74
810,693	65,82
811,112	65,59
811,53	65,77
811,949	65,92
812,367	65,75
812,785	65,95
813,203	65,53
813,621	65,95
814,039	65,67
814,457	65,25
814,874	66,06
815,292	65,89
815,709	65,71
816,127	65,72
816,544	65,87
816,961	65,73
817,378	65,88
817,795	65,64
818,212	65,58
818,629	65,7
819,046	65,56
819,462	65,63
819,879	65,81
820,295	65,63
820,712	65,47
821,128	65,62
821,544	65,45
821,96	65,55
822,376	65,72
822,792	65,78
823,208	65,4
823,624	65,69
824,039	65,7
824,455	65,57
824,87	65,68
825,286	65,51
825,701	65,73
826,116	65,25
826,531	65,44
826,946	65,65
827,361	65,32
827,776	65,63
828,19	65,2
828,605	65,73
829,02	65,73
829,434	65,45
829,848	65,59
830,263	65,5
830,677	65,26
831,091	65,55
831,505	65,67
831,919	65,3
832,332	65,2
832,746	65,53
833,16	65,22
833,573	65,17
833,987	65,27
834,4	65,33
834,813	64,93
835,226	65,56
