Data from E2__Relative__3__00069.txt Node

Date: Tue Jan 30 17:56:52 CET 2024
User: diatiterra
Spectrometer: HDX00911
Trigger mode: 0
Integration Time (sec): 6,000000E-3
Scans to average: 3
Nonlinearity correction enabled: true
Boxcar width: 0
Storing dark spectrum: false
XAxis mode: Wavelengths
Number of Pixels in Spectrum: 2068
>>>>>Begin Spectral Data<<<<<
194,468	101,2
195,025	77,39
195,581	90,27
196,138	72,21
196,694	78,78
197,251	65,82
197,807	64,08
198,363	68,35
198,919	68,92
199,474	70,18
200,03	65,2
200,586	66,46
201,141	61,73
201,696	57,53
202,251	64,76
202,806	66,39
203,361	61,94
203,916	65,45
204,471	65,98
205,025	61,93
205,58	66,66
206,134	65,19
206,688	60,43
207,242	61,67
207,796	63,21
208,35	63,32
208,904	69,89
209,457	64,5
210,011	67,72
210,564	63,36
211,117	63,93
211,67	70,62
212,223	71,13
212,776	70,17
213,329	66,1
213,881	66,45
214,434	62,34
214,986	65,31
215,538	64,63
216,09	62,67
216,642	68,1
217,194	58,84
217,746	66,11
218,297	64,33
218,849	65,24
219,4	67,86
219,951	65,49
220,502	64,74
221,053	59
221,604	62,34
222,155	70,02
222,705	62,37
223,256	62,11
223,806	64,99
224,356	62,97
224,906	67,09
225,456	61,69
226,006	68,8
226,556	61,71
227,106	69,23
227,655	60,91
228,204	56,6
228,754	67,15
229,303	70,96
229,852	71,09
230,401	65,21
230,949	64,67
231,498	61,67
232,047	66,38
232,595	67,46
233,143	62,29
233,691	61,82
234,239	63,89
234,787	60,93
235,335	64,86
235,883	60,18
236,43	67,91
236,978	62,39
237,525	61,6
238,072	58,15
238,619	61,74
239,166	57,41
239,713	57,39
240,26	65,1
240,806	62,64
241,353	60,03
241,899	62,88
242,445	70,4
242,991	63,03
243,537	67,44
244,083	63,68
244,629	65,05
245,174	62,66
245,72	63,75
246,265	68,85
246,81	69,54
247,355	62,2
247,9	65,2
248,445	65,22
248,99	71,74
249,534	65,4
250,079	65,42
250,623	58,11
251,168	63,63
251,712	58,38
252,256	56,81
252,8	66,86
253,343	62,74
253,887	59,68
254,43	72,01
254,974	68,15
255,517	58,4
256,06	66,45
256,603	68,45
257,146	68,41
257,689	66,14
258,232	64,5
258,774	65,02
259,317	64,51
259,859	65,11
260,401	71,6
260,943	64,41
261,485	67,18
262,027	67,78
262,569	65,57
263,11	67,76
263,652	63,98
264,193	65,93
264,734	63,54
265,275	64,24
265,816	62,67
266,357	61,66
266,898	66,24
267,438	66,15
267,979	70,76
268,519	67,63
269,059	62,15
269,6	62,23
270,14	63,33
270,68	64,57
271,219	67,44
271,759	66,45
272,298	60,9
272,838	63,62
273,377	66,45
273,916	62,39
274,455	62,91
274,994	67,34
275,533	65,33
276,072	72,6
276,61	65,09
277,149	61,78
277,687	67,47
278,225	65
278,763	68,32
279,301	63,52
279,839	62,28
280,377	61,82
280,914	59,11
281,452	71,47
281,989	68,09
282,526	64,96
283,064	70,76
283,601	61,12
284,137	60,89
284,674	64,98
285,211	68,34
285,747	67,67
286,284	67,13
286,82	63,11
287,356	70,56
287,892	69,92
288,428	62,11
288,964	65,77
289,5	64,51
290,035	73,33
290,571	70,43
291,106	65,89
291,641	66,98
292,176	64,24
292,711	62,2
293,246	67,02
293,781	62,65
294,315	60,55
294,85	68,91
295,384	69,5
295,918	60,33
296,453	66,3
296,987	64,03
297,52	62,7
298,054	60,75
298,588	68,32
299,121	63,36
299,655	68,46
300,188	60,04
300,721	59,91
301,254	63,24
301,787	64,62
302,32	72,49
302,853	57,81
303,385	62,45
303,918	60,54
304,45	60,04
304,982	62,74
305,514	66,3
306,046	59,58
306,578	60,78
307,11	63,36
307,641	67,43
308,173	61,09
308,704	63,52
309,236	61,73
309,767	68,73
310,298	60,52
310,829	67,95
311,359	67,84
311,89	59,56
312,421	56,72
312,951	58,59
313,481	70,66
314,012	61,69
314,542	62,8
315,072	65,25
315,601	62,97
316,131	67,73
316,661	59,74
317,19	64,61
317,72	58,63
318,249	61,41
318,778	63,15
319,307	63,45
319,836	68,24
320,365	63,56
320,893	62,64
321,422	61,52
321,95	58,39
322,479	64,9
323,007	59,82
323,535	57,6
324,063	59,16
324,591	61,37
325,118	67,53
325,646	64,11
326,173	65,02
326,701	66,24
327,228	61,11
327,755	63,55
328,282	57,48
328,809	58,55
329,336	62,68
329,862	61,31
330,389	59,69
330,915	61,42
331,441	66,38
331,968	56,93
332,494	59,79
333,02	60
333,545	61,34
334,071	58,22
334,597	58,45
335,122	63,46
335,648	59,16
336,173	58,12
336,698	60,57
337,223	63,11
337,748	56,8
338,272	56,05
338,797	60,55
339,322	58,61
339,846	58,72
340,37	60,99
340,894	60,04
341,419	61,37
341,942	57,41
342,466	49,89
342,99	57,77
343,514	61,55
344,037	58,35
344,56	58,01
345,084	51,38
345,607	59,18
346,13	56,96
346,653	55,16
347,175	56,82
347,698	58,61
348,221	51,73
348,743	59,26
349,265	59,09
349,787	53,99
350,309	59,08
350,831	56,19
351,353	53,35
351,875	52,47
352,397	48,11
352,918	53,21
353,439	56,89
353,961	54,31
354,482	48,48
355,003	50,04
355,524	50,74
356,044	53,66
356,565	50,94
357,086	52,66
357,606	49,72
358,126	52,4
358,646	52,94
359,167	52,02
359,687	47,01
360,206	47,19
360,726	48,18
361,246	49,44
361,765	51,19
362,285	50,1
362,804	47,12
363,323	49,88
363,842	49,88
364,361	48,87
364,88	52,94
365,398	48
365,917	49,74
366,435	51,08
366,954	49,41
367,472	47,45
367,99	51,43
368,508	47,41
369,026	45,6
369,544	48,41
370,061	47,5
370,579	48,32
371,096	44,17
371,613	49,82
372,131	51,21
372,648	47,45
373,165	46,47
373,681	44,24
374,198	48,01
374,715	46,02
375,231	47,12
375,747	44,78
376,264	43,23
376,78	44,32
377,296	44,81
377,812	44,89
378,327	45,66
378,843	42,34
379,359	42,63
379,874	42,14
380,389	43,26
380,905	41,13
381,42	40,51
381,935	40,43
382,449	39,5
382,964	39,93
383,479	38,59
383,993	39,05
384,508	37,93
385,022	37,44
385,536	38,02
386,05	37,57
386,564	39,48
387,078	37,94
387,592	36,28
388,105	36,84
388,619	35,65
389,132	34,13
389,645	35,04
390,158	33,19
390,671	33,21
391,184	35,75
391,697	33,48
392,21	32,66
392,722	32,94
393,235	33,39
393,747	32,49
394,259	31,04
394,771	32,75
395,283	30,15
395,795	31,66
396,307	31,32
396,818	30,24
397,33	28,66
397,841	28,24
398,353	27,98
398,864	27,86
399,375	28,46
399,886	27,54
400,397	25,38
400,907	25,99
401,418	25,56
401,928	27,58
402,439	24,55
402,949	23,82
403,459	25,16
403,969	23,68
404,479	22,65
404,989	21,85
405,498	21,02
406,008	20,92
406,517	20,19
407,027	21,18
407,536	19,53
408,045	18,75
408,554	17,8
409,063	17,79
409,572	16,89
410,08	17,56
410,589	16,73
411,097	16,09
411,606	15,6
412,114	15,59
412,622	14,57
413,13	13,95
413,638	13,56
414,145	13,31
414,653	13,39
415,16	12
415,668	12,58
416,175	12,09
416,682	11,77
417,189	11,67
417,696	11,37
418,203	11,02
418,71	11,08
419,216	10,8
419,723	10,53
420,229	10,24
420,735	10,15
421,242	10,01
421,748	10,37
422,254	10,13
422,759	9,84
423,265	9,45
423,771	9,84
424,276	9,18
424,781	8,95
425,287	9,4
425,792	9,23
426,297	9,31
426,802	9,05
427,306	9,11
427,811	9,25
428,316	9,2
428,82	8,99
429,324	8,87
429,829	8,76
430,333	8,91
430,837	8,68
431,34	8,74
431,844	8,92
432,348	9,18
432,851	8,25
433,355	8,77
433,858	8,22
434,361	8,42
434,864	8,17
435,367	8,55
435,87	8,59
436,373	8,08
436,876	8,02
437,378	7,85
437,88	8,18
438,383	8,15
438,885	8,27
439,387	8,36
439,889	8,23
440,391	8,33
440,892	8,25
441,394	8,09
441,896	8,3
442,397	8,44
442,898	8,23
443,399	8,06
443,9	8,38
444,401	8,24
444,902	8,35
445,403	7,91
445,903	8,32
446,404	8,48
446,904	8,15
447,405	8,36
447,905	8,48
448,405	8,77
448,905	8,82
449,404	8,56
449,904	8,47
450,404	8,68
450,903	8,61
451,403	8,44
451,902	8,73
452,401	8,46
452,9	8,73
453,399	8,68
453,898	8,74
454,396	8,78
454,895	8,92
455,393	8,51
455,892	8,89
456,39	8,69
456,888	8,75
457,386	8,91
457,884	9,08
458,382	8,74
458,879	8,63
459,377	8,72
459,874	8,98
460,372	8,8
460,869	8,84
461,366	8,82
461,863	8,89
462,36	8,76
462,857	8,6
463,353	8,59
463,85	9,02
464,346	8,79
464,843	8,65
465,339	9,08
465,835	8,79
466,331	8,94
466,827	8,72
467,323	8,66
467,818	8,79
468,314	8,81
468,809	8,66
469,305	8,9
469,8	8,62
470,295	8,96
470,79	8,79
471,285	8,97
471,78	8,85
472,274	8,89
472,769	8,84
473,263	8,85
473,758	8,89
474,252	8,63
474,746	9,09
475,24	8,78
475,734	8,91
476,228	9,01
476,721	8,98
477,215	9
477,708	9,2
478,202	9,11
478,695	9,15
479,188	9,07
479,681	9,07
480,174	9,09
480,667	8,94
481,159	8,98
481,652	9,34
482,144	9,17
482,637	9,32
483,129	9,01
483,621	9,34
484,113	9,23
484,605	9,2
485,097	9,13
485,588	9,17
486,08	9,27
486,571	9,24
487,063	9,34
487,554	9,21
488,045	9,38
488,536	9,66
489,027	9,53
489,518	9,73
490,008	9,57
490,499	9,48
490,989	9,72
491,48	9,89
491,97	9,8
492,46	10,05
492,95	9,86
493,44	9,98
493,93	10,1
494,419	9,86
494,909	10,42
495,398	10,18
495,888	10,36
496,377	10,51
496,866	10,57
497,355	10,64
497,844	10,85
498,333	10,81
498,821	10,96
499,31	10,99
499,798	11,31
500,287	11,38
500,775	11,58
501,263	11,98
501,751	11,85
502,239	12,05
502,727	12,3
503,215	12,36
503,702	12,59
504,19	12,7
504,677	13,17
505,164	13,25
505,651	13,43
506,139	13,87
506,625	13,77
507,112	14,26
507,599	14,55
508,086	14,52
508,572	15,08
509,058	15,29
509,545	15,59
510,031	15,65
510,517	15,95
511,003	16,26
511,489	16,65
511,974	16,97
512,46	17,26
512,946	17,49
513,431	18,21
513,916	18,11
514,401	18,7
514,887	19,15
515,371	19,2
515,856	19,9
516,341	20,04
516,826	20,56
517,31	20,9
517,795	21,11
518,279	21,65
518,763	22,19
519,247	22,56
519,731	22,94
520,215	23,49
520,699	23,74
521,182	24,09
521,666	24,74
522,149	24,95
522,633	25,54
523,116	25,62
523,599	26,03
524,082	26,66
524,565	27,01
525,048	27,39
525,53	27,78
526,013	28,23
526,495	28,33
526,978	29,13
527,46	28,93
527,942	29,59
528,424	29,71
528,906	29,99
529,388	30,17
529,87	30,71
530,351	30,4
530,833	31,03
531,314	31,1
531,795	31,26
532,277	31,4
532,758	32,09
533,238	32,08
533,719	31,99
534,2	32,18
534,681	32,6
535,161	32,66
535,642	32,67
536,122	32,89
536,602	32,81
537,082	32,93
537,562	32,97
538,042	33,29
538,522	33,46
539,001	33,56
539,481	33,63
539,96	33,53
540,44	33,67
540,919	33,84
541,398	33,43
541,877	34
542,356	33,88
542,835	33,99
543,313	33,95
543,792	34,2
544,27	34,09
544,749	34,2
545,227	34,4
545,705	34,54
546,183	34,73
546,661	34,26
547,139	34,59
547,616	34,54
548,094	34,67
548,571	34,67
549,049	34,52
549,526	34,81
550,003	34,72
550,48	35,05
550,957	34,9
551,434	34,61
551,911	34,93
552,387	34,77
552,864	34,87
553,34	34,95
553,817	34,93
554,293	34,97
554,769	34,89
555,245	34,86
555,721	35,08
556,197	35,07
556,672	34,91
557,148	35,01
557,623	34,89
558,099	35,13
558,574	34,9
559,049	34,93
559,524	34,8
559,999	34,76
560,474	34,5
560,948	34,13
561,423	34,13
561,897	34,41
562,372	33,98
562,846	33,94
563,32	33,7
563,794	33,74
564,268	33,73
564,742	33,45
565,216	33,31
565,69	33,26
566,163	32,95
566,636	32,56
567,11	32,66
567,583	32,41
568,056	32,22
568,529	32,1
569,002	32,05
569,475	31,62
569,947	31,49
570,42	31,12
570,892	31,11
571,365	30,7
571,837	30,76
572,309	30,05
572,781	30,15
573,253	29,97
573,725	29,69
574,197	29,36
574,668	29,21
575,14	29,06
575,611	28,89
576,082	28,62
576,554	28,19
577,025	28,26
577,496	27,77
577,967	27,99
578,437	27,85
578,908	27,57
579,379	27,25
579,849	27,5
580,319	26,98
580,79	26,92
581,26	26,92
581,73	26,34
582,2	26,58
582,669	26,24
583,139	26,12
583,609	25,89
584,078	25,73
584,548	25,76
585,017	25,66
585,486	25,69
585,955	25,06
586,424	25,22
586,893	25,06
587,362	24,98
587,83	24,94
588,299	24,58
588,767	24,93
589,236	24,72
589,704	24,37
590,172	24,32
590,64	24,44
591,108	24,15
591,576	24,01
592,043	24,08
592,511	23,84
592,978	23,75
593,446	23,78
593,913	23,58
594,38	23,43
594,847	23,7
595,314	23,56
595,781	23,45
596,248	23,24
596,715	23,27
597,181	23,12
597,647	23,22
598,114	23,13
598,58	23,19
599,046	23,03
599,512	23,12
599,978	23,05
600,444	23,13
600,91	22,92
601,375	22,84
601,841	22,76
602,306	22,75
602,771	22,7
603,236	22,56
603,702	22,55
604,167	22,37
604,631	22,31
605,096	22,24
605,561	22,36
606,025	21,96
606,49	21,99
606,954	21,84
607,418	21,85
607,882	21,76
608,347	21,45
608,81	21,67
609,274	21,13
609,738	21,26
610,202	21,26
610,665	20,98
611,128	20,79
611,592	20,98
612,055	20,52
612,518	20,39
612,981	20,47
613,444	20,31
613,907	20,31
614,369	20,16
614,832	20,15
615,294	19,78
615,757	19,74
616,219	19,66
616,681	19,66
617,143	19,54
617,605	19,09
618,067	19,19
618,529	19,12
618,99	19,04
619,452	19,02
619,913	18,79
620,375	18,66
620,836	18,81
621,297	18,56
621,758	18,71
622,219	18,32
622,68	18,36
623,14	18,37
623,601	18,43
624,061	18,35
624,522	18,14
624,982	18,21
625,442	18,12
625,902	18,07
626,362	18,17
626,822	18,05
627,282	17,91
627,742	17,95
628,201	17,92
628,661	17,88
629,12	17,9
629,579	17,74
630,038	17,93
630,497	17,76
630,956	17,91
631,415	17,78
631,874	17,72
632,332	17,95
632,791	17,77
633,249	17,49
633,708	17,6
634,166	17,46
634,624	17,19
635,082	17,06
635,54	17,16
635,998	16,96
636,455	16,93
636,913	16,75
637,37	16,57
637,828	16,59
638,285	16,53
638,742	16,21
639,199	16,11
639,656	15,85
640,113	15,7
640,57	15,69
641,027	15,35
641,483	15,34
641,94	15,12
642,396	15,03
642,852	14,77
643,309	14,55
643,765	14,4
644,221	14,36
644,676	14,28
645,132	14,03
645,588	13,89
646,043	13,62
646,499	13,57
646,954	13,34
647,409	13,2
647,864	13,08
648,319	12,95
648,774	12,88
649,229	12,85
649,684	12,71
650,139	12,61
650,593	12,54
651,047	12,43
651,502	12,37
651,956	12,24
652,41	12,23
652,864	12,11
653,318	12
653,772	11,98
654,225	11,99
654,679	11,83
655,133	11,75
655,586	11,76
656,039	11,58
656,492	11,53
656,946	11,57
657,399	11,57
657,851	11,25
658,304	11,33
658,757	11,09
659,209	11,05
659,662	10,96
660,114	10,87
660,567	10,78
661,019	10,69
661,471	10,58
661,923	10,54
662,375	10,45
662,826	10,29
663,278	10,2
663,73	10,08
664,181	9,97
664,632	9,91
665,084	9,92
665,535	9,86
665,986	9,8
666,437	9,7
666,888	9,65
667,338	9,67
667,789	9,65
668,24	9,57
668,69	9,73
669,14	9,63
669,591	9,7
670,041	9,65
670,491	9,62
670,941	9,68
671,391	9,72
671,84	9,87
672,29	9,86
672,74	9,93
673,189	9,99
673,638	10
674,088	10,13
674,537	10,13
674,986	10,25
675,435	10,43
675,883	10,43
676,332	10,43
676,781	10,61
677,229	10,64
677,678	10,89
678,126	10,99
678,574	11,2
679,022	11,39
679,47	11,35
679,918	11,58
680,366	11,64
680,814	11,67
681,261	11,89
681,709	12,15
682,156	12,22
682,604	12,34
683,051	12,52
683,498	12,66
683,945	12,8
684,392	13,12
684,839	13,11
685,286	13,4
685,732	13,67
686,179	13,77
686,625	14,08
687,071	14,25
687,518	14,43
687,964	14,79
688,41	15,28
688,856	15,58
689,301	15,91
689,747	16,31
690,193	16,62
690,638	17,24
691,084	17,74
691,529	18,19
691,974	18,82
692,419	19,45
692,864	19,83
693,309	20,59
693,754	21,28
694,199	21,86
694,643	22,46
695,088	23,33
695,532	24,05
695,977	24,66
696,421	25,54
696,865	26,14
697,309	26,82
697,753	27,55
698,197	28,2
698,64	28,98
699,084	29,5
699,527	30,42
699,971	30,97
700,414	31,43
700,857	32,22
701,3	32,88
701,743	33,56
702,186	34,33
702,629	34,68
703,072	35,2
703,515	36,15
703,957	36,34
704,399	37,04
704,842	37,52
705,284	38,14
705,726	38,83
706,168	39,29
706,61	39,69
707,052	40,15
707,494	40,66
707,935	41,08
708,377	41,33
708,818	41,88
709,26	42,45
709,701	43
710,142	43,03
710,583	43,77
711,024	44,03
711,465	44,73
711,905	44,67
712,346	45,27
712,787	45,62
713,227	45,92
713,667	46,62
714,108	46,89
714,548	47,03
714,988	47,46
715,428	47,78
715,868	48,21
716,307	48,44
716,747	48,99
717,186	49,16
717,626	49,46
718,065	49,83
718,504	49,85
718,944	50,51
719,383	50,72
719,822	50,99
720,261	51,18
720,699	51,55
721,138	51,55
721,576	51,89
722,015	52,05
722,453	52,4
722,892	52,71
723,33	53
723,768	53
724,206	53,49
724,644	53,64
725,081	53,67
725,519	54,02
725,957	54
726,394	54,17
726,832	54,47
727,269	54,52
727,706	54,6
728,143	54,97
728,58	54,97
729,017	55
729,454	55,64
729,89	55,49
730,327	55,52
730,764	55,7
731,2	55,59
731,636	55,86
732,072	55,98
732,509	56
732,945	56,07
733,38	56,36
733,816	56,22
734,252	56,21
734,688	56,42
735,123	56,13
735,559	56,58
735,994	56,75
736,429	56,58
736,864	56,71
737,299	56,5
737,734	56,69
738,169	56,79
738,604	56,93
739,038	56,76
739,473	56,67
739,907	56,94
740,342	56,9
740,776	56,68
741,21	56,89
741,644	57
742,078	57,04
742,512	57,28
742,946	56,91
743,379	56,71
743,813	56,95
744,246	56,88
744,68	56,92
745,113	57,04
745,546	56,89
745,979	57,1
746,412	56,86
746,845	56,66
747,278	57,11
747,711	56,71
748,143	56,86
748,576	56,66
749,008	56,69
749,441	56,47
749,873	56,48
750,305	56,46
750,737	56,68
751,169	56,34
751,601	56,69
752,032	56,44
752,464	56,33
752,896	56,47
753,327	56,24
753,758	56,3
754,19	56,19
754,621	56,22
755,052	56,27
755,483	56,17
755,914	56,21
756,344	56,11
756,775	56,09
757,206	56,25
757,636	55,98
758,066	55,81
758,497	56,07
758,927	55,69
759,357	55,69
759,787	55,99
760,217	55,73
760,647	55,58
761,076	55,83
761,506	55,46
761,935	55,37
762,365	55,33
762,794	55,5
763,223	55,25
763,653	55,47
764,082	55,48
764,51	55,55
764,939	55,22
765,368	55,39
765,797	55,49
766,225	55,24
766,654	55,21
767,082	55,17
767,51	55,27
767,938	55,3
768,367	54,88
768,795	54,97
769,222	55,08
769,65	54,86
770,078	54,99
770,505	54,74
770,933	54,83
771,36	54,81
771,788	54,91
772,215	54,8
772,642	54,77
773,069	54,75
773,496	54,63
773,923	54,57
774,349	54,64
774,776	54,81
775,203	54,7
775,629	54,78
776,055	54,76
776,482	54,54
776,908	54,47
777,334	54,37
777,76	54,43
778,186	54,5
778,611	54,46
779,037	54,26
779,463	54,3
779,888	54,34
780,314	54,23
780,739	54,33
781,164	54,33
781,589	54,26
782,014	54,08
782,439	54,49
782,864	54,04
783,289	54,2
783,713	54,16
784,138	54,08
784,562	54,04
784,987	53,92
785,411	54,18
785,835	53,88
786,259	54,06
786,683	54,32
787,107	54,14
787,531	54,01
787,954	53,85
788,378	54,37
788,802	54,13
789,225	53,95
789,648	54,23
790,071	54,19
790,495	53,85
790,918	54,06
791,34	54,1
791,763	53,82
792,186	54,04
792,609	54,11
793,031	53,97
793,454	53,78
793,876	53,96
794,298	53,99
794,721	53,8
795,143	54,24
795,565	53,56
795,986	54,08
796,408	53,93
796,83	53,96
797,252	54,04
797,673	53,88
798,094	53,67
798,516	53,72
798,937	53,98
799,358	53,9
799,779	53,63
800,2	53,71
800,621	53,7
801,042	53,86
801,462	53,62
801,883	53,88
802,303	54,06
802,724	53,87
803,144	53,89
803,564	53,33
803,984	53,81
804,404	53,98
804,824	53,82
805,244	53,85
805,664	53,72
806,084	53,64
806,503	53,65
806,923	53,81
807,342	53,46
807,761	53,56
808,18	53,75
808,599	53,68
809,018	53,69
809,437	53,66
809,856	53,33
810,275	53,39
810,693	53,63
811,112	53,6
811,53	53,6
811,949	53,79
812,367	53,41
812,785	53,78
813,203	53,66
813,621	53,84
814,039	53,65
814,457	53,26
814,874	53,77
815,292	53,76
815,709	53,67
816,127	53,45
816,544	53,71
816,961	53,61
817,378	53,7
817,795	53,54
818,212	53,51
818,629	53,6
819,046	53,42
819,462	53,47
819,879	53,85
820,295	53,23
820,712	53,26
821,128	53,62
821,544	53,24
821,96	53,39
822,376	53,53
822,792	53,46
823,208	53,33
823,624	53,38
824,039	53,37
824,455	53,24
824,87	53,23
825,286	53,17
825,701	53,45
826,116	53,23
826,531	53,05
826,946	53,31
827,361	53,45
827,776	53,44
828,19	53,2
828,605	53,19
829,02	53,33
829,434	53,35
829,848	53,7
830,263	53,39
830,677	53,18
831,091	53,39
831,505	53,39
831,919	53,22
832,332	53,05
832,746	53,26
833,16	53,31
833,573	53,43
833,987	53,31
834,4	53,21
834,813	53,1
835,226	53,25
835,639	53,43
836,052	53,22
836,465	53,5
836,878	53,56
837,29	53,47
837,703	53,11
838,116	53,11
838,528	53,04
