Data from E4__Relative__2__00077.txt Node

Date: Tue Jan 30 17:57:35 CET 2024
User: diatiterra
Spectrometer: HDX00911
Trigger mode: 0
Integration Time (sec): 6,000000E-3
Scans to average: 3
Nonlinearity correction enabled: true
Boxcar width: 0
Storing dark spectrum: false
XAxis mode: Wavelengths
Number of Pixels in Spectrum: 2068
>>>>>Begin Spectral Data<<<<<
194,468	97,19
195,025	70,62
195,581	77,44
196,138	68,58
196,694	76,98
197,251	55,13
197,807	62,82
198,363	57,86
198,919	54,79
199,474	61,29
200,03	54,72
200,586	60,4
201,141	57,28
201,696	53,24
202,251	55,8
202,806	59,67
203,361	53,27
203,916	59,63
204,471	61,44
205,025	53,84
205,58	56,56
206,134	57,17
206,688	55,01
207,242	51,66
207,796	56,5
208,35	52,3
208,904	54,25
209,457	56,91
210,011	57,8
210,564	57,61
211,117	57,17
211,67	64,7
212,223	57,92
212,776	63,02
213,329	56,87
213,881	58,28
214,434	53,37
214,986	61,45
215,538	59,75
216,09	54,35
216,642	59,66
217,194	54,11
217,746	53,55
218,297	53,38
218,849	59,44
219,4	60,68
219,951	59,5
220,502	59,79
221,053	54,44
221,604	56,65
222,155	60,36
222,705	53,84
223,256	55,39
223,806	54,99
224,356	57,53
224,906	55,2
225,456	57,92
226,006	58,86
226,556	53,7
227,106	59,83
227,655	55,71
228,204	59,96
228,754	58,57
229,303	54,43
229,852	59,78
230,401	59,79
230,949	61,77
231,498	57,07
232,047	49,17
232,595	60,39
233,143	57,63
233,691	55,26
234,239	57,39
234,787	56,64
235,335	59,04
235,883	51,33
236,43	55,69
236,978	55,48
237,525	56,87
238,072	53,34
238,619	56,52
239,166	50,09
239,713	53,74
240,26	53,53
240,806	58,56
241,353	55,01
241,899	57,61
242,445	61,09
242,991	56,46
243,537	61,31
244,083	55,77
244,629	58,78
245,174	56,54
245,72	55,86
246,265	58,85
246,81	58,28
247,355	54,2
247,9	57,65
248,445	63,16
248,99	60,44
249,534	55,13
250,079	62,56
250,623	55,7
251,168	51,65
251,712	51,16
252,256	49,37
252,8	60,93
253,343	56,84
253,887	53,95
254,43	62,51
254,974	59,07
255,517	54,82
256,06	54,65
256,603	56,08
257,146	58,39
257,689	64,76
258,232	58,66
258,774	54,93
259,317	55,32
259,859	54,75
260,401	64,66
260,943	56,78
261,485	59,91
262,027	61,12
262,569	58,24
263,11	54,21
263,652	53,82
264,193	53,32
264,734	57,14
265,275	55,63
265,816	56,56
266,357	55,62
266,898	59,09
267,438	52,24
267,979	64,41
268,519	58,6
269,059	57,33
269,6	54,23
270,14	55,81
270,68	50,8
271,219	56,73
271,759	60,53
272,298	53,56
272,838	53,38
273,377	55,98
273,916	54,41
274,455	52,71
274,994	56,3
275,533	53,78
276,072	57,9
276,61	58,79
277,149	53,5
277,687	54,59
278,225	54,79
278,763	53,04
279,301	53,65
279,839	56,82
280,377	54,66
280,914	56,14
281,452	56,17
281,989	62,69
282,526	54,78
283,064	60,43
283,601	54,86
284,137	57,78
284,674	56,12
285,211	62,23
285,747	56,75
286,284	58,23
286,82	54,44
287,356	56,16
287,892	60,68
288,428	54,62
288,964	57,26
289,5	57,58
290,035	57,63
290,571	54,26
291,106	61,83
291,641	57,25
292,176	58,83
292,711	53,56
293,246	58,94
293,781	48,55
294,315	57,17
294,85	58,54
295,384	58,46
295,918	51,89
296,453	56,24
296,987	59,31
297,52	51,22
298,054	56,36
298,588	58,23
299,121	54,08
299,655	55,58
300,188	49,13
300,721	52,64
301,254	54,71
301,787	52,96
302,32	63,55
302,853	53,1
303,385	53,33
303,918	53,12
304,45	49,02
304,982	50,69
305,514	55,29
306,046	55,79
306,578	50,43
307,11	53,86
307,641	56,12
308,173	53,78
308,704	54,75
309,236	53,84
309,767	56,17
310,298	49,89
310,829	52,47
311,359	54,15
311,89	56,41
312,421	52,94
312,951	48,68
313,481	57,81
314,012	53,48
314,542	55,36
315,072	55,87
315,601	52,33
316,131	63,69
316,661	51,42
317,19	49,77
317,72	49,48
318,249	53,3
318,778	55,39
319,307	47,53
319,836	52,8
320,365	57,72
320,893	55,6
321,422	50,22
321,95	50,95
322,479	51,78
323,007	50,42
323,535	52,67
324,063	48,22
324,591	57,73
325,118	53,14
325,646	53,61
326,173	51,47
326,701	56,43
327,228	53,78
327,755	56,05
328,282	52,99
328,809	49,34
329,336	57,25
329,862	47,39
330,389	50,7
330,915	52,55
331,441	50,95
331,968	48,61
332,494	48,28
333,02	54,84
333,545	51,19
334,071	52,22
334,597	50,52
335,122	54,27
335,648	50,2
336,173	50,62
336,698	52,15
337,223	47,95
337,748	49,02
338,272	45,44
338,797	50,7
339,322	54,69
339,846	47,02
340,37	51,13
340,894	55,56
341,419	50,94
341,942	46,47
342,466	46,43
342,99	47,65
343,514	52,96
344,037	48,12
344,56	51,87
345,084	48,58
345,607	49,08
346,13	49,52
346,653	49,05
347,175	46,94
347,698	54,44
348,221	46,56
348,743	45,64
349,265	46,94
349,787	48,29
350,309	50,69
350,831	49,53
351,353	45,26
351,875	44,14
352,397	45,63
352,918	46,05
353,439	48,76
353,961	43,75
354,482	42,09
355,003	45,67
355,524	39,34
356,044	45,12
356,565	43,29
357,086	46,34
357,606	42,37
358,126	45,99
358,646	42,1
359,167	46,71
359,687	41,67
360,206	43,04
360,726	43,88
361,246	39,25
361,765	42,66
362,285	38,95
362,804	40,79
363,323	43,63
363,842	43,34
364,361	41,71
364,88	39,9
365,398	39,85
365,917	42,79
366,435	39,1
366,954	38,26
367,472	38,36
367,99	39,71
368,508	37,9
369,026	39,73
369,544	40,07
370,061	38,7
370,579	38,17
371,096	35,7
371,613	38,46
372,131	37,22
372,648	38,09
373,165	36,96
373,681	36,08
374,198	38,04
374,715	34,94
375,231	35,16
375,747	36,81
376,264	33,47
376,78	38,87
377,296	36,79
377,812	35,89
378,327	36,75
378,843	33,46
379,359	34,1
379,874	35,43
380,389	34,73
380,905	34,01
381,42	32,29
381,935	33,28
382,449	31,16
382,964	30,62
383,479	30,81
383,993	30,31
384,508	29,89
385,022	29,25
385,536	31,87
386,05	28,85
386,564	28,8
387,078	30,16
387,592	27,71
388,105	27,39
388,619	29,21
389,132	26,53
389,645	28,18
390,158	26,44
390,671	24,62
391,184	26,48
391,697	25,5
392,21	23,97
392,722	25,92
393,235	26,25
393,747	23,94
394,259	23,89
394,771	24,51
395,283	24,22
395,795	23,48
396,307	22,97
396,818	22,75
397,33	23,95
397,841	22,19
398,353	22
398,864	23,4
399,375	21,96
399,886	21,16
400,397	19,48
400,907	19,36
401,418	20,07
401,928	20,83
402,439	19,52
402,949	18,74
403,459	18,73
403,969	18,44
404,479	17,81
404,989	17,25
405,498	17,2
406,008	15,64
406,517	16,25
407,027	15,53
407,536	14,73
408,045	13,73
408,554	13,74
409,063	14,04
409,572	13,16
410,08	12,84
410,589	12,3
411,097	11,85
411,606	11,41
412,114	11,77
412,622	11,22
413,13	10,67
413,638	11,02
414,145	10,18
414,653	10,05
415,16	9,63
415,668	9,27
416,175	9,39
416,682	8,68
417,189	9,03
417,696	8,65
418,203	8,42
418,71	8,89
419,216	8,59
419,723	8,4
420,229	8,02
420,735	8,65
421,242	7,94
421,748	7,67
422,254	7,67
422,759	7,86
423,265	7,67
423,771	7,51
424,276	7,57
424,781	7,27
425,287	7,14
425,792	6,98
426,297	7,16
426,802	6,96
427,306	6,99
427,811	7,12
428,316	7,16
428,82	6,95
429,324	6,7
429,829	6,82
430,333	7,08
430,837	6,89
431,34	6,68
431,844	6,7
432,348	6,75
432,851	6,52
433,355	6,62
433,858	6,57
434,361	6,59
434,864	6,48
435,367	6,22
435,87	6,57
436,373	6,67
436,876	6,33
437,378	6,55
437,88	6,19
438,383	6,17
438,885	6,29
439,387	6,41
439,889	6,47
440,391	6,09
440,892	6,25
441,394	6,22
441,896	6,48
442,397	6,53
442,898	6,14
443,399	6,34
443,9	6,3
444,401	6,35
444,902	6,09
445,403	5,99
445,903	6,39
446,404	6,18
446,904	6,09
447,405	5,93
447,905	6,22
448,405	6,29
448,905	6,29
449,404	6,32
449,904	6,11
450,404	6,2
450,903	6,31
451,403	6,04
451,902	6,2
452,401	6,43
452,9	6,18
453,399	6,43
453,898	6,21
454,396	6,15
454,895	6,25
455,393	6,18
455,892	6,19
456,39	6,35
456,888	6,21
457,386	6,46
457,884	5,96
458,382	6,15
458,879	6,35
459,377	6,27
459,874	6,47
460,372	6,42
460,869	6,31
461,366	6,35
461,863	6,3
462,36	6,39
462,857	6,3
463,353	6,39
463,85	6,24
464,346	6,22
464,843	6,21
465,339	6,49
465,835	6,23
466,331	6,61
466,827	6,15
467,323	6,24
467,818	6,11
468,314	6,32
468,809	6,11
469,305	6,3
469,8	6,23
470,295	6,33
470,79	6,17
471,285	6,33
471,78	6,31
472,274	6,51
472,769	6,34
473,263	6,28
473,758	6,39
474,252	6,19
474,746	6,24
475,24	6,29
475,734	6,15
476,228	6,31
476,721	6,36
477,215	6,16
477,708	6,43
478,202	6,32
478,695	6,5
479,188	6,31
479,681	6,24
480,174	6,25
480,667	6,36
481,159	6,4
481,652	6,34
482,144	6,35
482,637	6,42
483,129	6,29
483,621	6,45
484,113	6,47
484,605	6,52
485,097	6,54
485,588	6,31
486,08	6,5
486,571	6,42
487,063	6,44
487,554	6,39
488,045	6,62
488,536	6,5
489,027	6,49
489,518	6,32
490,008	6,47
490,499	6,46
490,989	6,54
491,48	6,42
491,97	6,67
492,46	6,45
492,95	6,65
493,44	6,72
493,93	6,66
494,419	6,78
494,909	6,88
495,398	6,79
495,888	6,82
496,377	6,84
496,866	6,83
497,355	6,85
497,844	6,89
498,333	7,08
498,821	7,19
499,31	7,02
499,798	7,09
500,287	7,08
500,775	7,42
501,263	7,25
501,751	7,47
502,239	7,31
502,727	7,47
503,215	7,66
503,702	7,79
504,19	7,69
504,677	7,78
505,164	8,11
505,651	7,97
506,139	8,42
506,625	8,24
507,112	8,52
507,599	8,46
508,086	8,56
508,572	8,78
509,058	9,08
509,545	8,76
510,031	9,25
510,517	9,09
511,003	9,39
511,489	9,77
511,974	9,9
512,46	10,05
512,946	10,26
513,431	10,4
513,916	10,44
514,401	10,7
514,887	10,89
515,371	11
515,856	11,23
516,341	11,66
516,826	11,82
517,31	11,93
517,795	11,9
518,279	12,32
518,763	12,58
519,247	13,04
519,731	13,17
520,215	13,4
520,699	13,87
521,182	13,9
521,666	14,09
522,149	14,39
522,633	14,83
523,116	14,58
523,599	15,25
524,082	15,32
524,565	15,7
525,048	15,97
525,53	15,94
526,013	16,23
526,495	16,55
526,978	16,9
527,46	16,91
527,942	17,29
528,424	17,44
528,906	17,53
529,388	17,8
529,87	18,26
530,351	17,69
530,833	18,15
531,314	18,39
531,795	18,52
532,277	18,6
532,758	18,75
533,238	18,74
533,719	19,09
534,2	19,17
534,681	19,31
535,161	19,64
535,642	19,44
536,122	19,6
536,602	19,5
537,082	19,86
537,562	19,9
538,042	19,72
538,522	19,69
539,001	19,79
539,481	20,1
539,96	20,02
540,44	19,84
540,919	19,69
541,398	20,24
541,877	20,37
542,356	20,05
542,835	20,29
543,313	20,2
543,792	20,48
544,27	20,34
544,749	20,53
545,227	20,56
545,705	20,65
546,183	20,53
546,661	20,75
547,139	20,65
547,616	20,51
548,094	20,81
548,571	20,68
549,049	20,67
549,526	20,84
550,003	20,85
550,48	20,89
550,957	20,85
551,434	20,61
551,911	20,81
552,387	20,88
552,864	20,83
553,34	20,86
553,817	21,05
554,293	20,75
554,769	21,03
555,245	20,63
555,721	20,97
556,197	20,66
556,672	20,92
557,148	20,7
557,623	20,8
558,099	20,63
558,574	20,51
559,049	20,61
559,524	20,62
559,999	20,53
560,474	20,54
560,948	20,32
561,423	20,43
561,897	20,14
562,372	20,14
562,846	20,14
563,32	20,33
563,794	19,83
564,268	19,83
564,742	19,74
565,216	19,6
565,69	19,63
566,163	19,27
566,636	19,16
567,11	19,23
567,583	18,94
568,056	18,87
568,529	18,73
569,002	18,54
569,475	18,61
569,947	18,2
570,42	18,2
570,892	17,86
571,365	17,92
571,837	17,68
572,309	17,51
572,781	17,32
573,253	17,37
573,725	17,17
574,197	16,93
574,668	16,96
575,14	16,68
575,611	16,7
576,082	16,44
576,554	16,18
577,025	16,45
577,496	15,98
577,967	15,99
578,437	15,98
578,908	15,87
579,379	15,64
579,849	15,35
580,319	15,42
580,79	15,25
581,26	15,2
581,73	15,13
582,2	15,17
582,669	14,89
583,139	14,88
583,609	14,79
584,078	14,78
584,548	14,61
585,017	14,7
585,486	14,63
585,955	14,54
586,424	14,42
586,893	14,35
587,362	14,16
587,83	13,94
588,299	14,07
588,767	14,08
589,236	13,88
589,704	13,79
590,172	13,83
590,64	13,82
591,108	13,92
591,576	13,76
592,043	13,71
592,511	13,53
592,978	13,5
593,446	13,39
593,913	13,55
594,38	13,34
594,847	13,41
595,314	13,29
595,781	13,24
596,248	13,25
596,715	13,35
597,181	13,37
597,647	13,35
598,114	13,26
598,58	13,29
599,046	13,2
599,512	13,19
599,978	12,99
600,444	13,1
600,91	12,97
601,375	12,94
601,841	13,1
602,306	12,91
602,771	12,8
603,236	13
603,702	12,67
604,167	12,87
604,631	12,83
605,096	12,59
605,561	12,58
606,025	12,5
606,49	12,47
606,954	12,42
607,418	12,48
607,882	12,27
608,347	12,06
608,81	12,21
609,274	11,95
609,738	12,1
610,202	11,86
610,665	11,98
611,128	11,81
611,592	11,76
612,055	11,81
612,518	11,62
612,981	11,48
613,444	11,43
613,907	11,33
614,369	11,23
614,832	11,29
615,294	11,21
615,757	11,04
616,219	11,19
616,681	11,05
617,143	10,89
617,605	10,76
618,067	10,82
618,529	10,71
618,99	10,77
619,452	10,8
619,913	10,57
620,375	10,57
620,836	10,48
621,297	10,49
621,758	10,45
622,219	10,38
622,68	10,43
623,14	10,31
623,601	10,32
624,061	10,34
624,522	10,25
624,982	10,29
625,442	10,22
625,902	10,24
626,362	10,3
626,822	10,15
627,282	10,27
627,742	10,16
628,201	9,97
628,661	10,23
629,12	10,09
629,579	10,06
630,038	10,18
630,497	10,12
630,956	10
631,415	10
631,874	9,99
632,332	9,94
632,791	10
633,249	9,96
633,708	9,84
634,166	9,93
634,624	9,85
635,082	9,79
635,54	9,74
635,998	9,69
636,455	9,68
636,913	9,52
637,37	9,62
637,828	9,43
638,285	9,38
638,742	9,41
639,199	9,19
639,656	9,17
640,113	9,08
640,57	9,01
641,027	8,93
641,483	8,93
641,94	8,77
642,396	8,72
642,852	8,65
643,309	8,57
643,765	8,38
644,221	8,4
644,676	8,32
645,132	8,19
645,588	8,24
646,043	8,1
646,499	8,03
646,954	7,85
647,409	7,83
647,864	7,86
648,319	7,71
648,774	7,59
649,229	7,64
649,684	7,64
650,139	7,56
650,593	7,52
651,047	7,55
651,502	7,36
651,956	7,45
652,41	7,27
652,864	7,3
653,318	7,26
653,772	7,24
654,225	7,23
654,679	7,15
655,133	7,19
655,586	7,1
656,039	7,08
656,492	7,06
656,946	7,06
657,399	7,02
657,851	6,92
658,304	6,88
658,757	6,9
659,209	6,77
659,662	6,72
660,114	6,65
660,567	6,68
661,019	6,63
661,471	6,58
661,923	6,62
662,375	6,53
662,826	6,45
663,278	6,51
663,73	6,38
664,181	6,41
664,632	6,36
665,084	6,31
665,535	6,37
665,986	6,35
666,437	6,36
666,888	6,29
667,338	6,4
667,789	6,28
668,24	6,29
668,69	6,35
669,14	6,49
669,591	6,39
670,041	6,42
670,491	6,34
670,941	6,43
671,391	6,45
671,84	6,51
672,29	6,51
672,74	6,55
673,189	6,55
673,638	6,65
674,088	6,7
674,537	6,78
674,986	6,75
675,435	6,79
675,883	6,82
676,332	6,97
676,781	6,91
677,229	7,12
677,678	7,18
678,126	7,14
678,574	7,23
679,022	7,29
679,47	7,3
679,918	7,4
680,366	7,49
680,814	7,6
681,261	7,69
681,709	7,71
682,156	7,8
682,604	7,85
683,051	7,83
683,498	7,98
683,945	8,07
684,392	8,07
684,839	8,05
685,286	8,24
685,732	8,3
686,179	8,4
686,625	8,34
687,071	8,51
687,518	8,63
687,964	8,72
688,41	8,79
688,856	9,03
689,301	9,14
689,747	9,32
690,193	9,5
690,638	9,77
691,084	9,87
691,529	10,31
691,974	10,56
692,419	10,9
692,864	11,09
693,309	11,45
693,754	11,84
694,199	12,25
694,643	12,56
695,088	13,11
695,532	13,48
695,977	13,82
696,421	14,35
696,865	14,75
697,309	15,18
697,753	15,73
698,197	16,12
698,64	16,74
699,084	17,16
699,527	17,66
699,971	18,03
700,414	18,59
700,857	19,03
701,3	19,48
701,743	19,86
702,186	20,43
702,629	20,85
703,072	21,36
703,515	21,91
703,957	22,32
704,399	22,85
704,842	23,24
705,284	23,66
705,726	24,16
706,168	24,58
706,61	24,94
707,052	25,41
707,494	25,85
707,935	26,31
708,377	26,6
708,818	27,03
709,26	27,38
709,701	27,82
710,142	28,03
710,583	28,64
711,024	28,96
711,465	29,34
711,905	29,67
712,346	30,18
712,787	30,28
713,227	30,84
713,667	31,37
714,108	31,51
714,548	31,74
714,988	31,94
715,428	32,64
715,868	32,77
716,307	33,21
716,747	33,45
717,186	33,7
717,626	34,1
718,065	34,44
718,504	34,47
718,944	35,2
719,383	35,33
719,822	35,75
720,261	35,82
720,699	36,02
721,138	36,16
721,576	36,63
722,015	36,82
722,453	37,32
722,892	37,58
723,33	37,34
723,768	37,95
724,206	38,08
724,644	38,29
725,081	38,95
725,519	38,64
725,957	38,82
726,394	39,02
726,832	39,29
727,269	39,55
727,706	39,43
728,143	39,84
728,58	40,01
729,017	40,03
729,454	40,45
729,89	40,48
730,327	40,49
730,764	40,54
731,2	41,07
731,636	41,05
732,072	41,34
732,509	41,05
732,945	41,36
733,38	41,5
733,816	41,38
734,252	41,67
734,688	41,59
735,123	41,67
735,559	42,06
735,994	42,14
736,429	41,96
736,864	41,98
737,299	42,27
737,734	42,26
738,169	42,24
738,604	42,49
739,038	42,44
739,473	42,55
739,907	42,44
740,342	42,69
740,776	42,41
741,21	42,69
741,644	42,68
742,078	42,83
742,512	42,71
742,946	42,9
743,379	42,76
743,813	42,87
744,246	43,04
744,68	43,04
745,113	42,92
745,546	42,81
745,979	43
746,412	42,99
746,845	42,81
747,278	42,79
747,711	43,03
748,143	42,88
748,576	42,89
749,008	42,84
749,441	42,96
749,873	42,95
750,305	42,99
750,737	42,78
751,169	42,74
751,601	42,88
752,032	43,01
752,464	42,9
752,896	42,89
753,327	42,68
753,758	42,82
754,19	42,89
754,621	42,84
755,052	42,88
755,483	42,74
755,914	42,93
756,344	42,88
756,775	42,8
757,206	43,06
757,636	42,55
758,066	42,72
758,497	42,67
758,927	42,48
759,357	42,75
759,787	42,67
760,217	42,71
760,647	42,43
761,076	42,54
761,506	42,52
761,935	42,49
762,365	42,56
762,794	42,44
763,223	42,38
763,653	42,47
764,082	42,33
764,51	42,3
764,939	42,43
765,368	42,37
765,797	42,64
766,225	42,19
766,654	42,09
767,082	42,3
767,51	42,26
767,938	42,34
768,367	42,26
768,795	41,96
769,222	42,33
769,65	42,28
770,078	42,19
770,505	42
770,933	42,05
771,36	42,24
771,788	41,93
772,215	42,34
772,642	42,17
773,069	42,08
773,496	42,06
773,923	41,97
774,349	41,89
774,776	42,29
775,203	41,85
775,629	42,11
776,055	41,87
776,482	42,11
776,908	41,89
777,334	41,74
777,76	42
778,186	41,93
778,611	41,8
779,037	42,01
779,463	41,66
779,888	41,68
780,314	41,95
780,739	42,1
781,164	41,86
781,589	41,83
782,014	41,83
782,439	41,81
782,864	41,79
783,289	41,68
783,713	41,59
784,138	41,91
784,562	41,75
784,987	41,64
785,411	41,57
785,835	41,64
786,259	41,77
786,683	41,94
787,107	41,78
787,531	41,68
787,954	41,69
788,378	41,87
788,802	41,84
789,225	41,9
789,648	41,75
790,071	41,65
790,495	41,6
790,918	41,73
791,34	41,75
791,763	41,63
792,186	41,51
792,609	41,75
793,031	41,56
793,454	41,68
793,876	41,66
794,298	41,84
794,721	41,64
795,143	41,75
795,565	41,48
795,986	41,8
796,408	41,47
796,83	41,58
797,252	41,57
797,673	41,55
798,094	41,55
798,516	41,48
798,937	41,73
799,358	41,56
799,779	41,49
800,2	41,53
800,621	41,62
801,042	41,59
801,462	41,49
801,883	41,58
802,303	41,71
802,724	41,32
803,144	41,53
803,564	41,51
803,984	41,43
804,404	41,52
804,824	41,66
805,244	41,6
805,664	41,54
806,084	41,57
806,503	41,75
806,923	41,43
807,342	41,52
807,761	41,43
808,18	41,68
808,599	41,62
809,018	41,18
809,437	41,56
809,856	41,51
810,275	41,23
810,693	41,49
811,112	41,37
811,53	41,48
811,949	41,51
812,367	41,51
812,785	41,38
813,203	41,48
813,621	41,43
814,039	41,41
814,457	41,26
814,874	41,46
815,292	41,47
815,709	41,39
816,127	41,61
816,544	41,65
816,961	41,54
817,378	41,73
817,795	41,49
818,212	41,28
818,629	41,51
819,046	41,61
819,462	41,55
819,879	41,56
820,295	41,32
820,712	41,39
821,128	41,4
821,544	41,4
821,96	41,47
822,376	41,38
822,792	41,32
823,208	41,35
823,624	41,74
824,039	41,51
824,455	41,36
824,87	41,42
825,286	41,31
825,701	41,5
826,116	41,21
826,531	41,2
826,946	41,41
827,361	41,49
827,776	40,92
828,19	41,27
828,605	41,52
829,02	41,32
829,434	41,47
829,848	41,33
830,263	41,49
830,677	41,38
831,091	41,47
831,505	41,32
831,919	41,3
832,332	41,17
832,746	41,45
833,16	41,26
833,573	41,42
833,987	41,17
834,4	41,25
834,813	41,22
835,226	41,35
835,639	41,32
836,052	41,21
836,465	41,14
836,878	41,27
837,29	41,32
837,703	41,46
838,116	41,26
838,528	41,2
838,94	41,32
839,352	41,33
839,765	41,19
840,177	41,33
840,589	41,33
841	41,04
841,412	41,16
841,824	41,36
842,235	41,2
842,647	41,17
