Data from E6__Relative__7__00092.txt Node

Date: Tue Jan 30 17:59:37 CET 2024
User: diatiterra
Spectrometer: HDX00911
Trigger mode: 0
Integration Time (sec): 6,000000E-3
Scans to average: 3
Nonlinearity correction enabled: true
Boxcar width: 0
Storing dark spectrum: false
XAxis mode: Wavelengths
Number of Pixels in Spectrum: 2068
>>>>>Begin Spectral Data<<<<<
194,468	108,78
195,025	86,58
195,581	91,19
196,138	91,74
196,694	87,8
197,251	70,1
197,807	69,12
198,363	61,85
198,919	74,14
199,474	74,74
200,03	66,88
200,586	69,89
201,141	66,79
201,696	66,09
202,251	65,98
202,806	68,63
203,361	66,81
203,916	68,66
204,471	75,67
205,025	69,42
205,58	71,71
206,134	73,42
206,688	70,07
207,242	72,48
207,796	71,54
208,35	69,93
208,904	70,29
209,457	73,8
210,011	67,93
210,564	73,26
211,117	68,64
211,67	68,87
212,223	70,73
212,776	70,8
213,329	70,82
213,881	70,23
214,434	66,32
214,986	73,02
215,538	70,52
216,09	66,73
216,642	68,1
217,194	71,39
217,746	70,29
218,297	64,73
218,849	70,17
219,4	73,57
219,951	73,96
220,502	71,13
221,053	68,1
221,604	68,22
222,155	69,81
222,705	70,69
223,256	65,57
223,806	65,99
224,356	70,29
224,906	64,54
225,456	64,27
226,006	66,66
226,556	71,08
227,106	75,86
227,655	65,9
228,204	71,49
228,754	68,62
229,303	65,72
229,852	70,44
230,401	73,96
230,949	69,83
231,498	63,78
232,047	60,24
232,595	73,24
233,143	68,01
233,691	68,38
234,239	68,63
234,787	72,8
235,335	70,68
235,883	68,81
236,43	70,18
236,978	65,64
237,525	73,92
238,072	70,49
238,619	70,22
239,166	67,71
239,713	60,84
240,26	70,66
240,806	68,15
241,353	68,46
241,899	69,33
242,445	69,34
242,991	68,37
243,537	69,56
244,083	68,75
244,629	69,29
245,174	68,77
245,72	69,93
246,265	78,62
246,81	74,18
247,355	70,4
247,9	68,14
248,445	70,03
248,99	74,79
249,534	72,32
250,079	73,57
250,623	70,53
251,168	72,52
251,712	69,21
252,256	62,59
252,8	70,54
253,343	70,1
253,887	66,59
254,43	75,71
254,974	73,46
255,517	74,06
256,06	73,03
256,603	72,29
257,146	72,34
257,689	70,94
258,232	69,7
258,774	68,45
259,317	72,23
259,859	67,02
260,401	76,3
260,943	75,64
261,485	74,67
262,027	69,78
262,569	67,82
263,11	67,14
263,652	77,84
264,193	70,58
264,734	70,79
265,275	65,78
265,816	73,08
266,357	68,54
266,898	69,27
267,438	68,39
267,979	78,93
268,519	68,73
269,059	72,87
269,6	69,56
270,14	73,36
270,68	67,2
271,219	76,55
271,759	73,03
272,298	63,49
272,838	65,14
273,377	64,74
273,916	67,22
274,455	69,37
274,994	71,97
275,533	65,33
276,072	73,26
276,61	69,15
277,149	66,45
277,687	70,09
278,225	72,08
278,763	73,04
279,301	71,89
279,839	68,87
280,377	72,02
280,914	70,13
281,452	76,72
281,989	71,61
282,526	71,07
283,064	73,77
283,601	66,31
284,137	77,34
284,674	68,78
285,211	72,86
285,747	66,17
286,284	69,87
286,82	68,22
287,356	73,91
287,892	75,85
288,428	67,84
288,964	67,01
289,5	71,22
290,035	68,84
290,571	68,51
291,106	75,68
291,641	75,8
292,176	70,06
292,711	68,03
293,246	67,66
293,781	71,15
294,315	66,24
294,85	72,83
295,384	76,31
295,918	65,81
296,453	64,12
296,987	70,88
297,52	68
298,054	71,71
298,588	75,6
299,121	68,34
299,655	68,67
300,188	73,36
300,721	67,4
301,254	73,09
301,787	66,31
302,32	70,37
302,853	65,95
303,385	68,89
303,918	68,67
304,45	64,79
304,982	78,2
305,514	71,69
306,046	69,89
306,578	68,11
307,11	66,67
307,641	74,68
308,173	74,54
308,704	73,23
309,236	71,71
309,767	67,45
310,298	65,29
310,829	71,31
311,359	71,78
311,89	68,99
312,421	68,28
312,951	66,74
313,481	71,12
314,012	65,69
314,542	67,4
315,072	69,94
315,601	65,74
316,131	71,54
316,661	67,4
317,19	72,03
317,72	70,89
318,249	69,08
318,778	70,05
319,307	65,02
319,836	68,91
320,365	68,24
320,893	70,99
321,422	68,48
321,95	69,43
322,479	72,68
323,007	58,97
323,535	66,16
324,063	64,52
324,591	73,42
325,118	75,19
325,646	69,37
326,173	69,76
326,701	70,38
327,228	66,45
327,755	79,74
328,282	65,38
328,809	65,57
329,336	69,92
329,862	61,52
330,389	69,14
330,915	61,65
331,441	68,71
331,968	64,39
332,494	65,24
333,02	67,1
333,545	66,09
334,071	70
334,597	67,01
335,122	66,96
335,648	62,91
336,173	65,41
336,698	65,7
337,223	63,52
337,748	63,6
338,272	62,48
338,797	62,37
339,322	65,59
339,846	62,01
340,37	68,39
340,894	65,81
341,419	65,55
341,942	63,07
342,466	60,82
342,99	63,99
343,514	60,12
344,037	63,18
344,56	72,27
345,084	59,07
345,607	64,83
346,13	59,94
346,653	64,42
347,175	61
347,698	68,48
348,221	56,53
348,743	60,15
349,265	61,85
349,787	61,29
350,309	58,72
350,831	62,5
351,353	56,16
351,875	55,13
352,397	52,44
352,918	60,38
353,439	61,21
353,961	61,97
354,482	54,4
355,003	56,28
355,524	53,86
356,044	59,07
356,565	56,15
357,086	60,97
357,606	55,48
358,126	55,61
358,646	57,21
359,167	50,84
359,687	52,34
360,206	55,8
360,726	56,33
361,246	56,97
361,765	50,64
362,285	55,89
362,804	51,97
363,323	57,84
363,842	55,71
364,361	52,38
364,88	52,39
365,398	54,35
365,917	55,47
366,435	53,07
366,954	52,36
367,472	50,94
367,99	54,12
368,508	49,51
369,026	50,98
369,544	51,96
370,061	49,94
370,579	51,67
371,096	49,48
371,613	54,08
372,131	49,47
372,648	48,89
373,165	48,09
373,681	50,79
374,198	50,42
374,715	48,98
375,231	46,19
375,747	48,11
376,264	46,77
376,78	49,26
377,296	48,28
377,812	49,73
378,327	47,17
378,843	44,84
379,359	50,33
379,874	46,1
380,389	44,06
380,905	45
381,42	42,63
381,935	44,84
382,449	42,7
382,964	44,23
383,479	42,92
383,993	42,54
384,508	42,71
385,022	40,89
385,536	43,66
386,05	40,94
386,564	43,55
387,078	41,56
387,592	38,96
388,105	39,59
388,619	36,61
389,132	38,9
389,645	39,43
390,158	38,13
390,671	37,08
391,184	37,51
391,697	35,64
392,21	36,84
392,722	37,6
393,235	35,5
393,747	36,89
394,259	34,59
394,771	35,99
395,283	34,41
395,795	34,22
396,307	34,71
396,818	33,99
397,33	34,59
397,841	32,45
398,353	32,16
398,864	32,03
399,375	32,12
399,886	30,97
400,397	29,21
400,907	28,51
401,418	28,62
401,928	29,25
402,439	28,51
402,949	28,2
403,459	27,67
403,969	26,54
404,479	25,88
404,989	24,35
405,498	23,97
406,008	24,26
406,517	23,51
407,027	22,39
407,536	22,41
408,045	20,86
408,554	19,47
409,063	19,55
409,572	19,68
410,08	18,76
410,589	18,13
411,097	17,73
411,606	17,08
412,114	17,45
412,622	15,69
413,13	16,36
413,638	15,68
414,145	14,83
414,653	14,37
415,16	14,03
415,668	14,08
416,175	13,79
416,682	12,82
417,189	12,97
417,696	12,99
418,203	12,66
418,71	12,68
419,216	12,61
419,723	11,56
420,229	11,31
420,735	11,78
421,242	11,48
421,748	11,41
422,254	11,41
422,759	11,18
423,265	10,81
423,771	10,72
424,276	10,7
424,781	10,51
425,287	10,22
425,792	10,75
426,297	10,67
426,802	10,12
427,306	10,54
427,811	9,99
428,316	10,37
428,82	10,13
429,324	10,26
429,829	9,53
430,333	9,73
430,837	9,81
431,34	10,17
431,844	9,67
432,348	10,24
432,851	9,62
433,355	9,57
433,858	9,5
434,361	9,61
434,864	9,21
435,367	9,29
435,87	9,44
436,373	9,38
436,876	8,9
437,378	9,44
437,88	8,89
438,383	9,1
438,885	9,17
439,387	9,39
439,889	9,51
440,391	9,5
440,892	8,94
441,394	9,12
441,896	9,26
442,397	9,5
442,898	9,13
443,399	9,18
443,9	9,27
444,401	9,21
444,902	9,05
445,403	9,24
445,903	9,02
446,404	8,95
446,904	8,98
447,405	9
447,905	9,05
448,405	9,74
448,905	9,75
449,404	9,53
449,904	9,17
450,404	9,36
450,903	9,33
451,403	9,44
451,902	9,36
452,401	9,4
452,9	9,37
453,399	9,53
453,898	9,68
454,396	9,67
454,895	9,75
455,393	9,17
455,892	9,54
456,39	9,62
456,888	9,69
457,386	9,74
457,884	9,74
458,382	9,97
458,879	9,71
459,377	9,49
459,874	9,89
460,372	9,68
460,869	9,54
461,366	9,89
461,863	9,93
462,36	9,47
462,857	9,79
463,353	9,59
463,85	9,6
464,346	9,79
464,843	9,61
465,339	9,8
465,835	9,68
466,331	9,84
466,827	9,76
467,323	9,63
467,818	9,77
468,314	9,42
468,809	9,63
469,305	9,65
469,8	9,36
470,295	9,48
470,79	9,66
471,285	9,67
471,78	9,59
472,274	9,63
472,769	9,75
473,263	9,62
473,758	9,75
474,252	9,84
474,746	9,82
475,24	9,41
475,734	9,65
476,228	9,53
476,721	9,58
477,215	9,76
477,708	9,69
478,202	9,48
478,695	9,72
479,188	9,86
479,681	9,58
480,174	9,59
480,667	9,79
481,159	10,07
481,652	9,7
482,144	9,94
482,637	10
483,129	9,67
483,621	9,87
484,113	10,01
484,605	9,71
485,097	9,87
485,588	9,82
486,08	10,05
486,571	9,89
487,063	9,82
487,554	9,93
488,045	10,09
488,536	9,95
489,027	10,02
489,518	10,12
490,008	10,11
490,499	10,13
490,989	10,28
491,48	10,45
491,97	10,27
492,46	10,26
492,95	10,53
493,44	10,49
493,93	10,4
494,419	10,57
494,909	10,61
495,398	10,65
495,888	10,58
496,377	10,88
496,866	10,91
497,355	11,18
497,844	11,07
498,333	11,11
498,821	11,46
499,31	11,45
499,798	11,44
500,287	11,6
500,775	11,88
501,263	12,34
501,751	12,25
502,239	12,37
502,727	12,32
503,215	12,66
503,702	12,56
504,19	12,74
504,677	13,07
505,164	13,1
505,651	13,36
506,139	13,5
506,625	13,64
507,112	14,02
507,599	14,09
508,086	14,43
508,572	14,85
509,058	14,8
509,545	14,94
510,031	15,43
510,517	15,42
511,003	16,09
511,489	16,34
511,974	16,64
512,46	16,73
512,946	16,98
513,431	17,44
513,916	17,46
514,401	18,11
514,887	18,48
515,371	18,71
515,856	19,21
516,341	19,53
516,826	19,72
517,31	20,01
517,795	20,5
518,279	20,76
518,763	21,19
519,247	21,54
519,731	21,76
520,215	22,18
520,699	22,74
521,182	23,1
521,666	23,64
522,149	23,85
522,633	24,17
523,116	24,64
523,599	24,83
524,082	25,57
524,565	25,64
525,048	26,05
525,53	26,49
526,013	26,78
526,495	27,14
526,978	27,57
527,46	27,65
527,942	28,09
528,424	28,5
528,906	28,52
529,388	28,85
529,87	29,38
530,351	29,35
530,833	29,43
531,314	29,87
531,795	29,69
532,277	30,21
532,758	30,43
533,238	30,53
533,719	30,73
534,2	30,76
534,681	30,94
535,161	31,38
535,642	31,01
536,122	31,1
536,602	31,3
537,082	31,8
537,562	31,86
538,042	31,83
538,522	31,96
539,001	32,17
539,481	32,44
539,96	31,87
540,44	32,14
540,919	31,93
541,398	32,05
541,877	32,91
542,356	32,49
542,835	32,55
543,313	32,6
543,792	32,66
544,27	32,31
544,749	32,51
545,227	32,87
545,705	32,72
546,183	32,69
546,661	32,82
547,139	33,08
547,616	32,81
548,094	32,99
548,571	33,26
549,049	32,64
549,526	33,23
550,003	33,31
550,48	33,01
550,957	33,26
551,434	33,22
551,911	33,02
552,387	33,26
552,864	33,37
553,34	33,3
553,817	33,85
554,293	33,37
554,769	33,62
555,245	33,41
555,721	33,26
556,197	33,39
556,672	33,24
557,148	33,28
557,623	33,16
558,099	33,28
558,574	33,23
559,049	33,22
559,524	33,15
559,999	33,18
560,474	33,19
560,948	32,74
561,423	32,79
561,897	32,64
562,372	32,4
562,846	32,52
563,32	32,46
563,794	32,18
564,268	32,14
564,742	31,94
565,216	31,9
565,69	31,66
566,163	31,72
566,636	31,22
567,11	31,5
567,583	30,89
568,056	30,72
568,529	30,63
569,002	30,35
569,475	30,34
569,947	29,9
570,42	29,72
570,892	29,55
571,365	29,45
571,837	29,25
572,309	29,09
572,781	28,93
573,253	28,53
573,725	28,36
574,197	28,16
574,668	28,21
575,14	27,78
575,611	27,54
576,082	27,41
576,554	27,34
577,025	27,22
577,496	26,78
577,967	26,78
578,437	26,41
578,908	26,41
579,379	26,3
579,849	25,95
580,319	26,01
580,79	25,54
581,26	25,76
581,73	25,46
582,2	25,42
582,669	25,2
583,139	24,98
583,609	24,91
584,078	24,81
584,548	24,66
585,017	24,7
585,486	24,36
585,955	24
586,424	24,4
586,893	24,13
587,362	23,92
587,83	23,93
588,299	23,82
588,767	23,52
589,236	23,61
589,704	23,57
590,172	23,41
590,64	23,19
591,108	23,31
591,576	23,09
592,043	23,26
592,511	23,12
592,978	22,89
593,446	22,73
593,913	22,65
594,38	22,83
594,847	22,45
595,314	22,51
595,781	22,65
596,248	22,56
596,715	22,46
597,181	22,35
597,647	22,36
598,114	22,28
598,58	22,29
599,046	22,31
599,512	22,18
599,978	21,98
600,444	22,05
600,91	21,93
601,375	22,01
601,841	21,93
602,306	22,12
602,771	21,93
603,236	21,93
603,702	21,81
604,167	21,63
604,631	21,58
605,096	21,45
605,561	21,6
606,025	21,2
606,49	21,17
606,954	21,32
607,418	21,01
607,882	20,95
608,347	20,89
608,81	20,88
609,274	20,59
609,738	20,58
610,202	20,52
610,665	20,25
611,128	20,36
611,592	20,29
612,055	20,1
612,518	20
612,981	20,03
613,444	19,97
613,907	19,92
614,369	19,58
614,832	19,71
615,294	19,31
615,757	19,25
616,219	19,26
616,681	19,11
617,143	19,02
617,605	18,93
618,067	18,76
618,529	18,6
618,99	18,62
619,452	18,58
619,913	18,55
620,375	18,32
620,836	18,4
621,297	18,17
621,758	18,28
622,219	17,89
622,68	17,98
623,14	18,17
623,601	17,93
624,061	17,91
624,522	17,84
624,982	17,81
625,442	17,78
625,902	17,72
626,362	17,69
626,822	17,76
627,282	17,75
627,742	17,67
628,201	17,7
628,661	17,55
629,12	17,71
629,579	17,6
630,038	17,66
630,497	17,34
630,956	17,32
631,415	17,51
631,874	17,44
632,332	17,31
632,791	17,38
633,249	17,3
633,708	17,01
634,166	17,3
634,624	17,13
635,082	16,95
635,54	16,78
635,998	16,67
636,455	16,65
636,913	16,46
637,37	16,4
637,828	16,29
638,285	16,28
638,742	16
639,199	15,7
639,656	15,58
640,113	15,63
640,57	15,44
641,027	15,27
641,483	15,18
641,94	14,91
642,396	14,81
642,852	14,64
643,309	14,5
643,765	14,38
644,221	14,19
644,676	13,99
645,132	13,79
645,588	13,91
646,043	13,74
646,499	13,59
646,954	13,33
647,409	13,31
647,864	13,14
648,319	12,9
648,774	12,93
649,229	12,73
649,684	12,78
650,139	12,62
650,593	12,7
651,047	12,61
651,502	12,39
651,956	12,34
652,41	12,3
652,864	12,35
653,318	12,16
653,772	12,24
654,225	12,17
654,679	12,05
655,133	12,02
655,586	11,93
656,039	11,85
656,492	11,96
656,946	11,68
657,399	11,73
657,851	11,63
658,304	11,53
658,757	11,42
659,209	11,35
659,662	11,26
660,114	11,24
660,567	11,14
661,019	11,08
661,471	10,95
661,923	10,85
662,375	10,77
662,826	10,67
663,278	10,63
663,73	10,47
664,181	10,47
664,632	10,42
665,084	10,29
665,535	10,28
665,986	10,24
666,437	10,15
666,888	10,11
667,338	10,03
667,789	10,12
668,24	9,96
668,69	9,98
669,14	10,12
669,591	10,11
670,041	10,17
670,491	9,94
670,941	10,15
671,391	10,06
671,84	10,24
672,29	10,28
672,74	10,27
673,189	10,26
673,638	10,42
674,088	10,47
674,537	10,54
674,986	10,62
675,435	10,59
675,883	10,72
676,332	10,74
676,781	10,92
677,229	10,99
677,678	11,07
678,126	11,22
678,574	11,32
679,022	11,49
679,47	11,54
679,918	11,68
680,366	11,81
680,814	11,86
681,261	12,06
681,709	12,18
682,156	12,18
682,604	12,48
683,051	12,62
683,498	12,72
683,945	12,9
684,392	12,98
684,839	13,21
685,286	13,37
685,732	13,58
686,179	13,76
686,625	13,93
687,071	14,08
687,518	14,36
687,964	14,41
688,41	14,94
688,856	15,18
689,301	15,55
689,747	15,8
690,193	16,31
690,638	16,62
691,084	17,16
691,529	17,53
691,974	18
692,419	18,62
692,864	19,07
693,309	19,75
693,754	20,15
694,199	20,87
694,643	21,35
695,088	22,2
695,532	22,79
695,977	23,36
696,421	23,93
696,865	24,74
697,309	25,41
697,753	26,07
698,197	26,66
698,64	27,41
699,084	27,96
699,527	28,59
699,971	29,02
700,414	29,9
700,857	30,45
701,3	31,22
701,743	31,66
702,186	32,38
702,629	32,9
703,072	33,39
703,515	34,2
703,957	34,46
704,399	35,28
704,842	35,6
705,284	36,28
705,726	36,78
706,168	37,24
706,61	37,83
707,052	38,14
707,494	38,56
707,935	39,14
708,377	39,58
708,818	40,05
709,26	40,88
709,701	41,22
710,142	41,35
710,583	41,85
711,024	42,37
711,465	42,88
711,905	43,1
712,346	43,62
712,787	43,91
713,227	44,13
713,667	44,9
714,108	45,25
714,548	45,66
714,988	45,86
715,428	46,22
715,868	46,6
716,307	46,8
716,747	47,5
717,186	47,62
717,626	47,86
718,065	48,39
718,504	48,56
718,944	49,06
719,383	49,49
719,822	49,4
720,261	49,77
720,699	50,18
721,138	50,25
721,576	50,45
722,015	50,69
722,453	51,17
722,892	51,31
723,33	51,83
723,768	51,93
724,206	52,28
724,644	52,48
725,081	52,62
725,519	52,93
725,957	52,76
726,394	53,14
726,832	53,41
727,269	53,79
727,706	53,72
728,143	53,98
728,58	54,1
729,017	54,2
729,454	54,51
729,89	54,63
730,327	54,59
730,764	54,85
731,2	54,95
731,636	55,11
732,072	55,22
732,509	55,29
732,945	55,37
733,38	55,44
733,816	55,62
734,252	55,56
734,688	55,54
735,123	55,8
735,559	56
735,994	55,94
736,429	56,14
736,864	56,34
737,299	55,98
737,734	56,18
738,169	55,98
738,604	56,28
739,038	56,36
739,473	56,29
739,907	56,3
740,342	56,29
740,776	56,13
741,21	56,56
741,644	56,62
742,078	56,68
742,512	56,58
742,946	56,46
743,379	56,41
743,813	56,6
744,246	56,49
744,68	56,73
745,113	56,57
745,546	56,41
745,979	56,41
746,412	56,55
746,845	56,28
747,278	56,36
747,711	56,41
748,143	56,38
748,576	56,35
749,008	56,33
749,441	56,1
749,873	55,92
750,305	56,07
750,737	56,16
751,169	55,96
751,601	56,13
752,032	56
752,464	56,1
752,896	56,07
753,327	55,87
753,758	55,74
754,19	55,78
754,621	55,94
755,052	56,08
755,483	55,73
755,914	56,07
756,344	55,73
756,775	55,82
757,206	55,76
757,636	55,74
758,066	55,69
758,497	55,75
758,927	55,54
759,357	55,32
759,787	55,7
760,217	55,45
760,647	55,29
761,076	55,4
761,506	55,42
761,935	55,11
762,365	55,57
762,794	55,2
763,223	54,92
763,653	55,25
764,082	54,96
764,51	55,17
764,939	54,97
765,368	55,05
765,797	55,31
766,225	54,95
766,654	54,84
767,082	54,71
767,51	54,92
767,938	54,82
768,367	54,7
768,795	54,59
769,222	54,77
769,65	54,86
770,078	54,76
770,505	54,56
770,933	54,31
771,36	54,39
771,788	54,38
772,215	54,43
772,642	54,22
773,069	54,34
773,496	54,45
773,923	54,46
774,349	54,3
774,776	54,26
775,203	54,36
775,629	54,08
776,055	54,15
776,482	54,21
776,908	54,38
777,334	54,2
777,76	54,05
778,186	54,26
778,611	54,21
779,037	54,35
779,463	53,93
779,888	54,02
780,314	54,1
780,739	54,18
781,164	53,98
781,589	53,91
782,014	53,81
782,439	54,04
782,864	54,05
783,289	54,12
783,713	53,89
784,138	53,78
784,562	53,88
784,987	53,73
785,411	53,91
785,835	53,72
786,259	53,76
786,683	54,09
787,107	53,97
787,531	53,62
787,954	53,61
788,378	53,84
788,802	53,85
789,225	53,77
789,648	53,63
790,071	53,7
790,495	53,44
790,918	53,87
791,34	53,69
791,763	53,61
792,186	53,55
792,609	53,81
793,031	53,57
793,454	53,41
793,876	53,52
794,298	53,43
794,721	53,39
795,143	53,79
795,565	53,66
795,986	53,69
796,408	53,66
796,83	53,46
797,252	53,61
797,673	53,43
798,094	53,53
798,516	53,52
798,937	53,65
799,358	53,42
799,779	53,29
800,2	53,48
800,621	53,43
801,042	53,41
801,462	53,33
801,883	53,52
802,303	53,44
802,724	53,36
803,144	53,44
803,564	53,39
803,984	53,47
804,404	53,59
804,824	53,41
805,244	53,29
805,664	53,6
806,084	53,37
806,503	53,62
806,923	53,4
807,342	53,46
807,761	53,06
808,18	53,42
808,599	53,55
809,018	53,1
809,437	53,44
809,856	53,13
810,275	53,21
810,693	53,17
811,112	53,17
811,53	53,18
811,949	53,3
812,367	53,02
812,785	53,46
813,203	53,33
813,621	53,4
814,039	53,22
814,457	52,77
814,874	53,55
815,292	53,32
815,709	53,07
816,127	53,18
816,544	53,33
816,961	53,12
817,378	53,36
817,795	53,21
818,212	53,2
818,629	53,2
819,046	53,07
819,462	53,22
819,879	53,1
820,295	52,98
820,712	52,99
821,128	53,04
821,544	52,98
821,96	53,05
822,376	53,07
822,792	53,17
823,208	53,17
823,624	53,29
824,039	53,02
824,455	53,01
824,87	53,07
825,286	53,04
825,701	53,04
826,116	52,97
826,531	52,82
826,946	52,96
827,361	52,77
827,776	53,24
828,19	52,99
828,605	52,92
829,02	52,96
829,434	52,96
829,848	52,9
830,263	53,11
830,677	52,86
831,091	53,14
831,505	52,99
831,919	53,04
832,332	52,8
832,746	52,9
833,16	52,75
833,573	53,03
833,987	53,06
834,4	52,76
834,813	52,72
835,226	52,79
835,639	52,64
836,052	52,88
836,465	52,86
836,878	53,07
