Data from F1__Relative__1__00094.txt Node

Date: Tue Jan 30 18:00:24 CET 2024
User: diatiterra
Spectrometer: HDX00911
Trigger mode: 0
Integration Time (sec): 6,000000E-3
Scans to average: 3
Nonlinearity correction enabled: true
Boxcar width: 0
Storing dark spectrum: false
XAxis mode: Wavelengths
Number of Pixels in Spectrum: 2068
>>>>>Begin Spectral Data<<<<<
194,468	107
195,025	85,62
195,581	95,31
196,138	83,57
196,694	86
197,251	69,15
197,807	67,65
198,363	63,94
198,919	68,92
199,474	71,77
200,03	66,25
200,586	70,1
201,141	59,91
201,696	54,36
202,251	62,72
202,806	62,11
203,361	68,29
203,916	66,66
204,471	63,3
205,025	64,77
205,58	63,63
206,134	69,83
206,688	59,63
207,242	60,69
207,796	65,85
208,35	64,32
208,904	66,13
209,457	67,16
210,011	66,45
210,564	66,72
211,117	71,51
211,67	71,5
212,223	68,29
212,776	65,12
213,329	70,6
213,881	70,02
214,434	60,74
214,986	67,24
215,538	68,69
216,09	65,91
216,642	69,13
217,194	64,81
217,746	68,62
218,297	67,12
218,849	69,1
219,4	68,71
219,951	70,04
220,502	68,04
221,053	66,86
221,604	65,67
222,155	74,53
222,705	67,77
223,256	66,59
223,806	68,19
224,356	66,32
224,906	66,45
225,456	63,08
226,006	65,1
226,556	63,27
227,106	70,09
227,655	69,22
228,204	70,44
228,754	66,73
229,303	65,52
229,852	70,66
230,401	70
230,949	70,66
231,498	65,12
232,047	65,77
232,595	68,31
233,143	69,28
233,691	67,98
234,239	64,68
234,787	71,77
235,335	65,48
235,883	71,02
236,43	66,25
236,978	64,02
237,525	65,29
238,072	63,17
238,619	64,57
239,166	67,51
239,713	64,9
240,26	68,95
240,806	64,89
241,353	63,44
241,899	64,44
242,445	64,9
242,991	63,44
243,537	67,02
244,083	61,66
244,629	68,68
245,174	68,56
245,72	67,16
246,265	72,11
246,81	68
247,355	62,63
247,9	67,93
248,445	67,74
248,99	67,83
249,534	66,07
250,079	70,49
250,623	64,32
251,168	66,32
251,712	67,08
252,256	59,28
252,8	62,98
253,343	68
253,887	62,05
254,43	68,07
254,974	69,7
255,517	68,02
256,06	69,17
256,603	67,38
257,146	64,93
257,689	73
258,232	68,18
258,774	67,17
259,317	66,6
259,859	61,94
260,401	74,95
260,943	69,71
261,485	65,42
262,027	70,23
262,569	66,59
263,11	63,65
263,652	69,99
264,193	67,7
264,734	71,86
265,275	58,94
265,816	66,29
266,357	66,25
266,898	65,15
267,438	61,89
267,979	70,08
268,519	67,41
269,059	67,18
269,6	69,56
270,14	69,03
270,68	64,16
271,219	70,4
271,759	67,98
272,298	63,06
272,838	62,31
273,377	67,73
273,916	60,5
274,455	67,29
274,994	71,97
275,533	65,33
276,072	69,75
276,61	64,87
277,149	61,36
277,687	68,12
278,225	66,46
278,763	72,59
279,301	67,82
279,839	67,28
280,377	65,51
280,914	64,83
281,452	75,81
281,989	71,85
282,526	61,91
283,064	67,53
283,601	68,25
284,137	68,01
284,674	66,67
285,211	71,28
285,747	68,53
286,284	65,08
286,82	63,77
287,356	68,06
287,892	73,48
288,428	68,5
288,964	66,39
289,5	69,05
290,035	72,43
290,571	63,62
291,106	74,24
291,641	70,82
292,176	69,02
292,711	63,93
293,246	71,49
293,781	68,91
294,315	63,92
294,85	73,98
295,384	72,32
295,918	64,76
296,453	66,96
296,987	67,24
297,52	67,78
298,054	65,57
298,588	68,56
299,121	67,88
299,655	64,81
300,188	65,07
300,721	64,76
301,254	66,97
301,787	71,82
302,32	74,61
302,853	68,09
303,385	70,22
303,918	71,07
304,45	61,33
304,982	66,15
305,514	71,69
306,046	65,89
306,578	65,74
307,11	62,92
307,641	74,45
308,173	60,39
308,704	71,15
309,236	69,85
309,767	62,55
310,298	65,73
310,829	69,52
311,359	70,33
311,89	68,32
312,421	65,12
312,951	61,01
313,481	70,89
314,012	67,79
314,542	62,15
315,072	63,76
315,601	62,76
316,131	68,17
316,661	66,96
317,19	63,41
317,72	62,78
318,249	63,75
318,778	64,23
319,307	59,87
319,836	61,75
320,365	68,94
320,893	63,3
321,422	64,35
321,95	64,76
322,479	66,23
323,007	57,26
323,535	62,09
324,063	62,51
324,591	69,33
325,118	65,44
325,646	62,8
326,173	59,6
326,701	68,63
327,228	66
327,755	69,59
328,282	58,33
328,809	65,57
329,336	67,88
329,862	64,35
330,389	61,76
330,915	69,19
331,441	64,9
331,968	62,04
332,494	61,41
333,02	62,15
333,545	65,23
334,071	61,56
334,597	66,59
335,122	67,62
335,648	63,12
336,173	62,29
336,698	63,85
337,223	62,49
337,748	66,33
338,272	58,89
338,797	60,15
339,322	67,77
339,846	61,6
340,37	61,44
340,894	68,16
341,419	61,79
341,942	54,48
342,466	57,72
342,99	62,05
343,514	64,21
344,037	58,16
344,56	62,56
345,084	58,54
345,607	61,6
346,13	60,31
346,653	60,9
347,175	58,72
347,698	62,6
348,221	53,95
348,743	58,91
349,265	60,01
349,787	58,44
350,309	59,44
350,831	60,33
351,353	53,68
351,875	54,63
352,397	54,45
352,918	57,65
353,439	56,72
353,961	59,93
354,482	54,25
355,003	55,03
355,524	52,62
356,044	58,09
356,565	54,85
357,086	55,43
357,606	54,04
358,126	54,54
358,646	52,33
359,167	55,41
359,687	53,74
360,206	53,49
360,726	57,66
361,246	54,31
361,765	52,15
362,285	58,06
362,804	53,32
363,323	52,15
363,842	57,27
364,361	52,51
364,88	54,84
365,398	53,96
365,917	55,06
366,435	54
366,954	56,53
367,472	53,3
367,99	56,27
368,508	53,58
369,026	52,69
369,544	53,19
370,061	53,07
370,579	50,05
371,096	54,34
371,613	52,19
372,131	53,87
372,648	50,65
373,165	48,74
373,681	51,33
374,198	51,08
374,715	50,03
375,231	51,91
375,747	54,67
376,264	46,58
376,78	50,29
377,296	49,15
377,812	52,05
378,327	51,25
378,843	47,33
379,359	49,51
379,874	54,2
380,389	48,94
380,905	46,14
381,42	46,53
381,935	47
382,449	44,95
382,964	44,62
383,479	45,98
383,993	43,23
384,508	43,36
385,022	43,91
385,536	45,47
386,05	42,77
386,564	43,69
387,078	45,11
387,592	42,75
388,105	42,27
388,619	40,73
389,132	41,37
389,645	43,07
390,158	40,8
390,671	39,92
391,184	39,1
391,697	38,93
392,21	38,34
392,722	38,62
393,235	37,72
393,747	36,84
394,259	38,08
394,771	37,22
395,283	35,07
395,795	36,57
396,307	36,76
396,818	35,81
397,33	34,79
397,841	32,17
398,353	33,91
398,864	34,67
399,375	34,45
399,886	33,97
400,397	32,4
400,907	31,45
401,418	30,53
401,928	31,26
402,439	30,6
402,949	29,19
403,459	29,48
403,969	28,26
404,479	28,16
404,989	25,27
405,498	26,28
406,008	26,05
406,517	24,96
407,027	25,31
407,536	23,54
408,045	22,18
408,554	22,74
409,063	21,83
409,572	20,29
410,08	20,54
410,589	19,57
411,097	19,33
411,606	19,3
412,114	18,09
412,622	18,14
413,13	17,14
413,638	16,67
414,145	15,97
414,653	16,22
415,16	15,67
415,668	16,02
416,175	14,68
416,682	14,17
417,189	14,48
417,696	13,85
418,203	13,59
418,71	13,84
419,216	13,39
419,723	13,54
420,229	13,67
420,735	12,77
421,242	13,37
421,748	12,97
422,254	12,45
422,759	12,42
423,265	12,34
423,771	12,28
424,276	12,18
424,781	11,65
425,287	11,63
425,792	11,76
426,297	12
426,802	11,3
427,306	11,45
427,811	11,61
428,316	11,48
428,82	11,44
429,324	11,36
429,829	11,04
430,333	11,4
430,837	11,19
431,34	10,8
431,844	10,82
432,348	10,94
432,851	10,79
433,355	10,73
433,858	10,99
434,361	10,72
434,864	10,46
435,367	10,35
435,87	10,57
436,373	10,66
436,876	10,3
437,378	10,49
437,88	10,12
438,383	10,11
438,885	10,42
439,387	10,2
439,889	10,33
440,391	10,37
440,892	10,53
441,394	10,54
441,896	10,22
442,397	10,4
442,898	10,34
443,399	10,28
443,9	10,07
444,401	10,36
444,902	9,95
445,403	10,14
445,903	10,4
446,404	10,57
446,904	10,31
447,405	10,36
447,905	10,52
448,405	10,83
448,905	10,69
449,404	10,59
449,904	10,39
450,404	10,63
450,903	11,19
451,403	10,86
451,902	10,78
452,401	10,55
452,9	10,81
453,399	10,72
453,898	10,88
454,396	11,27
454,895	10,79
455,393	10,69
455,892	10,84
456,39	10,89
456,888	10,94
457,386	10,8
457,884	10,81
458,382	11,11
458,879	11,17
459,377	11,26
459,874	10,81
460,372	11,06
460,869	11,11
461,366	10,95
461,863	11,23
462,36	11,09
462,857	11,2
463,353	11,02
463,85	10,94
464,346	11,09
464,843	11,06
465,339	11,35
465,835	10,99
466,331	11,12
466,827	11,1
467,323	10,99
467,818	11,14
468,314	10,76
468,809	10,72
469,305	11,01
469,8	10,79
470,295	11,21
470,79	11,28
471,285	11,14
471,78	10,9
472,274	11,04
472,769	11,06
473,263	11,08
473,758	11,06
474,252	11,05
474,746	11,14
475,24	11,14
475,734	11,13
476,228	10,88
476,721	10,99
477,215	10,92
477,708	11,39
478,202	11,43
478,695	11,16
479,188	11,06
479,681	11,19
480,174	11,11
480,667	11,18
481,159	11,14
481,652	11,42
482,144	11,38
482,637	11,3
483,129	11,18
483,621	11,47
484,113	11,47
484,605	11,38
485,097	11,24
485,588	11,14
486,08	11,3
486,571	11,49
487,063	11,19
487,554	11,41
488,045	11,61
488,536	11,75
489,027	11,39
489,518	11,48
490,008	11,49
490,499	11,45
490,989	11,66
491,48	11,77
491,97	11,92
492,46	11,91
492,95	11,95
493,44	12,08
493,93	12,18
494,419	12,17
494,909	12,07
495,398	12,1
495,888	12,17
496,377	12,24
496,866	12,28
497,355	12,82
497,844	12,49
498,333	12,73
498,821	12,79
499,31	12,87
499,798	12,87
500,287	12,97
500,775	12,98
501,263	13,39
501,751	13,67
502,239	13,56
502,727	13,79
503,215	13,69
503,702	13,82
504,19	13,84
504,677	14,54
505,164	14,34
505,651	14,4
506,139	14,41
506,625	14,7
507,112	15,15
507,599	15,27
508,086	15,15
508,572	15,76
509,058	16,04
509,545	15,96
510,031	16,21
510,517	16,33
511,003	16,74
511,489	17,17
511,974	17,12
512,46	17,29
512,946	17,63
513,431	18,07
513,916	18,04
514,401	18,39
514,887	18,8
515,371	19,07
515,856	19,37
516,341	19,42
516,826	19,64
517,31	19,79
517,795	20,39
518,279	20,75
518,763	20,91
519,247	21,38
519,731	21,48
520,215	21,98
520,699	22,2
521,182	22,46
521,666	22,81
522,149	23,05
522,633	23,59
523,116	23,43
523,599	24,28
524,082	24,55
524,565	24,64
525,048	25,13
525,53	25,24
526,013	25,54
526,495	25,83
526,978	25,98
527,46	26,18
527,942	26,64
528,424	26,6
528,906	26,75
529,388	26,88
529,87	27,12
530,351	27,29
530,833	27,58
531,314	27,61
531,795	27,89
532,277	28,26
532,758	28,48
533,238	28,48
533,719	28,46
534,2	28,48
534,681	28,81
535,161	28,62
535,642	28,93
536,122	28,72
536,602	29,19
537,082	29,38
537,562	29,34
538,042	29,39
538,522	29,06
539,001	29,68
539,481	29,8
539,96	29,64
540,44	29,54
540,919	29,57
541,398	29,85
541,877	30,2
542,356	29,77
542,835	30,01
543,313	29,88
543,792	30,45
544,27	30,06
544,749	30
545,227	30,16
545,705	30,53
546,183	30,04
546,661	30,1
547,139	30,06
547,616	30,39
548,094	30,26
548,571	30,4
549,049	30,29
549,526	30,36
550,003	30,4
550,48	30,52
550,957	30,63
551,434	30,34
551,911	30,55
552,387	30,69
552,864	30,37
553,34	30,57
553,817	30,54
554,293	30,53
554,769	30,82
555,245	30,48
555,721	30,51
556,197	30,51
556,672	30,46
557,148	30,55
557,623	30,67
558,099	30,73
558,574	30,58
559,049	30,26
559,524	30,36
559,999	30,32
560,474	30,35
560,948	30,22
561,423	30,11
561,897	30,07
562,372	29,86
562,846	29,91
563,32	29,88
563,794	29,55
564,268	29,66
564,742	29,23
565,216	29,53
565,69	29,26
566,163	29,16
566,636	28,89
567,11	28,89
567,583	28,63
568,056	28,43
568,529	28,53
569,002	28,21
569,475	28,4
569,947	27,43
570,42	27,9
570,892	27,61
571,365	27,47
571,837	27,21
572,309	27,11
572,781	27,12
573,253	26,87
573,725	26,54
574,197	26,58
574,668	26,14
575,14	26,26
575,611	26,03
576,082	25,78
576,554	25,93
577,025	25,71
577,496	25,27
577,967	25,12
578,437	25,03
578,908	24,85
579,379	24,88
579,849	25,04
580,319	24,54
580,79	24,34
581,26	24,52
581,73	24,11
582,2	24,13
582,669	23,91
583,139	23,56
583,609	23,69
584,078	23,66
584,548	23,46
585,017	23,61
585,486	23,39
585,955	23,28
586,424	23,18
586,893	23,06
587,362	23
587,83	22,78
588,299	22,67
588,767	22,61
589,236	22,62
589,704	22,43
590,172	22,55
590,64	22,54
591,108	22,24
591,576	22,31
592,043	22,26
592,511	22,2
592,978	22,14
593,446	22,33
593,913	21,92
594,38	21,93
594,847	21,86
595,314	21,76
595,781	21,75
596,248	22,04
596,715	21,69
597,181	21,68
597,647	21,77
598,114	21,6
598,58	21,71
599,046	21,62
599,512	21,53
599,978	21,49
600,444	21,43
600,91	21,36
601,375	21,36
601,841	21,19
602,306	21,22
602,771	21,24
603,236	21,19
603,702	21,15
604,167	21,05
604,631	21,06
605,096	20,83
605,561	20,86
606,025	20,77
606,49	20,63
606,954	20,78
607,418	20,47
607,882	20,37
608,347	20,52
608,81	20,36
609,274	20,16
609,738	20,17
610,202	20
610,665	20,04
611,128	19,9
611,592	19,74
612,055	19,84
612,518	19,68
612,981	19,4
613,444	19,43
613,907	19,34
614,369	19,18
614,832	19,24
615,294	18,98
615,757	18,93
616,219	18,85
616,681	18,87
617,143	18,75
617,605	18,47
618,067	18,64
618,529	18,31
618,99	18,25
619,452	18,31
619,913	18,27
620,375	18,2
620,836	18,17
621,297	18,01
621,758	18,07
622,219	18
622,68	18,05
623,14	18,07
623,601	17,83
624,061	17,74
624,522	17,73
624,982	17,53
625,442	17,63
625,902	17,55
626,362	17,64
626,822	17,59
627,282	17,65
627,742	17,38
628,201	17,56
628,661	17,48
629,12	17,37
629,579	17,35
630,038	17,43
630,497	17,37
630,956	17,56
631,415	17,28
631,874	17,29
632,332	17,27
632,791	17,22
633,249	17,12
633,708	17,19
634,166	17,12
634,624	16,9
635,082	16,87
635,54	16,79
635,998	16,79
636,455	16,78
636,913	16,59
637,37	16,49
637,828	16,49
638,285	16,53
638,742	16,27
639,199	16,08
639,656	16,05
640,113	15,9
640,57	15,73
641,027	15,67
641,483	15,63
641,94	15,41
642,396	15,29
642,852	15,27
643,309	15,19
643,765	15,12
644,221	14,8
644,676	14,76
645,132	14,63
645,588	14,4
646,043	14,3
646,499	14,3
646,954	14,12
647,409	14,03
647,864	13,89
648,319	13,91
648,774	13,81
649,229	13,69
649,684	13,58
650,139	13,57
650,593	13,54
651,047	13,41
651,502	13,28
651,956	13,27
652,41	13,14
652,864	13,2
653,318	13,1
653,772	12,92
654,225	13,02
654,679	12,9
655,133	12,83
655,586	12,77
656,039	12,68
656,492	12,68
656,946	12,53
657,399	12,51
657,851	12,44
658,304	12,31
658,757	12,16
659,209	12,02
659,662	12,09
660,114	12,03
660,567	11,95
661,019	11,73
661,471	11,75
661,923	11,58
662,375	11,67
662,826	11,52
663,278	11,4
663,73	11,28
664,181	11,28
664,632	11,07
665,084	11,05
665,535	11,06
665,986	11,05
666,437	10,96
666,888	10,83
667,338	10,8
667,789	10,9
668,24	10,87
668,69	10,82
669,14	10,84
669,591	10,78
670,041	10,81
670,491	10,64
670,941	10,83
671,391	10,66
671,84	10,86
672,29	10,77
672,74	10,77
673,189	10,87
673,638	10,89
674,088	10,87
674,537	10,97
674,986	11,04
675,435	11,02
675,883	11,03
676,332	11,1
676,781	11,24
677,229	11,26
677,678	11,37
678,126	11,41
678,574	11,59
679,022	11,65
679,47	11,69
679,918	11,77
680,366	11,85
680,814	12
681,261	12,03
681,709	12,18
682,156	12,36
682,604	12,36
683,051	12,64
683,498	12,67
683,945	12,8
684,392	12,93
684,839	13,01
685,286	13,25
685,732	13,42
686,179	13,5
686,625	13,67
687,071	13,95
687,518	14,15
687,964	14,35
688,41	14,55
688,856	14,86
689,301	15,18
689,747	15,44
690,193	15,71
690,638	16,12
691,084	16,44
691,529	16,84
691,974	17,2
692,419	17,55
692,864	17,97
693,309	18,59
693,754	19,03
694,199	19,44
694,643	19,93
695,088	20,65
695,532	21,02
695,977	21,47
696,421	22,08
696,865	22,54
697,309	23,28
697,753	23,71
698,197	24,34
698,64	24,8
699,084	25,12
699,527	25,89
699,971	26,15
700,414	26,81
700,857	27,33
701,3	27,78
701,743	28,23
702,186	28,78
702,629	29,25
703,072	29,67
703,515	30,19
703,957	30,57
704,399	31,04
704,842	31,66
705,284	31,96
705,726	32,34
706,168	32,82
706,61	33,5
707,052	33,52
707,494	33,83
707,935	34,45
708,377	34,82
708,818	35,14
709,26	35,55
709,701	36,03
710,142	36,23
710,583	36,51
711,024	37
711,465	37,44
711,905	37,59
712,346	37,96
712,787	38,21
713,227	38,65
713,667	39,18
714,108	39,58
714,548	39,67
714,988	39,85
715,428	40,31
715,868	40,72
716,307	40,68
716,747	41,32
717,186	41,42
717,626	41,76
718,065	42,11
718,504	42,05
718,944	42,72
719,383	42,83
719,822	43,02
720,261	43,2
720,699	43,5
721,138	43,69
721,576	43,91
722,015	44,14
722,453	44,66
722,892	44,63
723,33	44,65
723,768	45,29
724,206	45,41
724,644	45,62
725,081	45,66
725,519	45,81
725,957	46,02
726,394	46,12
726,832	46,19
727,269	46,76
727,706	46,67
728,143	46,9
728,58	47,2
729,017	46,96
729,454	47,37
729,89	47,37
730,327	47,34
730,764	47,53
731,2	47,69
731,636	47,76
732,072	48,02
732,509	47,99
732,945	48,03
733,38	48,09
733,816	48,3
734,252	48,12
734,688	48,12
735,123	48,47
735,559	48,71
735,994	48,74
736,429	48,85
736,864	48,55
737,299	48,34
737,734	48,78
738,169	48,73
738,604	48,63
739,038	49
739,473	48,75
739,907	49,06
740,342	49
740,776	48,91
741,21	48,92
741,644	49,06
742,078	49,3
742,512	49,01
742,946	49,33
743,379	49,14
743,813	49,05
744,246	49,07
744,68	49,09
745,113	48,85
745,546	49,13
745,979	49,05
746,412	49,21
746,845	48,9
747,278	49,25
747,711	49,08
748,143	49,09
748,576	48,99
749,008	48,95
749,441	48,85
749,873	49,02
750,305	49,09
750,737	49,03
751,169	48,93
751,601	48,92
752,032	48,92
752,464	48,93
752,896	48,8
753,327	48,71
753,758	48,9
754,19	48,82
754,621	48,65
755,052	48,7
755,483	48,49
755,914	48,75
756,344	48,86
756,775	48,57
757,206	48,87
757,636	48,41
758,066	48,61
758,497	48,66
758,927	48,45
759,357	48,52
759,787	48,65
760,217	48,42
760,647	48,43
761,076	48,67
761,506	48,48
761,935	48,34
762,365	48,42
762,794	48,12
763,223	48,13
763,653	48,53
764,082	48,22
764,51	48,38
764,939	48,14
765,368	48,27
765,797	48,52
766,225	48,25
766,654	47,89
767,082	48,03
767,51	47,93
767,938	47,92
768,367	47,95
768,795	48,1
769,222	48
769,65	48,16
770,078	48,23
770,505	47,73
770,933	47,88
771,36	48,05
771,788	47,93
772,215	48,14
772,642	47,61
773,069	47,97
773,496	47,91
773,923	47,78
774,349	47,83
774,776	48,07
775,203	47,67
775,629	47,75
776,055	47,69
776,482	47,74
776,908	47,8
777,334	47,51
777,76	47,74
778,186	47,67
778,611	47,76
779,037	47,7
779,463	47,62
779,888	47,7
780,314	47,62
780,739	47,53
781,164	47,76
781,589	47,74
782,014	47,61
782,439	47,45
782,864	47,4
783,289	47,72
783,713	47,38
784,138	47,61
784,562	47,49
784,987	47,51
785,411	47,58
785,835	47,39
786,259	47,63
786,683	47,52
787,107	47,65
787,531	47,31
787,954	47,54
788,378	47,58
788,802	47,59
789,225	47,4
789,648	47,36
790,071	47,35
790,495	47,3
790,918	47,37
791,34	47,61
791,763	47,21
792,186	47,5
792,609	47,45
793,031	47,13
793,454	47,32
793,876	47,63
794,298	47,17
794,721	47,41
795,143	47,56
795,565	47,41
795,986	47,52
796,408	47,36
796,83	47,36
797,252	47,37
797,673	47,16
798,094	47,33
798,516	47,25
798,937	47,32
799,358	47,62
799,779	47,32
800,2	47,12
800,621	47,43
801,042	47,1
801,462	47,23
801,883	47,4
802,303	47,04
802,724	47,11
803,144	47,36
803,564	47,14
803,984	47,29
804,404	47,31
804,824	47,29
805,244	47,15
805,664	47,03
806,084	47,26
806,503	47,43
806,923	47,29
807,342	47,13
807,761	47,28
808,18	47,24
808,599	47,28
809,018	47
809,437	47,15
809,856	47,13
810,275	47,13
810,693	47,11
811,112	47,36
811,53	47,17
811,949	47,25
812,367	47,12
812,785	47,12
813,203	47,02
813,621	47,3
814,039	47,15
814,457	47,03
814,874	47,17
815,292	47,17
815,709	47,09
816,127	47,06
816,544	47,27
816,961	47,19
817,378	47,4
817,795	47,16
818,212	47,12
818,629	47,15
819,046	47,02
819,462	47,04
819,879	47,08
820,295	46,99
820,712	47,01
821,128	47,27
821,544	47,08
821,96	47,17
822,376	47,14
822,792	47,22
823,208	47,14
823,624	47,33
824,039	47,29
824,455	46,77
824,87	47,18
825,286	46,83
825,701	47,15
826,116	46,87
826,531	47
826,946	47,12
827,361	47,11
827,776	46,94
828,19	46,79
828,605	46,97
829,02	47,01
829,434	46,74
829,848	47,07
830,263	47,11
830,677	47,04
831,091	46,93
831,505	46,9
831,919	46,99
832,332	46,88
832,746	46,93
833,16	46,84
833,573	46,96
833,987	46,89
