Data from F1__Relative__6__00099.txt Node

Date: Tue Jan 30 18:00:37 CET 2024
User: diatiterra
Spectrometer: HDX00911
Trigger mode: 0
Integration Time (sec): 6,000000E-3
Scans to average: 3
Nonlinearity correction enabled: true
Boxcar width: 0
Storing dark spectrum: false
XAxis mode: Wavelengths
Number of Pixels in Spectrum: 2068
>>>>>Begin Spectral Data<<<<<
194,468	115,47
195,025	100,13
195,581	105,4
196,138	93,1
196,694	96,52
197,251	81,03
197,807	76,48
198,363	72,96
198,919	81,97
199,474	84,31
200,03	77,15
200,586	77,17
201,141	74,28
201,696	71,49
202,251	71,28
202,806	73,93
203,361	73,15
203,916	68,66
204,471	80,41
205,025	72,66
205,58	76,97
206,134	74,47
206,688	75,29
207,242	68,74
207,796	75,2
208,35	70,73
208,904	72,66
209,457	72,85
210,011	77
210,564	76,23
211,117	78,48
211,67	84
212,223	77,03
212,776	81,51
213,329	81,12
213,881	76,31
214,434	75,88
214,986	79,66
215,538	74,59
216,09	76,26
216,642	79,42
217,194	75,71
217,746	75,73
218,297	74,89
218,849	77,9
219,4	79,92
219,951	78,1
220,502	71,55
221,053	68,93
221,604	72,14
222,155	74,53
222,705	74,01
223,256	75,96
223,806	76,4
224,356	73,64
224,906	77,71
225,456	73,79
226,006	71,53
226,556	71,86
227,106	82,7
227,655	72,55
228,204	74,21
228,754	74,26
229,303	74,59
229,852	77,83
230,401	77,5
230,949	77,89
231,498	66,84
232,047	71,71
232,595	76,02
233,143	76,7
233,691	72,95
234,239	76,71
234,787	76,89
235,335	76,91
235,883	75
236,43	73,08
236,978	77,84
237,525	81,1
238,072	70,91
238,619	76,96
239,166	70,28
239,713	72,4
240,26	77,73
240,806	73,46
241,353	77,3
241,899	77,73
242,445	75,47
242,991	71,66
243,537	76,32
244,083	76,67
244,629	77,57
245,174	77,85
245,72	73,13
246,265	81,41
246,81	74,84
247,355	77,75
247,9	77,36
248,445	79,18
248,99	81,09
249,534	83,26
250,079	79,52
250,623	77,35
251,168	73,76
251,712	71,97
252,256	67,75
252,8	80,16
253,343	73,47
253,887	70,15
254,43	81,5
254,974	77
255,517	77,42
256,06	84,37
256,603	76,76
257,146	74,73
257,689	77,35
258,232	77,06
258,774	75,97
259,317	73,9
259,859	76,53
260,401	84,35
260,943	75,85
261,485	79,08
262,027	83,56
262,569	79,02
263,11	75,56
263,652	82
264,193	79,43
264,734	77,4
265,275	72,19
265,816	80,55
266,357	75,83
266,898	74,68
267,438	76,91
267,979	82,55
268,519	73,58
269,059	77,47
269,6	78,01
270,14	76,78
270,68	68,21
271,219	80,88
271,759	76,32
272,298	73,65
272,838	79,31
273,377	74,36
273,916	78,99
274,455	71,25
274,994	79,26
275,533	77,11
276,072	79,18
276,61	81,09
277,149	67,09
277,687	76,2
278,225	71,87
278,763	76,19
279,301	77,26
279,839	78,42
280,377	70,28
280,914	74,79
281,452	80,15
281,989	74,67
282,526	68,43
283,064	82,37
283,601	74,51
284,137	78,23
284,674	74,05
285,211	77,16
285,747	71,31
286,284	78,78
286,82	70,66
287,356	69,31
287,892	82,25
288,428	73,13
288,964	77,18
289,5	74,9
290,035	78,26
290,571	71,7
291,106	80,21
291,641	76,03
292,176	76,72
292,711	74,95
293,246	76,81
293,781	69,81
294,315	70,25
294,85	77,21
295,384	77,01
295,918	70,03
296,453	70,24
296,987	78,37
297,52	75,06
298,054	71,93
298,588	77,72
299,121	73,99
299,655	69,96
300,188	71,62
300,721	68,72
301,254	74,84
301,787	76,06
302,32	80,73
302,853	72,59
303,385	71,11
303,918	69,63
304,45	64,36
304,982	74,56
305,514	72,82
306,046	70,1
306,578	73,07
307,11	71,75
307,641	76,49
308,173	70,53
308,704	72,76
309,236	74,26
309,767	75,54
310,298	67,68
310,829	71,31
311,359	69,5
311,89	73,49
312,421	65,33
312,951	78,86
313,481	73,64
314,012	76,22
314,542	70,9
315,072	73,14
315,601	70,42
316,131	75,8
316,661	68,93
317,19	72,74
317,72	66,32
318,249	74,63
318,778	69,83
319,307	70,18
319,836	73,39
320,365	72,21
320,893	78,46
321,422	71,3
321,95	69
322,479	76,01
323,007	68,37
323,535	72,16
324,063	68,31
324,591	75,24
325,118	71,94
325,646	73,74
326,173	66,37
326,701	77,13
327,228	74,45
327,755	77,32
328,282	64,74
328,809	72,59
329,336	75,35
329,862	71,96
330,389	68,21
330,915	74,29
331,441	67,23
331,968	66,1
332,494	67,67
333,02	73,55
333,545	70,41
334,071	70,45
334,597	65,76
335,122	74,4
335,648	69,37
336,173	68,33
336,698	60,57
337,223	65,36
337,748	64,77
338,272	63,62
338,797	68
339,322	69,95
339,846	70,22
340,37	71,76
340,894	64,1
341,419	66,59
341,942	61,7
342,466	59,18
342,99	69,44
343,514	69,52
344,037	62,25
344,56	67,51
345,084	57,14
345,607	62,61
346,13	61,06
346,653	59,97
347,175	63,29
347,698	68,67
348,221	62,82
348,743	57,85
349,265	65,72
349,787	58,8
350,309	58,37
350,831	65,74
351,353	57,15
351,875	61,13
352,397	53,99
352,918	60,38
353,439	62,42
353,961	59,25
354,482	57,21
355,003	59,55
355,524	56,99
356,044	55,95
356,565	57,29
357,086	57,58
357,606	56,12
358,126	57,14
358,646	57,05
359,167	61,89
359,687	53,74
360,206	51,8
360,726	59
361,246	57,56
361,765	58,07
362,285	53,28
362,804	54,8
363,323	54,29
363,842	55,14
364,361	56,7
364,88	56,6
365,398	53,83
365,917	54,51
366,435	55,46
366,954	55,86
367,472	50,56
367,99	53,45
368,508	49,38
369,026	50,98
369,544	50
370,061	55,15
370,579	49,24
371,096	53,55
371,613	53,13
372,131	55,37
372,648	51,09
373,165	48,2
373,681	49,72
374,198	49,22
374,715	48,13
375,231	49,72
375,747	51,54
376,264	45,62
376,78	50,08
377,296	48,28
377,812	49,92
378,327	49,07
378,843	45,85
379,359	46,85
379,874	45,18
380,389	43,34
380,905	47,63
381,42	45
381,935	42,84
382,449	41,74
382,964	43,67
383,479	40,48
383,993	41,48
384,508	41,26
385,022	39,16
385,536	42
386,05	40,57
386,564	39,48
387,078	37,87
387,592	38,24
388,105	38,38
388,619	38,16
389,132	36,78
389,645	35,22
390,158	36,21
390,671	32,58
391,184	34,1
391,697	32,46
392,21	34,64
392,722	36,43
393,235	33,23
393,747	33,87
394,259	33,42
394,771	34,13
395,283	34,51
395,795	32,79
396,307	33,31
396,818	32,26
397,33	31,24
397,841	29,92
398,353	28,17
398,864	29,54
399,375	29,37
399,886	28,09
400,397	26,22
400,907	25,95
401,418	27,43
401,928	26,18
402,439	26,35
402,949	24,48
403,459	24,62
403,969	23,68
404,479	23,89
404,989	21,56
405,498	23,17
406,008	22,5
406,517	21,11
407,027	20,84
407,536	19,99
408,045	19,19
408,554	18,47
409,063	18,01
409,572	17,57
410,08	17,22
410,589	16,57
411,097	15,78
411,606	15,52
412,114	14,49
412,622	14,91
413,13	14,23
413,638	14,14
414,145	13,27
414,653	12,92
415,16	12,71
415,668	12,47
416,175	11,95
416,682	11,23
417,189	11,88
417,696	11,52
418,203	11,09
418,71	11,21
419,216	11,54
419,723	10,57
420,229	10,36
420,735	10,61
421,242	10,41
421,748	10,05
422,254	10,01
422,759	9,82
423,265	9,9
423,771	9,54
424,276	9,78
424,781	9,38
425,287	9,34
425,792	9,44
426,297	9,2
426,802	8,88
427,306	9,31
427,811	9,52
428,316	9
428,82	9,12
429,324	8,97
429,829	8,97
430,333	8,68
430,837	8,73
431,34	8,6
431,844	8,93
432,348	8,68
432,851	8,39
433,355	8,68
433,858	8,53
434,361	8,48
434,864	8,34
435,367	7,83
435,87	8,33
436,373	8,59
436,876	8,51
437,378	8,17
437,88	8,26
438,383	8,25
438,885	7,89
439,387	8,29
439,889	8,18
440,391	8,12
440,892	7,86
441,394	8,27
441,896	8,11
442,397	8,14
442,898	8,18
443,399	8,19
443,9	8,24
444,401	8,24
444,902	7,88
445,403	8,16
445,903	8,14
446,404	8,02
446,904	8,19
447,405	7,96
447,905	8,18
448,405	8,45
448,905	8,31
449,404	8,44
449,904	8,24
450,404	8,43
450,903	8,4
451,403	8,55
451,902	8,46
452,401	8,4
452,9	8,64
453,399	8,56
453,898	8,79
454,396	8,68
454,895	8,76
455,393	8,57
455,892	8,69
456,39	8,7
456,888	8,58
457,386	8,72
457,884	8,57
458,382	8,82
458,879	8,65
459,377	8,61
459,874	9,01
460,372	8,94
460,869	8,82
461,366	8,88
461,863	8,76
462,36	8,9
462,857	8,82
463,353	8,73
463,85	8,88
464,346	9,04
464,843	8,88
465,339	8,89
465,835	8,86
466,331	8,94
466,827	8,9
467,323	8,81
467,818	8,8
468,314	8,76
468,809	8,71
469,305	8,93
469,8	8,64
470,295	8,79
470,79	8,8
471,285	8,78
471,78	8,71
472,274	8,87
472,769	8,83
473,263	8,82
473,758	8,83
474,252	8,68
474,746	8,78
475,24	8,99
475,734	8,76
476,228	8,73
476,721	8,74
477,215	8,92
477,708	9,13
478,202	8,91
478,695	9,18
479,188	8,85
479,681	8,92
480,174	8,87
480,667	8,89
481,159	9,06
481,652	9,17
482,144	9,16
482,637	9,08
483,129	8,88
483,621	9,03
484,113	9,04
484,605	9,16
485,097	9,26
485,588	9,14
486,08	9,2
486,571	9,46
487,063	9,14
487,554	9,41
488,045	9,56
488,536	9,61
489,027	9,41
489,518	9,55
490,008	9,36
490,499	9,44
490,989	9,84
491,48	9,61
491,97	10,04
492,46	9,94
492,95	10,05
493,44	10,09
493,93	10,32
494,419	10,12
494,909	10,23
495,398	10,34
495,888	10,38
496,377	10,86
496,866	10,75
497,355	10,72
497,844	11,02
498,333	11,21
498,821	11,45
499,31	11,31
499,798	11,38
500,287	11,66
500,775	11,89
501,263	12,24
501,751	12,36
502,239	12,42
502,727	12,58
503,215	12,82
503,702	13,08
504,19	13,26
504,677	13,45
505,164	13,74
505,651	13,96
506,139	14,52
506,625	14,51
507,112	14,93
507,599	15,44
508,086	15,3
508,572	16,15
509,058	16,06
509,545	16,26
510,031	16,56
510,517	16,84
511,003	17,16
511,489	17,48
511,974	18,18
512,46	18,07
512,946	18,97
513,431	19,22
513,916	19,13
514,401	19,82
514,887	20,44
515,371	20,58
515,856	21,29
516,341	21,5
516,826	22,08
517,31	22,17
517,795	22,61
518,279	23,23
518,763	23,64
519,247	24,17
519,731	24,52
520,215	24,84
520,699	25,33
521,182	25,78
521,666	26,11
522,149	27,14
522,633	27,42
523,116	27,38
523,599	28,09
524,082	28,58
524,565	28,88
525,048	29,54
525,53	29,8
526,013	29,77
526,495	30,66
526,978	30,9
527,46	30,84
527,942	31,25
528,424	31,59
528,906	31,88
529,388	32,07
529,87	32,51
530,351	32,97
530,833	32,95
531,314	33,04
531,795	33,23
532,277	33,73
532,758	34,01
533,238	34,16
533,719	34,21
534,2	34,48
534,681	34,46
535,161	34,93
535,642	34,63
536,122	34,67
536,602	34,97
537,082	35,12
537,562	35,4
538,042	35,45
538,522	35,4
539,001	35,39
539,481	35,82
539,96	35,69
540,44	36,1
540,919	35,83
541,398	35,72
541,877	36,16
542,356	36,15
542,835	36,31
543,313	36,22
543,792	36,52
544,27	36,55
544,749	36,88
545,227	36,57
545,705	36,78
546,183	36,8
546,661	36,73
547,139	37,07
547,616	36,74
548,094	36,62
548,571	36,93
549,049	37,05
549,526	37,01
550,003	37,35
550,48	37,12
550,957	37,37
551,434	37,02
551,911	36,89
552,387	37,13
552,864	37,13
553,34	37,58
553,817	37,15
554,293	37,31
554,769	37,45
555,245	37,22
555,721	37,29
556,197	37,18
556,672	37,28
557,148	37,18
557,623	37,52
558,099	37,11
558,574	37,02
559,049	36,96
559,524	36,88
559,999	37,01
560,474	36,68
560,948	36,33
561,423	36,59
561,897	36,51
562,372	36,55
562,846	36,38
563,32	36,05
563,794	35,96
564,268	36,07
564,742	35,53
565,216	35,54
565,69	35,49
566,163	35,1
566,636	34,71
567,11	35,3
567,583	34,47
568,056	34,26
568,529	34,14
569,002	33,88
569,475	33,52
569,947	33,22
570,42	33,51
570,892	32,99
571,365	32,88
571,837	32,39
572,309	32,2
572,781	32,21
573,253	31,71
573,725	31,46
574,197	31,19
574,668	31,53
575,14	31,07
575,611	30,53
576,082	30,45
576,554	30,33
577,025	30,15
577,496	29,83
577,967	29,76
578,437	29,7
578,908	29,16
579,379	29,36
579,849	28,8
580,319	28,72
580,79	28,73
581,26	28,65
581,73	28,13
582,2	28,34
582,669	28,06
583,139	27,79
583,609	27,45
584,078	27,66
584,548	27,3
585,017	27,25
585,486	27,19
585,955	26,78
586,424	26,83
586,893	26,85
587,362	26,57
587,83	26,4
588,299	25,98
588,767	26,46
589,236	26,29
589,704	25,96
590,172	26,1
590,64	25,95
591,108	25,76
591,576	25,62
592,043	25,54
592,511	25,56
592,978	25,35
593,446	25,44
593,913	25,39
594,38	25,27
594,847	25,14
595,314	25,02
595,781	24,98
596,248	24,96
596,715	24,9
597,181	24,87
597,647	25
598,114	24,71
598,58	24,69
599,046	24,73
599,512	24,61
599,978	24,5
600,444	24,38
600,91	24,32
601,375	24,49
601,841	24,35
602,306	24,38
602,771	24,35
603,236	24,28
603,702	24,07
604,167	24,04
604,631	23,82
605,096	23,64
605,561	23,63
606,025	23,62
606,49	23,46
606,954	23,52
607,418	23,14
607,882	23,19
608,347	22,95
608,81	22,78
609,274	22,87
609,738	22,53
610,202	22,59
610,665	22,58
611,128	22,32
611,592	22,21
612,055	22,19
612,518	21,86
612,981	21,75
613,444	21,75
613,907	21,56
614,369	21,3
614,832	21,36
615,294	21,2
615,757	20,92
616,219	20,91
616,681	21,04
617,143	20,65
617,605	20,45
618,067	20,47
618,529	20,3
618,99	20,31
619,452	20,16
619,913	20,06
620,375	19,9
620,836	19,84
621,297	19,63
621,758	19,73
622,219	19,64
622,68	19,55
623,14	19,59
623,601	19,53
624,061	19,43
624,522	19,29
624,982	19,29
625,442	19,15
625,902	19,1
626,362	19,23
626,822	19,14
627,282	19,11
627,742	19,07
628,201	18,94
628,661	19,12
629,12	18,96
629,579	18,84
630,038	19,05
630,497	18,9
630,956	18,82
631,415	18,82
631,874	18,94
632,332	18,76
632,791	18,7
633,249	18,79
633,708	18,59
634,166	18,6
634,624	18,38
635,082	18,33
635,54	18,06
635,998	18,17
636,455	17,96
636,913	17,87
637,37	17,75
637,828	17,58
638,285	17,48
638,742	17,33
639,199	17,04
639,656	16,93
640,113	16,89
640,57	16,69
641,027	16,45
641,483	16,36
641,94	15,95
642,396	15,82
642,852	15,78
643,309	15,68
643,765	15,42
644,221	15,13
644,676	15,01
645,132	14,89
645,588	14,74
646,043	14,47
646,499	14,26
646,954	14,16
647,409	13,97
647,864	13,91
648,319	13,72
648,774	13,47
649,229	13,56
649,684	13,44
650,139	13,27
650,593	13,14
651,047	12,98
651,502	12,92
651,956	12,84
652,41	12,72
652,864	12,64
653,318	12,72
653,772	12,44
654,225	12,56
654,679	12,46
655,133	12,33
655,586	12,16
656,039	12,15
656,492	12,05
656,946	11,88
657,399	11,96
657,851	11,8
658,304	11,66
658,757	11,59
659,209	11,38
659,662	11,29
660,114	11,15
660,567	11,18
661,019	10,9
661,471	10,86
661,923	10,74
662,375	10,56
662,826	10,47
663,278	10,4
663,73	10,33
664,181	10,2
664,632	10,13
665,084	10,01
665,535	9,9
665,986	9,8
666,437	9,72
666,888	9,71
667,338	9,66
667,789	9,61
668,24	9,58
668,69	9,66
669,14	9,54
669,591	9,49
670,041	9,57
670,491	9,63
670,941	9,59
671,391	9,66
671,84	9,67
672,29	9,74
672,74	9,67
673,189	9,88
673,638	9,83
674,088	9,98
674,537	10,02
674,986	10,08
675,435	10,13
675,883	10,16
676,332	10,44
676,781	10,39
677,229	10,73
677,678	10,71
678,126	10,82
678,574	11,04
679,022	11,12
679,47	11,16
679,918	11,27
680,366	11,42
680,814	11,59
681,261	11,8
681,709	11,88
682,156	12,02
682,604	12,28
683,051	12,38
683,498	12,58
683,945	12,76
684,392	12,9
684,839	13,16
685,286	13,45
685,732	13,6
686,179	13,95
686,625	14,16
687,071	14,43
687,518	14,9
687,964	15,15
688,41	15,63
688,856	16,04
689,301	16,44
689,747	16,72
690,193	17,46
690,638	18,02
691,084	18,53
691,529	19,27
691,974	19,86
692,419	20,51
692,864	21,19
693,309	21,76
693,754	22,8
694,199	23,36
694,643	24,16
695,088	24,88
695,532	25,75
695,977	26,58
696,421	27,16
696,865	28,03
697,309	28,85
697,753	29,57
698,197	30,58
698,64	31,06
699,084	31,96
699,527	32,52
699,971	33,33
700,414	34,11
700,857	34,72
701,3	35,41
701,743	35,88
702,186	36,9
702,629	37,56
703,072	38,11
703,515	38,92
703,957	39,2
704,399	39,79
704,842	40,62
705,284	40,9
705,726	41,66
706,168	41,97
706,61	42,7
707,052	43,38
707,494	43,78
707,935	44,09
708,377	44,71
708,818	45,19
709,26	45,66
709,701	46,06
710,142	46,34
710,583	47,1
711,024	47,29
711,465	47,93
711,905	48,28
712,346	48,68
712,787	48,7
713,227	49,33
713,667	49,84
714,108	50,47
714,548	50,81
714,988	50,81
715,428	51,16
715,868	51,61
716,307	51,89
716,747	52,31
717,186	52,5
717,626	52,81
718,065	53,35
718,504	53,58
718,944	53,88
719,383	54,42
719,822	54,52
720,261	54,58
720,699	55,02
721,138	55,21
721,576	55,64
722,015	55,46
722,453	56,22
722,892	56,46
723,33	56,52
723,768	56,79
724,206	57,06
724,644	57,28
725,081	57,28
725,519	57,4
725,957	57,63
726,394	57,75
726,832	57,94
727,269	58,27
727,706	58,46
728,143	58,64
728,58	58,73
729,017	58,6
729,454	59,21
729,89	59,17
730,327	59,09
730,764	59,34
731,2	59,54
731,636	59,51
732,072	59,74
732,509	59,7
732,945	59,68
733,38	59,96
733,816	60,05
734,252	59,72
734,688	60,16
735,123	60,01
735,559	60,31
735,994	60,42
736,429	60,45
736,864	60,41
737,299	60,21
737,734	60,84
738,169	60,65
738,604	60,71
739,038	60,54
739,473	60,5
739,907	60,84
740,342	60,55
740,776	60,67
741,21	60,78
741,644	60,86
742,078	60,88
742,512	60,95
742,946	60,94
743,379	60,84
743,813	60,62
744,246	60,78
744,68	60,81
745,113	60,79
745,546	60,56
745,979	60,48
746,412	60,9
746,845	60,69
747,278	60,8
747,711	60,68
748,143	60,65
748,576	60,6
749,008	60,56
749,441	60,34
749,873	60,59
750,305	60,35
750,737	60,46
751,169	60,18
751,601	60,51
752,032	60,35
752,464	60,2
752,896	60,39
753,327	60,02
753,758	60,07
754,19	60,1
754,621	60,15
755,052	60,29
755,483	59,84
755,914	60,07
756,344	60,09
756,775	59,87
757,206	60,23
757,636	59,7
758,066	59,89
758,497	59,77
758,927	59,62
759,357	59,8
759,787	59,94
760,217	59,66
760,647	59,56
761,076	59,87
761,506	59,54
761,935	59,47
762,365	59,5
762,794	59,42
763,223	59,31
763,653	59,52
764,082	59,24
764,51	59,45
764,939	59,37
765,368	59,34
765,797	59,51
766,225	59,19
766,654	58,97
767,082	58,99
767,51	59,06
767,938	59,12
768,367	59,16
768,795	59,09
769,222	59,12
769,65	58,98
770,078	58,96
770,505	58,76
770,933	58,96
771,36	58,83
771,788	58,79
772,215	59,04
772,642	58,83
773,069	58,7
773,496	58,63
773,923	58,45
774,349	58,59
774,776	58,81
775,203	58,4
775,629	58,57
776,055	58,44
776,482	58,51
776,908	58,52
777,334	58,44
777,76	58,57
778,186	58,46
778,611	58,38
779,037	58,43
779,463	58,35
779,888	58,23
780,314	58,28
780,739	58,45
781,164	58,29
781,589	58,21
782,014	58,24
782,439	58,34
782,864	58,24
783,289	58,27
783,713	58,1
784,138	58,1
784,562	58,25
784,987	58,04
785,411	58,17
785,835	58,21
786,259	58,37
786,683	58,34
787,107	58,17
787,531	58,04
787,954	57,86
788,378	58,29
788,802	58,06
789,225	58,07
789,648	58
790,071	58,11
790,495	57,81
790,918	58,18
791,34	57,98
791,763	58
792,186	58,08
792,609	58,01
793,031	58,02
793,454	57,98
793,876	58,08
794,298	57,96
794,721	57,92
795,143	58,36
795,565	58,11
795,986	58,09
796,408	57,88
796,83	57,97
797,252	58,08
797,673	57,72
798,094	57,69
798,516	57,81
798,937	57,86
799,358	57,72
799,779	57,83
800,2	57,69
800,621	57,99
801,042	57,83
801,462	57,74
801,883	57,83
802,303	57,93
802,724	57,63
803,144	58,02
803,564	57,55
803,984	57,95
804,404	57,71
804,824	57,64
805,244	57,9
805,664	58,11
806,084	57,73
806,503	58,04
806,923	57,74
807,342	57,74
807,761	57,56
808,18	57,94
808,599	57,82
809,018	57,84
809,437	57,77
809,856	57,74
810,275	57,86
810,693	57,54
811,112	57,81
811,53	57,42
811,949	57,95
812,367	57,55
812,785	57,76
813,203	57,73
813,621	57,38
814,039	57,56
814,457	57,59
814,874	57,8
815,292	57,76
815,709	57,47
816,127	57,57
816,544	58,01
816,961	57,85
817,378	58,11
817,795	57,52
818,212	57,58
818,629	57,75
819,046	57,47
819,462	57,79
819,879	57,67
820,295	57,28
820,712	57,31
821,128	57,51
821,544	57,49
821,96	57,56
822,376	57,67
822,792	57,66
823,208	57,41
823,624	57,74
824,039	57,66
824,455	57,56
824,87	57,65
825,286	57,47
825,701	57,89
826,116	57,3
826,531	57,39
826,946	57,49
827,361	57,72
827,776	57,53
828,19	57,37
828,605	57,36
829,02	57,82
829,434	57,49
829,848	57,77
830,263	57,62
830,677	57,24
831,091	57,69
831,505	57,6
831,919	57,36
832,332	57,38
832,746	57,16
833,16	57,54
833,573	57,57
833,987	57,53
834,4	57,17
834,813	57,36
835,226	57,33
835,639	57,24
836,052	57,55
836,465	57,38
836,878	57,53
837,29	57,39
837,703	57,66
838,116	57,55
