Data from G2__Relative__2__00115.txt Node

Date: Tue Jan 30 18:03:47 CET 2024
User: diatiterra
Spectrometer: HDX00911
Trigger mode: 0
Integration Time (sec): 6,000000E-3
Scans to average: 3
Nonlinearity correction enabled: true
Boxcar width: 0
Storing dark spectrum: false
XAxis mode: Wavelengths
Number of Pixels in Spectrum: 2068
>>>>>Begin Spectral Data<<<<<
194,468	140,44
195,025	104
195,581	111,81
196,138	101,73
196,694	98,93
197,251	85,55
197,807	85,3
198,363	84,28
198,919	80,66
199,474	88,18
200,03	79,25
200,586	76,97
201,141	81,77
201,696	72,98
202,251	79,63
202,806	81,67
203,361	82,24
203,916	80,91
204,471	82,89
205,025	77,11
205,58	84,04
206,134	81,02
206,688	77,9
207,242	76,8
207,796	80,69
208,35	80,55
208,904	80,98
209,457	81,77
210,011	82,28
210,564	76,23
211,117	80,74
211,67	85,54
212,223	86,58
212,776	80,46
213,329	84,56
213,881	85,32
214,434	76,28
214,986	82,87
215,538	87,19
216,09	81,13
216,642	79,21
217,194	80,24
217,746	84,73
218,297	74,29
218,849	80,48
219,4	83,09
219,951	83,47
220,502	82,06
221,053	78,04
221,604	79,59
222,155	80,9
222,705	78,79
223,256	81,25
223,806	84,8
224,356	85,77
224,906	85,77
225,456	77,37
226,006	79,72
226,556	77,91
227,106	87,83
227,655	81,28
228,204	85,74
228,754	85,14
229,303	81,65
229,852	84,35
230,401	85,01
230,949	86,78
231,498	77
232,047	79,29
232,595	86,73
233,143	85,39
233,691	80,3
234,239	80,46
234,787	84,25
235,335	82,74
235,883	84,3
236,43	79,71
236,978	78,25
237,525	82,75
238,072	76,35
238,619	82,83
239,166	78,6
239,713	77,07
240,26	81,8
240,806	77,95
241,353	79,51
241,899	79,68
242,445	83,29
242,991	81,1
243,537	83,72
244,083	85,19
244,629	84,84
245,174	77,42
245,72	75,9
246,265	89,79
246,81	92,06
247,355	74,72
247,9	83,65
248,445	84,91
248,99	85,22
249,534	82,82
250,079	85,47
250,623	77,95
251,168	79,54
251,712	77,06
252,256	72,51
252,8	81,79
253,343	81,47
253,887	80,62
254,43	88,91
254,974	80,98
255,517	79,21
256,06	85,73
256,603	84,65
257,146	83,45
257,689	86,74
258,232	81,82
258,774	75,32
259,317	78,91
259,859	74,84
260,401	86,59
260,943	83,06
261,485	81,28
262,027	80,9
262,569	83,29
263,11	78,85
263,652	85
264,193	79,43
264,734	76,55
265,275	75,72
265,816	81
266,357	72,08
266,898	81,61
267,438	83,41
267,979	86,86
268,519	87,9
269,059	84,25
269,6	85,34
270,14	87,26
270,68	74,08
271,219	86,58
271,759	78,73
272,298	75,16
272,838	82,36
273,377	82,48
273,916	78,36
274,455	73,75
274,994	81,91
275,533	80,67
276,072	82,69
276,61	83,34
277,149	72,61
277,687	80,79
278,225	80,41
278,763	81,58
279,301	78,76
279,839	84,78
280,377	80,91
280,914	78,6
281,452	82,43
281,989	89,46
282,526	79,43
283,064	86,68
283,601	80,35
284,137	83,79
284,674	78,48
285,211	86,67
285,747	80,73
286,284	78,55
286,82	75,33
287,356	86,22
287,892	89,6
288,428	80,18
288,964	80,71
289,5	81,82
290,035	83,65
290,571	81,07
291,106	89,05
291,641	77,16
292,176	76,92
292,711	83,16
293,246	79,36
293,781	79,87
294,315	73,84
294,85	87,58
295,384	82,88
295,918	79,32
296,453	82,94
296,987	80,94
297,52	79,26
298,054	76,1
298,588	82,88
299,121	84,18
299,655	81,12
300,188	77,29
300,721	79,74
301,254	81,19
301,787	74,79
302,32	88,03
302,853	74,73
303,385	82,45
303,918	80,4
304,45	74,51
304,982	80,92
305,514	86,98
306,046	80,84
306,578	83,41
307,11	80,8
307,641	85,09
308,173	86,1
308,704	81,08
309,236	82,15
309,767	82,34
310,298	75,7
310,829	79,38
311,359	79,67
311,89	83,38
312,421	78,99
312,951	79,74
313,481	80,06
314,012	74,74
314,542	84,69
315,072	76,77
315,601	74,68
316,131	79,39
316,661	78,34
317,19	79,92
317,72	75,26
318,249	76,76
318,778	79,53
319,307	74,22
319,836	82,79
320,365	80,86
320,893	82,2
321,422	73,04
321,95	73,04
322,479	84,24
323,007	70,08
323,535	77,51
324,063	78,58
324,591	75,01
325,118	82,38
325,646	83,81
326,173	76,76
326,701	81,27
327,228	84,01
327,755	86,98
328,282	77,78
328,809	76,1
329,336	75,58
329,862	75,87
330,389	73,05
330,915	78,94
331,441	73,15
331,968	74,41
332,494	74,94
333,02	81,51
333,545	79,05
334,071	76,89
334,597	72,02
335,122	75,72
335,648	77,08
336,173	75,2
336,698	72,07
337,223	74,79
337,748	67,88
338,272	73,09
338,797	77,25
339,322	75,18
339,846	76,18
340,37	77,36
340,894	77,57
341,419	75,15
341,942	76,54
342,466	68,28
342,99	74,89
343,514	74,43
344,037	70,24
344,56	74,45
345,084	65,18
345,607	75,34
346,13	69,81
346,653	63,12
347,175	74,12
347,698	76,64
348,221	64,48
348,743	65,28
349,265	69,59
349,787	69,13
350,309	66,22
350,831	71,32
351,353	60,29
351,875	64,79
352,397	61,57
352,918	65,83
353,439	66,23
353,961	66,74
354,482	59,08
355,003	60,95
355,524	63,08
356,044	67,44
356,565	63,8
357,086	62,05
357,606	62,03
358,126	63,25
358,646	60,41
359,167	61,75
359,687	59,22
360,206	58,41
360,726	60,04
361,246	62,72
361,765	61,24
362,285	63,57
362,804	59,64
363,323	62,81
363,842	60,54
364,361	61,83
364,88	58,91
365,398	57,45
365,917	61,47
366,435	57,46
366,954	59,62
367,472	54,55
367,99	61,26
368,508	56,79
369,026	54,77
369,544	58,46
370,061	55,27
370,579	55,01
371,096	57,62
371,613	59,52
372,131	57,68
372,648	53,07
373,165	52,85
373,681	52,94
374,198	54,59
374,715	53,83
375,231	55,03
375,747	52,05
376,264	49,06
376,78	54,3
377,296	50,22
377,812	51,38
378,327	48,41
378,843	50,48
379,359	53,45
379,874	49,41
380,389	50,36
380,905	51,41
381,42	49,07
381,935	49,42
382,449	46,15
382,964	45,34
383,479	45,12
383,993	45,58
384,508	43,72
385,022	43,19
385,536	44,67
386,05	41,6
386,564	42,85
387,078	43,1
387,592	40,46
388,105	39,33
388,619	42,21
389,132	38,84
389,645	40,29
390,158	39,47
390,671	39,01
391,184	37,11
391,697	37,58
392,21	36,73
392,722	37,6
393,235	38,04
393,747	35,62
394,259	35,86
394,771	36,84
395,283	35,02
395,795	37,39
396,307	34,76
396,818	35,46
397,33	34,45
397,841	33,06
398,353	33,39
398,864	33,28
399,375	32,67
399,886	30,71
400,397	29,69
400,907	28,66
401,418	29,9
401,928	29,4
402,439	29,39
402,949	27,66
403,459	26,61
403,969	27,38
404,479	26,14
404,989	25,73
405,498	24,81
406,008	23,8
406,517	23,57
407,027	22,53
407,536	21
408,045	21,26
408,554	20,64
409,063	19,31
409,572	19,41
410,08	20,03
410,589	18,73
411,097	18,55
411,606	17,56
412,114	16,79
412,622	15,67
413,13	16,08
413,638	15,44
414,145	14,76
414,653	14,83
415,16	13,99
415,668	13,52
416,175	13,61
416,682	12,82
417,189	12,58
417,696	12,66
418,203	12,05
418,71	12,03
419,216	12,05
419,723	11,51
420,229	11,54
420,735	11,44
421,242	11,23
421,748	10,95
422,254	11,09
422,759	10,92
423,265	10,76
423,771	10,44
424,276	10,42
424,781	10,08
425,287	10,19
425,792	9,99
426,297	10,12
426,802	10,08
427,306	9,91
427,811	10,31
428,316	9,96
428,82	10,03
429,324	9,05
429,829	9,55
430,333	9,46
430,837	9,07
431,34	9,4
431,844	9,43
432,348	9,59
432,851	9,27
433,355	8,87
433,858	9,22
434,361	9,21
434,864	9,12
435,367	8,86
435,87	8,66
436,373	9,16
436,876	9,01
437,378	8,69
437,88	8,65
438,383	8,58
438,885	8,83
439,387	8,71
439,889	8,83
440,391	8,8
440,892	8,66
441,394	8,56
441,896	8,82
442,397	8,55
442,898	8,68
443,399	8,58
443,9	8,87
444,401	8,92
444,902	8,47
445,403	8,61
445,903	8,94
446,404	8,58
446,904	9,07
447,405	8,82
447,905	8,65
448,405	9,19
448,905	9,03
449,404	9,23
449,904	9,09
450,404	9,14
450,903	9,24
451,403	9,3
451,902	9,39
452,401	9,39
452,9	9,58
453,399	9,33
453,898	9,51
454,396	9,46
454,895	9,68
455,393	9,48
455,892	9,69
456,39	9,57
456,888	9,41
457,386	9,85
457,884	9,42
458,382	9,7
458,879	9,48
459,377	9,61
459,874	9,67
460,372	10,05
460,869	9,63
461,366	9,86
461,863	9,77
462,36	9,73
462,857	9,95
463,353	9,63
463,85	9,66
464,346	9,59
464,843	9,8
465,339	9,47
465,835	9,73
466,331	9,66
466,827	9,41
467,323	9,74
467,818	9,55
468,314	9,51
468,809	9,39
469,305	9,72
469,8	9,68
470,295	9,64
470,79	9,63
471,285	9,65
471,78	9,58
472,274	9,87
472,769	9,52
473,263	9,78
473,758	9,6
474,252	9,65
474,746	9,56
475,24	9,53
475,734	9,54
476,228	9,41
476,721	9,74
477,215	9,78
477,708	9,94
478,202	9,85
478,695	9,85
479,188	9,8
479,681	9,8
480,174	9,82
480,667	9,84
481,159	9,87
481,652	10,03
482,144	9,83
482,637	9,89
483,129	9,87
483,621	10,02
484,113	9,96
484,605	10,05
485,097	10,11
485,588	9,95
486,08	10,04
486,571	10,13
487,063	10,23
487,554	10,3
488,045	10,27
488,536	10,44
489,027	10,73
489,518	10,38
490,008	10,5
490,499	10,58
490,989	10,62
491,48	10,68
491,97	10,73
492,46	10,87
492,95	11,05
493,44	11,38
493,93	10,95
494,419	11,24
494,909	11,47
495,398	11,41
495,888	11,47
496,377	11,73
496,866	12,01
497,355	12,02
497,844	12,11
498,333	12,25
498,821	12,63
499,31	12,42
499,798	12,84
500,287	12,71
500,775	13,08
501,263	13,43
501,751	13,63
502,239	13,68
502,727	14,19
503,215	14,15
503,702	14,31
504,19	14,54
504,677	15,05
505,164	15,16
505,651	15,61
506,139	15,79
506,625	15,84
507,112	16,25
507,599	16,82
508,086	17,11
508,572	17,36
509,058	17,59
509,545	18,07
510,031	18,28
510,517	18,58
511,003	19,26
511,489	19,59
511,974	19,73
512,46	20,12
512,946	20,31
513,431	20,76
513,916	21,08
514,401	21,58
514,887	21,93
515,371	22,43
515,856	22,88
516,341	23,62
516,826	23,81
517,31	24,06
517,795	24,69
518,279	25,27
518,763	25,57
519,247	26,21
519,731	26,48
520,215	26,77
520,699	27,46
521,182	27,97
521,666	28,48
522,149	28,89
522,633	29,43
523,116	29,71
523,599	29,96
524,082	30,89
524,565	30,85
525,048	31,1
525,53	31,86
526,013	32,21
526,495	32,78
526,978	32,95
527,46	33,06
527,942	33,74
528,424	33,98
528,906	34,09
529,388	34,11
529,87	34,66
530,351	35,03
530,833	35,28
531,314	35,28
531,795	35,83
532,277	35,87
532,758	36,46
533,238	36,21
533,719	36,15
534,2	36,49
534,681	36,57
535,161	36,96
535,642	37,04
536,122	36,76
536,602	36,98
537,082	37,44
537,562	37,61
538,042	37,71
538,522	37,33
539,001	37,75
539,481	37,6
539,96	37,93
540,44	37,72
540,919	37,88
541,398	37,8
541,877	38,26
542,356	38,33
542,835	37,97
543,313	38,21
543,792	38,52
544,27	38,52
544,749	38,65
545,227	38,72
545,705	38,68
546,183	38,59
546,661	38,82
547,139	38,56
547,616	38,92
548,094	38,85
548,571	38,63
549,049	38,69
549,526	39,16
550,003	38,93
550,48	38,87
550,957	39,36
551,434	38,68
551,911	39,34
552,387	39,05
552,864	39,4
553,34	39,19
553,817	39,22
554,293	39,47
554,769	39,76
555,245	39,33
555,721	38,95
556,197	39,06
556,672	38,98
557,148	39,34
557,623	39,32
558,099	39,02
558,574	39,09
559,049	39,14
559,524	38,91
559,999	39,1
560,474	38,84
560,948	38,46
561,423	38,64
561,897	38,55
562,372	38,06
562,846	38,27
563,32	38,44
563,794	37,92
564,268	38,12
564,742	37,53
565,216	37,71
565,69	37,53
566,163	37,2
566,636	36,68
567,11	36,91
567,583	36,49
568,056	36,53
568,529	36,09
569,002	35,87
569,475	35,96
569,947	35,16
570,42	35,37
570,892	35,27
571,365	34,78
571,837	34,53
572,309	34,2
572,781	33,9
573,253	33,82
573,725	33,67
574,197	33,2
574,668	33,29
575,14	33,13
575,611	32,38
576,082	32,22
576,554	32,16
577,025	32,2
577,496	31,51
577,967	31,83
578,437	31,36
578,908	31,18
579,379	31,12
579,849	30,69
580,319	30,75
580,79	30,57
581,26	30,35
581,73	30,15
582,2	30,09
582,669	29,61
583,139	29,75
583,609	29,72
584,078	29,1
584,548	29,2
585,017	29,09
585,486	28,97
585,955	28,8
586,424	28,81
586,893	28,71
587,362	28,58
587,83	28,34
588,299	27,92
588,767	28,21
589,236	28,11
589,704	27,65
590,172	27,89
590,64	27,6
591,108	27,71
591,576	27,58
592,043	27,43
592,511	27,3
592,978	27,04
593,446	27,13
593,913	27,07
594,38	26,91
594,847	27,05
595,314	26,68
595,781	26,69
596,248	26,61
596,715	26,69
597,181	26,62
597,647	26,56
598,114	26,47
598,58	26,65
599,046	26,38
599,512	26,38
599,978	26,21
600,444	26,32
600,91	26,2
601,375	26,31
601,841	26,1
602,306	25,9
602,771	26
603,236	25,86
603,702	25,63
604,167	25,68
604,631	25,53
605,096	25,64
605,561	25,28
606,025	25,26
606,49	25,2
606,954	25,32
607,418	25,09
607,882	24,95
608,347	24,85
608,81	24,74
609,274	24,54
609,738	24,48
610,202	24,4
610,665	24,07
611,128	24,11
611,592	23,94
612,055	23,63
612,518	23,55
612,981	23,3
613,444	23,31
613,907	23,2
614,369	23,05
614,832	23,22
615,294	22,71
615,757	22,72
616,219	22,58
616,681	22,54
617,143	22,36
617,605	22,14
618,067	22,16
618,529	21,95
618,99	21,7
619,452	21,67
619,913	21,84
620,375	21,46
620,836	21,35
621,297	21,27
621,758	21,39
622,219	21,29
622,68	21,19
623,14	21,12
623,601	21,13
624,061	20,99
624,522	20,84
624,982	20,85
625,442	20,84
625,902	20,93
626,362	20,63
626,822	20,87
627,282	20,76
627,742	20,75
628,201	20,63
628,661	20,62
629,12	20,57
629,579	20,62
630,038	20,67
630,497	20,59
630,956	20,45
631,415	20,39
631,874	20,32
632,332	20,44
632,791	20,39
633,249	20,26
633,708	20,21
634,166	20,22
634,624	20,08
635,082	19,75
635,54	19,78
635,998	19,68
636,455	19,58
636,913	19,36
637,37	19,19
637,828	19,06
638,285	18,96
638,742	18,85
639,199	18,63
639,656	18,42
640,113	18,32
640,57	18,01
641,027	17,94
641,483	17,73
641,94	17,58
642,396	17,42
642,852	17,3
643,309	16,95
643,765	16,85
644,221	16,57
644,676	16,42
645,132	16,39
645,588	15,94
646,043	15,78
646,499	15,56
646,954	15,35
647,409	15,37
647,864	15,05
648,319	14,97
648,774	14,8
649,229	14,75
649,684	14,64
650,139	14,53
650,593	14,32
651,047	14,28
651,502	14,17
651,956	14,02
652,41	13,91
652,864	13,88
653,318	13,78
653,772	13,9
654,225	13,83
654,679	13,71
655,133	13,55
655,586	13,53
656,039	13,27
656,492	13,29
656,946	13,15
657,399	13,17
657,851	12,81
658,304	12,78
658,757	12,74
659,209	12,56
659,662	12,43
660,114	12,2
660,567	12
661,019	12,02
661,471	11,81
661,923	11,7
662,375	11,59
662,826	11,38
663,278	11,37
663,73	11,15
664,181	10,98
664,632	10,92
665,084	10,8
665,535	10,66
665,986	10,76
666,437	10,54
666,888	10,48
667,338	10,45
667,789	10,38
668,24	10,32
668,69	10,35
669,14	10,24
669,591	10,32
670,041	10,31
670,491	10,24
670,941	10,25
671,391	10,24
671,84	10,32
672,29	10,27
672,74	10,38
673,189	10,41
673,638	10,34
674,088	10,56
674,537	10,47
674,986	10,58
675,435	10,73
675,883	10,75
676,332	10,95
676,781	10,98
677,229	11,07
677,678	11,23
678,126	11,31
678,574	11,51
679,022	11,55
679,47	11,81
679,918	11,92
680,366	11,89
680,814	12,12
681,261	12,26
681,709	12,39
682,156	12,67
682,604	12,81
683,051	12,97
683,498	13,27
683,945	13,46
684,392	13,66
684,839	13,87
685,286	14,23
685,732	14,45
686,179	14,77
686,625	15,04
687,071	15,29
687,518	15,95
687,964	16,19
688,41	16,63
688,856	17
689,301	17,67
689,747	18,04
690,193	18,56
690,638	19,19
691,084	19,83
691,529	20,35
691,974	21,13
692,419	21,92
692,864	22,59
693,309	23,21
693,754	23,91
694,199	24,67
694,643	25,52
695,088	26,46
695,532	27,2
695,977	27,9
696,421	28,78
696,865	29,38
697,309	30,35
697,753	31
698,197	31,69
698,64	32,5
699,084	33,32
699,527	34,12
699,971	34,78
700,414	35,53
700,857	36,26
701,3	36,92
701,743	37,62
702,186	38,23
702,629	38,8
703,072	39,58
703,515	40,38
703,957	40,57
704,399	41,37
704,842	41,97
705,284	42,29
705,726	43,12
706,168	43,72
706,61	44,34
707,052	44,6
707,494	44,96
707,935	45,71
708,377	46,1
708,818	46,49
709,26	46,94
709,701	47,46
710,142	48,03
710,583	48,39
711,024	48,93
711,465	49,24
711,905	49,71
712,346	50,08
712,787	50,28
713,227	50,66
713,667	51,52
714,108	51,55
714,548	51,92
714,988	52,2
715,428	52,68
715,868	53,12
716,307	53,17
716,747	53,81
717,186	53,88
717,626	54,44
718,065	54,78
718,504	54,88
718,944	55,72
719,383	55,66
719,822	55,95
720,261	55,86
720,699	56,43
721,138	56,67
721,576	56,9
722,015	57,28
722,453	57,63
722,892	57,58
723,33	57,84
723,768	57,99
724,206	58,26
724,644	58,62
725,081	58,71
725,519	58,72
725,957	58,9
726,394	59,26
726,832	59,31
727,269	59,85
727,706	59,59
728,143	60,14
728,58	60,2
729,017	60,08
729,454	60,51
729,89	60,53
730,327	60,27
730,764	60,83
731,2	60,87
731,636	61,13
732,072	61,11
732,509	61,23
732,945	61,21
733,38	61,3
733,816	61,09
734,252	61,3
734,688	61,21
735,123	61,49
735,559	61,72
735,994	61,68
736,429	61,79
736,864	62,07
737,299	61,7
737,734	61,92
738,169	61,6
738,604	62,07
739,038	62,14
739,473	61,95
739,907	62,05
740,342	62,03
740,776	61,78
741,21	62,42
741,644	62,31
742,078	62,29
742,512	62,26
742,946	62,39
743,379	62,08
743,813	62,13
744,246	62,05
744,68	62,44
745,113	62,13
745,546	61,98
745,979	62,09
746,412	62,08
746,845	61,87
747,278	62,12
747,711	62,26
748,143	62,06
748,576	62,07
749,008	61,9
749,441	61,83
749,873	61,98
750,305	61,95
750,737	62,05
751,169	61,67
751,601	61,72
752,032	61,93
752,464	61,82
752,896	61,82
753,327	61,78
753,758	61,63
754,19	61,67
754,621	61,81
755,052	61,65
755,483	61,48
755,914	61,69
756,344	61,57
756,775	61,46
757,206	61,54
757,636	61,31
758,066	61,44
758,497	61,5
758,927	61,17
759,357	61,53
759,787	61,37
760,217	61,34
760,647	60,84
761,076	61,14
761,506	61,08
761,935	61,14
762,365	61,12
762,794	61,06
763,223	60,93
763,653	60,98
764,082	60,79
764,51	60,96
764,939	60,97
765,368	60,89
765,797	61,11
766,225	60,71
766,654	60,66
767,082	60,66
767,51	60,9
767,938	60,59
768,367	60,64
768,795	60,44
769,222	60,5
769,65	60,64
770,078	60,43
770,505	60,49
770,933	60,6
771,36	60,51
771,788	60,55
772,215	60,56
772,642	60,24
773,069	60,38
773,496	60,35
773,923	60,12
774,349	60,12
774,776	60,27
775,203	60,26
775,629	60,37
776,055	60,25
776,482	60,24
776,908	60,16
777,334	60,29
777,76	60,11
778,186	60,1
778,611	60,15
779,037	60,23
779,463	60,21
779,888	60,14
780,314	60,12
780,739	60,11
781,164	60,08
781,589	59,98
782,014	59,94
782,439	60
782,864	60,01
783,289	60,19
783,713	59,97
784,138	59,87
784,562	59,97
784,987	59,69
785,411	59,77
785,835	60
786,259	59,73
786,683	59,88
787,107	59,98
787,531	59,71
787,954	59,55
788,378	60,03
788,802	60,08
789,225	59,94
789,648	59,67
790,071	59,89
790,495	59,51
790,918	59,8
791,34	59,99
791,763	59,51
792,186	59,77
792,609	59,97
793,031	59,7
793,454	59,66
793,876	59,78
794,298	59,44
794,721	59,52
795,143	59,65
795,565	59,73
795,986	59,81
796,408	59,45
796,83	59,99
797,252	59,9
797,673	59,52
798,094	59,19
798,516	59,64
798,937	59,81
799,358	59,59
799,779	59,4
800,2	59,65
800,621	59,45
801,042	59,4
801,462	59,37
801,883	59,5
802,303	59,66
802,724	59,53
803,144	59,72
803,564	59,21
803,984	59,58
804,404	59,6
804,824	59,74
805,244	59,48
805,664	59,58
806,084	59,31
806,503	59,55
806,923	59,5
807,342	59,19
807,761	59,24
808,18	59,69
808,599	59,46
809,018	59,35
809,437	59,55
809,856	59,41
810,275	59,31
810,693	59,57
811,112	59,48
811,53	59,53
811,949	59,75
812,367	59,36
812,785	59,38
813,203	59,64
813,621	59,53
814,039	59,31
814,457	59,18
814,874	59,41
815,292	59,39
815,709	59,33
816,127	59,36
816,544	59,71
816,961	59,37
817,378	59,4
817,795	59,33
818,212	59,41
818,629	59,38
819,046	58,93
819,462	59,15
819,879	59,44
820,295	59,4
820,712	59,45
821,128	59,19
821,544	59,36
821,96	59,16
822,376	59,09
822,792	59,26
823,208	59,22
823,624	59,35
824,039	59,43
824,455	59,51
824,87	59,23
825,286	59,28
825,701	59,53
826,116	58,98
826,531	59,17
826,946	59,41
827,361	59,07
827,776	59,09
828,19	59,08
828,605	59,09
829,02	59,2
829,434	59,12
829,848	59,28
830,263	59,31
830,677	59,21
831,091	59,21
831,505	59,34
831,919	59,1
832,332	59,08
832,746	59,4
833,16	59,1
833,573	58,83
833,987	58,85
834,4	59,03
834,813	59
835,226	59,21
835,639	59
836,052	59,08
836,465	59,07
