Data from G2__Relative__9__00122.txt Node

Date: Tue Jan 30 18:04:21 CET 2024
User: diatiterra
Spectrometer: HDX00911
Trigger mode: 0
Integration Time (sec): 6,000000E-3
Scans to average: 3
Nonlinearity correction enabled: true
Boxcar width: 0
Storing dark spectrum: false
XAxis mode: Wavelengths
Number of Pixels in Spectrum: 2068
>>>>>Begin Spectral Data<<<<<
194,468	131,96
195,025	99,16
195,581	96,69
196,138	103,55
196,694	97,73
197,251	82,22
197,807	82,15
198,363	76,52
198,919	78,27
199,474	87,5
200,03	74,63
200,586	77,77
201,141	73,88
201,696	72,42
202,251	71,89
202,806	84,92
203,361	77,8
203,916	75,69
204,471	74,64
205,025	71,65
205,58	76,77
206,134	77,43
206,688	72,28
207,242	75,23
207,796	77,64
208,35	78,55
208,904	78,6
209,457	73,99
210,011	80,38
210,564	76,42
211,117	80,74
211,67	82,69
212,223	78,25
212,776	78,36
213,329	80,91
213,881	76,31
214,434	71,3
214,986	83,08
215,538	77,23
216,09	70,78
216,642	74,48
217,194	81,27
217,746	76,15
218,297	74,69
218,849	74,47
219,4	80,34
219,951	74,38
220,502	78,76
221,053	73,28
221,604	74,3
222,155	80,28
222,705	76,09
223,256	77,38
223,806	78,2
224,356	82,84
224,906	77,92
225,456	74,19
226,006	74,84
226,556	72,84
227,106	83,76
227,655	78,16
228,204	79,03
228,754	79,49
229,303	79,23
229,852	85,66
230,401	78,13
230,949	78,3
231,498	71,82
232,047	73,55
232,595	79,45
233,143	80,51
233,691	74,34
234,239	74,94
234,787	78,11
235,335	76,29
235,883	76,55
236,43	79,5
236,978	71,95
237,525	77,2
238,072	79,7
238,619	79,13
239,166	73,45
239,713	76,25
240,26	78,8
240,806	71,62
241,353	73,68
241,899	72,06
242,445	76,11
242,991	76,38
243,537	75,26
244,083	76,67
244,629	77,98
245,174	75,74
245,72	75,47
246,265	85,83
246,81	85,44
247,355	78,39
247,9	78,62
248,445	81,93
248,99	78,92
249,534	77,68
250,079	82,17
250,623	78,55
251,168	73,76
251,712	71,97
252,256	67,55
252,8	80,97
253,343	77,05
253,887	70,74
254,43	84,97
254,974	78,99
255,517	78,98
256,06	80,74
256,603	78,47
257,146	77,35
257,689	81,93
258,232	80,31
258,774	78,76
259,317	77,03
259,859	72,72
260,401	86,14
260,943	76,06
261,485	76,65
262,027	82,23
262,569	72,7
263,11	74,95
263,652	81,08
264,193	77,66
264,734	72,92
265,275	75,5
265,816	76,48
266,357	75,2
266,898	75,11
267,438	80,05
267,979	80,97
268,519	81,07
269,059	76,81
269,6	75,56
270,14	80,19
270,68	73,88
271,219	82,02
271,759	78,07
272,298	75,37
272,838	75,6
273,377	77,99
273,916	75,84
274,455	73,33
274,994	82,57
275,533	75,78
276,072	83,57
276,61	76,58
277,149	80,68
277,687	73,58
278,225	74,58
278,763	82,03
279,301	77,9
279,839	80,01
280,377	76,14
280,914	80,51
281,452	80,61
281,989	87,82
282,526	76,37
283,064	82,8
283,601	74,51
284,137	75,56
284,674	76,58
285,211	82,59
285,747	80,52
286,284	83,81
286,82	76,89
287,356	79,13
287,892	83,43
288,428	76,87
288,964	81,12
289,5	75,55
290,035	75,12
290,571	80
291,106	88,81
291,641	81,01
292,176	79,21
292,711	74,95
293,246	76,6
293,781	78,08
294,315	71,31
294,85	82,28
295,384	81,01
295,918	71,3
296,453	73,75
296,987	75,38
297,52	80,36
298,054	76,98
298,588	79,59
299,121	78,07
299,655	76,18
300,188	77,51
300,721	75,55
301,254	71,78
301,787	75,85
302,32	86,61
302,853	76,23
303,385	75,56
303,918	77,29
304,45	70,84
304,982	71,6
305,514	78,89
306,046	72,21
306,578	70,48
307,11	73,96
307,641	78,07
308,173	75,49
308,704	79,7
309,236	82,85
309,767	75,96
310,298	73,97
310,829	74
311,359	70,75
311,89	77,09
312,421	69,33
312,951	81,28
313,481	79,6
314,012	77,27
314,542	79,44
315,072	75,27
315,601	69,78
316,131	77,59
316,661	78,56
317,19	76,57
317,72	77,55
318,249	78,25
318,778	78,67
319,307	73,54
319,836	76,97
320,365	79,22
320,893	78,02
321,422	68,04
321,95	71,76
322,479	74,46
323,007	67,73
323,535	72,37
324,063	76,35
324,591	82,28
325,118	77,97
325,646	69,59
326,173	79,47
326,701	81,05
327,228	78,67
327,755	80,94
328,282	74,14
328,809	74,78
329,336	78,29
329,862	75,22
330,389	78,59
330,915	74,06
331,441	75,48
331,968	72,07
332,494	68,48
333,02	77,21
333,545	77,11
334,071	78,23
334,597	74,53
335,122	77,25
335,648	73,53
336,173	73,95
336,698	73,5
337,223	76,63
337,748	70,22
338,272	67,22
338,797	70,41
339,322	74,52
339,846	76,8
340,37	77,36
340,894	71,58
341,419	73,48
341,942	69,32
342,466	68,65
342,99	73,91
343,514	74,43
344,037	69,31
344,56	77,02
345,084	65,01
345,607	74,73
346,13	71,11
346,653	67,38
347,175	66,9
347,698	77,77
348,221	71,68
348,743	70,06
349,265	69,77
349,787	68,96
350,309	72,11
350,831	70,6
351,353	62,93
351,875	70,29
352,397	64,51
352,918	72,66
353,439	72,45
353,961	69,12
354,482	65,47
355,003	65,79
355,524	64,33
356,044	66,29
356,565	65,91
357,086	64,97
357,606	65,55
358,126	71,05
358,646	63,62
359,167	62,04
359,687	65,25
360,206	65,64
360,726	68,34
361,246	64,2
361,765	64,81
362,285	68,63
362,804	60,99
363,323	63,67
363,842	63,38
364,361	63,86
364,88	65,42
365,398	61,85
365,917	61,87
366,435	65,84
366,954	64,45
367,472	62,27
367,99	63,28
368,508	56,79
369,026	59,17
369,544	59,19
370,061	59,9
370,579	59,16
371,096	59,65
371,613	61,66
372,131	62,54
372,648	62,32
373,165	55,12
373,681	59,6
374,198	59,41
374,715	58,69
375,231	59,19
375,747	55,07
376,264	54,42
376,78	58,1
377,296	57,46
377,812	56,02
378,327	58,26
378,843	55,56
379,359	56,11
379,874	55,03
380,389	56,85
380,905	55,11
381,42	54,07
381,935	54,74
382,449	51,36
382,964	53,37
383,479	52,67
383,993	48,17
384,508	50,09
385,022	50,38
385,536	51,03
386,05	49,14
386,564	48,33
387,078	47,53
387,592	48,44
388,105	45,08
388,619	47,56
389,132	43,96
389,645	46,35
390,158	46,5
390,671	44,19
391,184	43,93
391,697	41,62
392,21	44,24
392,722	43,23
393,235	43,9
393,747	44,06
394,259	42,11
394,771	42,85
395,283	40,5
395,795	42,46
396,307	41,36
396,818	40,19
397,33	42,08
397,841	38,12
398,353	40,41
398,864	40,14
399,375	37,52
399,886	35,66
400,397	36,02
400,907	35,6
401,418	35,99
401,928	35,59
402,439	34,02
402,949	33,47
403,459	32,57
403,969	31,75
404,479	31,09
404,989	29,41
405,498	29,91
406,008	28,81
406,517	29,85
407,027	26,92
407,536	27,19
408,045	26,04
408,554	24,3
409,063	25,58
409,572	24,43
410,08	23,24
410,589	22,81
411,097	21,61
411,606	20,82
412,114	20,89
412,622	19,86
413,13	19,61
413,638	18,94
414,145	18,25
414,653	18,19
415,16	17,92
415,668	17,41
416,175	16,96
416,682	16,44
417,189	16
417,696	15,36
418,203	15,67
418,71	15,77
419,216	15,09
419,723	14,86
420,229	14,49
420,735	15,22
421,242	14,33
421,748	13,77
422,254	14,25
422,759	13,68
423,265	14,03
423,771	13,24
424,276	13,65
424,781	13,06
425,287	13,39
425,792	13,06
426,297	13,39
426,802	13,19
427,306	12,99
427,811	13,64
428,316	13,41
428,82	12,7
429,324	13,17
429,829	12,47
430,333	12,48
430,837	12,73
431,34	12,44
431,844	12,51
432,348	12,75
432,851	12,34
433,355	12,44
433,858	12,51
434,361	12,47
434,864	12,16
435,367	12,06
435,87	11,89
436,373	12,38
436,876	11,94
437,378	12,09
437,88	11,95
438,383	11,76
438,885	11,69
439,387	11,99
439,889	11,77
440,391	12,09
440,892	11,78
441,394	11,72
441,896	11,85
442,397	11,8
442,898	11,86
443,399	11,81
443,9	11,79
444,401	11,97
444,902	11,6
445,403	11,83
445,903	11,74
446,404	11,96
446,904	11,65
447,405	11,66
447,905	11,97
448,405	12,4
448,905	12,04
449,404	12,07
449,904	11,86
450,404	12,57
450,903	12,15
451,403	11,99
451,902	12,02
452,401	12,44
452,9	12,33
453,399	12,3
453,898	12,38
454,396	12,22
454,895	12,19
455,393	11,9
455,892	12,45
456,39	12,25
456,888	12,5
457,386	12,33
457,884	12,6
458,382	12,55
458,879	12,29
459,377	12,41
459,874	12,45
460,372	12,57
460,869	12,68
461,366	12,83
461,863	12,87
462,36	12,48
462,857	12,59
463,353	12,46
463,85	12,51
464,346	12,54
464,843	12,71
465,339	12,87
465,835	12,61
466,331	12,62
466,827	12,8
467,323	12,62
467,818	12,59
468,314	12,39
468,809	12,27
469,305	12,45
469,8	12,46
470,295	12,76
470,79	12,4
471,285	12,47
471,78	12,81
472,274	12,37
472,769	12,54
473,263	12,66
473,758	12,41
474,252	12,65
474,746	12,32
475,24	12,68
475,734	12,58
476,228	12,62
476,721	12,74
477,215	12,74
477,708	12,62
478,202	12,79
478,695	12,64
479,188	12,78
479,681	12,79
480,174	12,62
480,667	12,69
481,159	12,89
481,652	12,84
482,144	12,68
482,637	12,65
483,129	12,68
483,621	13,14
484,113	12,82
484,605	12,92
485,097	12,85
485,588	12,81
486,08	12,8
486,571	12,99
487,063	13,22
487,554	13,11
488,045	13,26
488,536	13,42
489,027	13,27
489,518	13,39
490,008	13,28
490,499	13,39
490,989	13,47
491,48	13,54
491,97	13,56
492,46	13,78
492,95	13,75
493,44	14
493,93	14,05
494,419	14,01
494,909	14,15
495,398	14,26
495,888	14,54
496,377	14,7
496,866	14,82
497,355	14,83
497,844	14,81
498,333	14,99
498,821	15,26
499,31	15,08
499,798	15
500,287	15,48
500,775	15,88
501,263	15,97
501,751	16,33
502,239	16,34
502,727	16,8
503,215	17,02
503,702	16,84
504,19	16,92
504,677	17,45
505,164	17,41
505,651	17,69
506,139	17,92
506,625	18,1
507,112	18,3
507,599	18,73
508,086	19,07
508,572	19,58
509,058	19,52
509,545	19,86
510,031	20,29
510,517	20,65
511,003	20,79
511,489	21,03
511,974	21,7
512,46	22,01
512,946	22,3
513,431	22,61
513,916	22,44
514,401	23,26
514,887	23,84
515,371	23,99
515,856	24,55
516,341	25,28
516,826	25,32
517,31	25,69
517,795	26,11
518,279	26,4
518,763	26,64
519,247	27,1
519,731	27,53
520,215	28,24
520,699	28,3
521,182	28,7
521,666	29,19
522,149	29,73
522,633	30,03
523,116	30,24
523,599	30,95
524,082	31,44
524,565	31,3
525,048	31,87
525,53	32,4
526,013	32,64
526,495	32,86
526,978	33,45
527,46	33,39
527,942	33,63
528,424	34,13
528,906	34,13
529,388	34,78
529,87	34,58
530,351	34,87
530,833	35,21
531,314	35,38
531,795	35,63
532,277	35,72
532,758	35,85
533,238	35,89
533,719	36,19
534,2	36,38
534,681	36,42
535,161	36,51
535,642	36,7
536,122	37,05
536,602	36,99
537,082	37,23
537,562	37
538,042	37,32
538,522	37,24
539,001	37,47
539,481	37,6
539,96	37,67
540,44	37,82
540,919	37,51
541,398	37,64
541,877	37,95
542,356	37,81
542,835	37,73
543,313	38,08
543,792	38,11
544,27	38,37
544,749	38,25
545,227	38,16
545,705	38,28
546,183	38,26
546,661	38,16
547,139	38,28
547,616	38,17
548,094	38,15
548,571	38,48
549,049	38,74
549,526	38,9
550,003	38,75
550,48	38,58
550,957	38,6
551,434	38,43
551,911	38,57
552,387	38,88
552,864	38,65
553,34	38,62
553,817	38,84
554,293	38,61
554,769	39,08
555,245	38,67
555,721	38,63
556,197	38,33
556,672	39,2
557,148	38,8
557,623	38,78
558,099	38,63
558,574	38,65
559,049	38,22
559,524	38,34
559,999	38,74
560,474	38,5
560,948	38,26
561,423	38,3
561,897	38,12
562,372	37,89
562,846	38,05
563,32	37,84
563,794	37,81
564,268	37,37
564,742	37,11
565,216	37,4
565,69	37,38
566,163	36,97
566,636	36,64
567,11	36,96
567,583	36,37
568,056	36,23
568,529	36,12
569,002	35,74
569,475	35,52
569,947	35,21
570,42	35,24
570,892	35,28
571,365	35,14
571,837	34,56
572,309	34,36
572,781	34,27
573,253	34,23
573,725	33,75
574,197	33,89
574,668	33,78
575,14	33,47
575,611	33,11
576,082	32,78
576,554	32,74
577,025	32,74
577,496	32,08
577,967	32,48
578,437	32,32
578,908	31,91
579,379	31,35
579,849	31,66
580,319	31,45
580,79	31,09
581,26	31,1
581,73	30,64
582,2	30,77
582,669	30,46
583,139	30,62
583,609	30,16
584,078	30,09
584,548	29,94
585,017	29,76
585,486	29,81
585,955	29,76
586,424	29,47
586,893	29,43
587,362	29,35
587,83	29,21
588,299	29,05
588,767	28,89
589,236	28,95
589,704	28,54
590,172	28,97
590,64	28,47
591,108	28,53
591,576	28,6
592,043	28,39
592,511	28,14
592,978	27,98
593,446	28,03
593,913	27,88
594,38	28,08
594,847	28,11
595,314	27,72
595,781	27,7
596,248	27,83
596,715	27,83
597,181	27,81
597,647	27,56
598,114	27,6
598,58	27,56
599,046	27,37
599,512	27,49
599,978	27,25
600,444	27,42
600,91	27,13
601,375	27,43
601,841	27,13
602,306	27,03
602,771	27,16
603,236	27,09
603,702	27,02
604,167	26,78
604,631	26,64
605,096	26,56
605,561	26,37
606,025	26,27
606,49	26,29
606,954	26,23
607,418	26,06
607,882	25,99
608,347	25,87
608,81	25,86
609,274	25,28
609,738	25,59
610,202	25,45
610,665	25,29
611,128	25,08
611,592	25,05
612,055	25
612,518	24,84
612,981	24,72
613,444	24,73
613,907	24,33
614,369	24,21
614,832	24,33
615,294	23,99
615,757	23,99
616,219	24,07
616,681	23,9
617,143	23,66
617,605	23,45
618,067	23,48
618,529	23,28
618,99	23,21
619,452	23,16
619,913	23,27
620,375	22,81
620,836	22,9
621,297	22,82
621,758	22,89
622,219	22,68
622,68	22,76
623,14	22,55
623,601	22,6
624,061	22,46
624,522	22,27
624,982	22,32
625,442	22,24
625,902	22,45
626,362	22,18
626,822	22,39
627,282	22,23
627,742	22,21
628,201	22,06
628,661	22,12
629,12	21,8
629,579	21,98
630,038	22,2
630,497	22
630,956	21,91
631,415	21,97
631,874	21,93
632,332	21,84
632,791	21,68
633,249	21,75
633,708	21,65
634,166	21,56
634,624	21,38
635,082	21,54
635,54	21,22
635,998	21,08
636,455	21,01
636,913	20,92
637,37	20,78
637,828	20,61
638,285	20,63
638,742	20,46
639,199	20,4
639,656	20,06
640,113	19,82
640,57	19,84
641,027	19,6
641,483	19,36
641,94	19,26
642,396	19,17
642,852	19,07
643,309	18,77
643,765	18,66
644,221	18,47
644,676	18,37
645,132	18,24
645,588	18,05
646,043	17,72
646,499	17,67
646,954	17,36
647,409	17,39
647,864	17,13
648,319	16,9
648,774	16,94
649,229	16,78
649,684	16,7
650,139	16,53
650,593	16,63
651,047	16,31
651,502	16,29
651,956	16,16
652,41	15,97
652,864	16,01
653,318	15,84
653,772	15,82
654,225	15,88
654,679	15,73
655,133	15,69
655,586	15,62
656,039	15,42
656,492	15,42
656,946	15,26
657,399	15,2
657,851	15,04
658,304	15,02
658,757	14,81
659,209	14,76
659,662	14,66
660,114	14,45
660,567	14,38
661,019	14,16
661,471	14,1
661,923	13,89
662,375	13,86
662,826	13,78
663,278	13,69
663,73	13,44
664,181	13,41
664,632	13,44
665,084	13,2
665,535	13,24
665,986	13,11
666,437	12,95
666,888	13,06
667,338	12,94
667,789	12,93
668,24	12,98
668,69	12,87
669,14	12,87
669,591	12,78
670,041	12,81
670,491	12,84
670,941	12,86
671,391	12,91
671,84	12,8
672,29	13,07
672,74	13,05
673,189	13,02
673,638	12,94
674,088	13,05
674,537	13,15
674,986	13,23
675,435	13,34
675,883	13,33
676,332	13,39
676,781	13,66
677,229	13,73
677,678	13,86
678,126	13,95
678,574	14,03
679,022	14,15
679,47	14,21
679,918	14,44
680,366	14,46
680,814	14,6
681,261	14,68
681,709	15
682,156	15,11
682,604	15,17
683,051	15,35
683,498	15,69
683,945	15,84
684,392	16,07
684,839	16,17
685,286	16,47
685,732	16,66
686,179	16,86
686,625	17,1
687,071	17,31
687,518	17,76
687,964	18,09
688,41	18,49
688,856	18,73
689,301	19,21
689,747	19,63
690,193	20,13
690,638	20,56
691,084	21,23
691,529	21,7
691,974	22,42
692,419	22,94
692,864	23,53
693,309	24,28
693,754	24,79
694,199	25,75
694,643	26,07
695,088	26,84
695,532	27,71
695,977	28,31
696,421	29,01
696,865	29,71
697,309	30,51
697,753	31,1
698,197	31,79
698,64	32,35
699,084	32,8
699,527	33,64
699,971	34,16
700,414	34,75
700,857	35,63
701,3	36,21
701,743	36,63
702,186	37,26
702,629	37,78
703,072	38,22
703,515	38,78
703,957	39,29
704,399	39,81
704,842	40,39
705,284	40,6
705,726	41,28
706,168	41,9
706,61	42,33
707,052	42,81
707,494	43,01
707,935	43,67
708,377	43,8
708,818	44,31
709,26	44,67
709,701	45,02
710,142	45,24
710,583	45,74
711,024	46,15
711,465	46,57
711,905	46,65
712,346	47,12
712,787	47,55
713,227	47,73
713,667	48,24
714,108	48,62
714,548	48,7
714,988	48,95
715,428	49,33
715,868	49,65
716,307	49,54
716,747	50,17
717,186	50,45
717,626	50,61
718,065	51,05
718,504	50,97
718,944	51,73
719,383	51,67
719,822	52,27
720,261	52,16
720,699	52,39
721,138	52,52
721,576	52,68
722,015	53,17
722,453	53,21
722,892	53,4
723,33	53,55
723,768	53,91
724,206	53,71
724,644	54,05
725,081	54,25
725,519	54,45
725,957	54,28
726,394	54,6
726,832	54,62
727,269	54,81
727,706	54,95
728,143	55,33
728,58	55,32
729,017	55,37
729,454	55,83
729,89	55,61
730,327	55,68
730,764	55,74
731,2	55,71
731,636	56,1
732,072	56,34
732,509	56,33
732,945	56,21
733,38	56,31
733,816	56,2
734,252	56,18
734,688	56,06
735,123	56,45
735,559	56,43
735,994	56,82
736,429	56,62
736,864	56,61
737,299	56,45
737,734	56,59
738,169	56,8
738,604	57,04
739,038	56,99
739,473	56,69
739,907	56,8
740,342	56,59
740,776	56,47
741,21	56,86
741,644	57,12
742,078	56,88
742,512	56,98
742,946	56,86
743,379	56,73
743,813	56,74
744,246	56,67
744,68	56,56
745,113	56,69
745,546	56,53
745,979	56,72
746,412	56,92
746,845	56,53
747,278	56,72
747,711	56,76
748,143	56,49
748,576	56,34
749,008	56,5
749,441	56,25
749,873	56,61
750,305	56,14
750,737	56,37
751,169	56,18
751,601	56,38
752,032	56,49
752,464	56,33
752,896	56,28
753,327	55,94
753,758	56,06
754,19	56,21
754,621	56,18
755,052	56,15
755,483	55,89
755,914	56,22
756,344	56,04
756,775	55,83
757,206	56,09
757,636	55,83
758,066	55,73
758,497	55,64
758,927	55,5
759,357	55,58
759,787	55,8
760,217	55,61
760,647	55,49
761,076	55,72
761,506	55,69
761,935	55,4
762,365	55,37
762,794	55,11
763,223	55,23
763,653	55,5
764,082	55,17
764,51	55,45
764,939	55,37
765,368	55,35
765,797	55,24
766,225	55,19
766,654	54,9
767,082	55,06
767,51	55,07
767,938	55,22
768,367	54,85
768,795	54,91
769,222	54,99
769,65	55,07
770,078	54,99
770,505	54,83
770,933	54,69
771,36	54,67
771,788	54,54
772,215	54,84
772,642	54,68
773,069	54,44
773,496	54,66
773,923	54,44
774,349	54,45
774,776	54,68
775,203	54,49
775,629	54,58
776,055	54,61
776,482	54,63
776,908	54,36
777,334	54,47
777,76	54,29
778,186	54,67
778,611	54,53
779,037	54,57
779,463	54,6
779,888	54,16
780,314	54,23
780,739	54,5
781,164	54,34
781,589	54,3
782,014	54,29
782,439	54,28
782,864	54,08
783,289	54,28
783,713	54,05
784,138	53,89
784,562	54,16
784,987	53,86
785,411	54,08
785,835	54,1
786,259	54,26
786,683	54,14
787,107	54,18
787,531	54
787,954	53,83
788,378	54,06
788,802	54
789,225	53,92
789,648	54,18
790,071	53,94
790,495	53,61
790,918	53,94
791,34	54,01
791,763	53,88
792,186	53,98
792,609	54,15
793,031	53,88
793,454	53,94
793,876	53,95
794,298	53,8
794,721	53,78
795,143	53,98
795,565	53,9
795,986	53,88
796,408	53,85
796,83	53,82
797,252	53,96
797,673	53,88
798,094	53,71
798,516	53,7
798,937	53,92
799,358	53,96
799,779	53,49
800,2	53,79
800,621	53,66
801,042	53,67
801,462	53,55
801,883	53,81
802,303	53,63
802,724	53,67
803,144	53,55
803,564	53,74
803,984	53,93
804,404	53,94
804,824	53,8
805,244	53,8
805,664	53,68
806,084	53,57
806,503	53,8
806,923	53,64
807,342	53,37
807,761	53,37
808,18	53,67
808,599	53,6
809,018	53,43
809,437	53,61
809,856	53,11
810,275	53,5
810,693	53,53
811,112	53,67
811,53	53,51
811,949	53,77
812,367	53,57
812,785	53,5
813,203	53,54
813,621	53,68
814,039	53,59
814,457	53,24
814,874	53,57
815,292	53,6
815,709	53,17
816,127	53,44
816,544	53,7
816,961	53,74
817,378	53,68
817,795	53,42
818,212	53,37
818,629	53,51
819,046	53,41
819,462	53,27
819,879	53,46
820,295	53,16
820,712	52,98
821,128	53,27
821,544	53,31
821,96	53,02
822,376	53,29
822,792	53,3
823,208	53,23
823,624	53,57
824,039	53,36
824,455	53,35
824,87	53,34
825,286	53,13
825,701	53,41
826,116	53,05
826,531	53,23
826,946	53,17
827,361	53,19
827,776	53,2
828,19	53,2
828,605	53,33
829,02	53,37
829,434	53,12
829,848	53,5
830,263	53,35
830,677	53,28
831,091	53,3
831,505	53,32
831,919	53,23
832,332	52,97
832,746	52,94
833,16	53,31
833,573	53,29
