Data from G4__Relative__2__00126.txt Node

Date: Tue Jan 30 18:06:07 CET 2024
User: diatiterra
Spectrometer: HDX00911
Trigger mode: 0
Integration Time (sec): 6,000000E-3
Scans to average: 3
Nonlinearity correction enabled: true
Boxcar width: 0
Storing dark spectrum: false
XAxis mode: Wavelengths
Number of Pixels in Spectrum: 2068
>>>>>Begin Spectral Data<<<<<
194,468	145,79
195,025	113,19
195,581	117,77
196,138	115,81
196,694	102,54
197,251	95,29
197,807	91,19
198,363	86,17
198,919	95,45
199,474	98,44
200,03	90,36
200,586	84,04
201,141	84,4
201,696	81,55
202,251	87,98
202,806	85,74
203,361	88,16
203,916	81,31
204,471	89,07
205,025	84,81
205,58	90,3
206,134	90,3
206,688	87,54
207,242	83,28
207,796	83,53
208,35	84,16
208,904	87,71
209,457	82,34
210,011	94,31
210,564	83,75
211,117	88,11
211,67	101,55
212,223	90,24
212,776	89,71
213,329	90,56
213,881	89,94
214,434	81,06
214,986	89,72
215,538	92,88
216,09	89,65
216,642	84,36
217,194	87,23
217,746	90,79
218,297	82,46
218,849	94
219,4	89,43
219,951	89,88
220,502	91,14
221,053	85,5
221,604	85,28
222,155	85,83
222,705	86,28
223,256	85,32
223,806	90,4
224,356	85,56
224,906	85,35
225,456	85,7
226,006	82,83
226,556	84,36
227,106	89,32
227,655	90,85
228,204	95,18
228,754	85,56
229,303	86,08
229,852	93,92
230,401	87,92
230,949	94,01
231,498	84,08
232,047	83,6
232,595	89,3
233,143	90,68
233,691	88,06
234,239	84,21
234,787	86,91
235,335	88,77
235,883	82,97
236,43	90,68
236,978	83,73
237,525	87,27
238,072	81,79
238,619	86,74
239,166	83,55
239,713	90,86
240,26	88,22
240,806	88,77
241,353	85,93
241,899	84,76
242,445	87,31
242,991	86,24
243,537	83,93
244,083	85,59
244,629	85,45
245,174	82,91
245,72	91,04
246,265	98,17
246,81	88,53
247,355	94,16
247,9	89,73
248,445	94,29
248,99	94,36
249,534	94,65
250,079	93,62
250,623	81,15
251,168	86,98
251,712	80,67
252,256	81,8
252,8	85,68
253,343	92,42
253,887	82,4
254,43	95,63
254,974	89,17
255,517	91,51
256,06	89,81
256,603	95,53
257,146	95,65
257,689	95,66
258,232	94,59
258,774	87,34
259,317	90,19
259,859	79,7
260,401	95,32
260,943	89,41
261,485	90,97
262,027	90,68
262,569	88,79
263,11	87,06
263,652	92,17
264,193	86,29
264,734	89,56
265,275	87,42
265,816	85,3
266,357	87,29
266,898	87,45
267,438	92,61
267,979	95,94
268,519	92,52
269,059	88,85
269,6	93,79
270,14	90,9
270,68	86,43
271,219	95,69
271,759	88,16
272,298	83,36
272,838	91,07
273,377	85,68
273,916	84,24
274,455	83,33
274,994	90,74
275,533	87,56
276,072	89,71
276,61	93,48
277,149	83,44
277,687	86,69
278,225	83,33
278,763	94,62
279,301	86,7
279,839	95,24
280,377	87,86
280,914	80,93
281,452	91,11
281,989	97,45
282,526	82,89
283,064	90,55
283,601	82,29
284,137	87,79
284,674	87,77
285,211	86,67
285,747	83,52
286,284	92,71
286,82	85,11
287,356	85,39
287,892	100,98
288,428	85,46
288,964	85,27
289,5	85,94
290,035	93,74
290,571	81,07
291,106	92,87
291,641	94,59
292,176	85,03
292,711	95,47
293,246	85,96
293,781	87,04
294,315	82,07
294,85	95,88
295,384	89,93
295,918	83,96
296,453	86,44
296,987	90,8
297,52	82,35
298,054	88,16
298,588	93,21
299,121	88,93
299,655	85,41
300,188	87,56
300,721	85,24
301,254	90,38
301,787	87,08
302,32	89,91
302,853	81,58
303,385	84,67
303,918	93,8
304,45	79,48
304,982	87,52
305,514	91,02
306,046	81,68
306,578	85,14
307,11	80,36
307,641	89,61
308,173	99,31
308,704	88,71
309,236	87,26
309,767	85,54
310,298	88,5
310,829	88,13
311,359	83,4
311,89	85,85
312,421	86,98
312,951	87,89
313,481	90,62
314,012	87,38
314,542	87,54
315,072	79,54
315,601	84,25
316,131	87,24
316,661	82,28
317,19	87,82
317,72	81,29
318,249	84,65
318,778	89,45
319,307	82,29
319,836	85,92
320,365	87,64
320,893	88,58
321,422	83,48
321,95	83,65
322,479	83,12
323,007	80,55
323,535	81,37
324,063	85,73
324,591	84,56
325,118	86,33
325,646	88,41
326,173	84,21
326,701	86,5
327,228	87,12
327,755	96,65
328,282	82,48
328,809	84
329,336	87,57
329,862	83,48
330,389	84,12
330,915	85,38
331,441	84,36
331,968	83,37
332,494	78,58
333,02	86,46
333,545	86,83
334,071	87,78
334,597	82,25
335,122	84,25
335,648	81,04
336,173	88,12
336,698	84,18
337,223	85,24
337,748	80,53
338,272	81,99
338,797	77,66
339,322	84,98
339,846	80,7
340,37	91,94
340,894	80,56
341,419	82,88
341,942	77,52
342,466	73,75
342,99	78,39
343,514	84,66
344,037	73,21
344,56	84,54
345,084	72,7
345,607	91,3
346,13	79,49
346,653	73,3
347,175	77,35
347,698	80,81
348,221	70,76
348,743	73,77
349,265	79,35
349,787	78,58
350,309	76,22
350,831	79,79
351,353	71,03
351,875	68,29
352,397	69,46
352,918	73,17
353,439	74,7
353,961	72,02
354,482	67,03
355,003	69,53
355,524	69,01
356,044	68,1
356,565	70,31
357,086	68,52
357,606	69,87
358,126	69,67
358,646	68,35
359,167	71,33
359,687	68,06
360,206	66,56
360,726	69,08
361,246	66,26
361,765	71,15
362,285	62,84
362,804	64,09
363,323	65,8
363,842	64,24
364,361	65,48
364,88	65,56
365,398	64,44
365,917	69,1
366,435	62,25
366,954	69,55
367,472	62,15
367,99	69,34
368,508	61,98
369,026	62,83
369,544	65,2
370,061	63,84
370,579	64,58
371,096	61,23
371,613	66,15
372,131	63,46
372,648	60,23
373,165	59,01
373,681	60,56
374,198	63,36
374,715	62,49
375,231	60,65
375,747	61,02
376,264	56,43
376,78	63,35
377,296	56,78
377,812	57,57
378,327	60,82
378,843	57,69
379,359	55,65
379,874	57,79
380,389	56,85
380,905	58,27
381,42	53,82
381,935	50,75
382,449	51,04
382,964	51,7
383,479	52,43
383,993	49,84
384,508	49,66
385,022	46,28
385,536	50,31
386,05	50,53
386,564	48,61
387,078	48,67
387,592	47,52
388,105	44,83
388,619	44,85
389,132	45,29
389,645	44,37
390,158	43,42
390,671	43,84
391,184	43,76
391,697	42,38
392,21	43,92
392,722	42,16
393,235	42
393,747	41,14
394,259	39,83
394,771	43,23
395,283	40,14
395,795	41,38
396,307	39,61
396,818	39,7
397,33	39,65
397,841	38,82
398,353	37,47
398,864	37,98
399,375	36,56
399,886	34,98
400,397	34,35
400,907	33,75
401,418	32,59
401,928	32,93
402,439	33,14
402,949	32,08
403,459	31,81
403,969	31,01
404,479	28,46
404,989	28,26
405,498	28,82
406,008	26,98
406,517	27,7
407,027	26,12
407,536	25,77
408,045	24,04
408,554	23,46
409,063	22,37
409,572	21,55
410,08	21,85
410,589	20,81
411,097	20,45
411,606	20,11
412,114	19,63
412,622	18,51
413,13	18,13
413,638	18,06
414,145	16,69
414,653	16,45
415,16	16,07
415,668	16,33
416,175	15,5
416,682	14,96
417,189	14,63
417,696	14,68
418,203	14,48
418,71	14,13
419,216	13,86
419,723	13,6
420,229	13,04
420,735	12,82
421,242	13,45
421,748	12,65
422,254	12,36
422,759	12,55
423,265	12,12
423,771	11,91
424,276	12,11
424,781	11,82
425,287	11,54
425,792	11,77
426,297	11,81
426,802	11,36
427,306	11,65
427,811	11,78
428,316	11,1
428,82	11,18
429,324	11,42
429,829	10,84
430,333	11,09
430,837	10,58
431,34	10,82
431,844	10,77
432,348	10,64
432,851	10,54
433,355	10,94
433,858	10,68
434,361	10,75
434,864	10,29
435,367	10,36
435,87	10,44
436,373	10,59
436,876	10,1
437,378	10,32
437,88	10,21
438,383	10,4
438,885	10,16
439,387	10,2
439,889	10,13
440,391	10,1
440,892	10,25
441,394	10,33
441,896	10,02
442,397	10,45
442,898	10,16
443,399	10,04
443,9	10,4
444,401	10,27
444,902	9,95
445,403	10,35
445,903	10,1
446,404	9,95
446,904	10,38
447,405	10,32
447,905	10,18
448,405	10,68
448,905	10,64
449,404	10,32
449,904	10,15
450,404	10,44
450,903	10,47
451,403	10,51
451,902	10,81
452,401	10,49
452,9	10,66
453,399	10,59
453,898	10,69
454,396	10,72
454,895	10,86
455,393	10,54
455,892	10,81
456,39	10,98
456,888	10,93
457,386	10,77
457,884	10,68
458,382	11,06
458,879	10,88
459,377	11,1
459,874	11,05
460,372	10,98
460,869	10,71
461,366	10,95
461,863	10,93
462,36	10,72
462,857	10,94
463,353	10,89
463,85	10,72
464,346	10,7
464,843	11,01
465,339	10,9
465,835	10,69
466,331	10,73
466,827	10,66
467,323	10,85
467,818	10,69
468,314	10,74
468,809	10,72
469,305	10,87
469,8	10,67
470,295	10,77
470,79	10,67
471,285	10,96
471,78	10,96
472,274	10,65
472,769	10,93
473,263	11,07
473,758	10,99
474,252	10,73
474,746	11,01
475,24	10,86
475,734	11,04
476,228	10,83
476,721	10,95
477,215	10,99
477,708	11,31
478,202	11,08
478,695	11
479,188	10,86
479,681	10,94
480,174	11,22
480,667	11,16
481,159	11,29
481,652	11,06
482,144	11
482,637	11
483,129	10,98
483,621	11,17
484,113	11,02
484,605	11,07
485,097	11,29
485,588	11,21
486,08	11,17
486,571	11,16
487,063	11,47
487,554	11,5
488,045	11,68
488,536	11,63
489,027	11,54
489,518	11,57
490,008	11,67
490,499	11,9
490,989	11,84
491,48	11,75
491,97	11,94
492,46	11,86
492,95	12,23
493,44	12,12
493,93	12,18
494,419	12,16
494,909	12,54
495,398	12,46
495,888	12,57
496,377	12,87
496,866	12,88
497,355	12,97
497,844	13,18
498,333	13,1
498,821	13,52
499,31	13,3
499,798	13,64
500,287	13,76
500,775	13,96
501,263	14,18
501,751	14,25
502,239	14,65
502,727	14,81
503,215	14,96
503,702	15,15
504,19	15,37
504,677	15,8
505,164	15,76
505,651	15,91
506,139	16,29
506,625	16,7
507,112	16,85
507,599	17,23
508,086	17,35
508,572	17,77
509,058	17,98
509,545	18,38
510,031	18,61
510,517	18,81
511,003	19,37
511,489	19,76
511,974	20,03
512,46	20,18
512,946	20,67
513,431	21,31
513,916	21,22
514,401	21,71
514,887	22,41
515,371	23,01
515,856	22,94
516,341	23,42
516,826	23,99
517,31	24,19
517,795	24,74
518,279	25,35
518,763	25,5
519,247	25,71
519,731	26,84
520,215	27,08
520,699	27,33
521,182	28,1
521,666	28,4
522,149	28,73
522,633	29,26
523,116	29,63
523,599	29,92
524,082	30,44
524,565	30,78
525,048	31,38
525,53	31,92
526,013	31,67
526,495	32,52
526,978	32,79
527,46	32,65
527,942	33,46
528,424	33,68
528,906	33,74
529,388	34,26
529,87	34,67
530,351	34,78
530,833	35
531,314	34,99
531,795	35,5
532,277	35,72
532,758	36,16
533,238	36,03
533,719	36,55
534,2	36,52
534,681	36,22
535,161	36,93
535,642	37,01
536,122	36,97
536,602	37,17
537,082	37,46
537,562	37,49
538,042	37,54
538,522	37,68
539,001	37,54
539,481	38,23
539,96	38,01
540,44	37,91
540,919	38,2
541,398	38,08
541,877	38,53
542,356	38,18
542,835	38,44
543,313	38,54
543,792	38,26
544,27	38,25
544,749	38,69
545,227	38,91
545,705	38,79
546,183	38,87
546,661	38,9
547,139	38,9
547,616	38,77
548,094	38,97
548,571	39,13
549,049	39,08
549,526	39,35
550,003	39,28
550,48	39,26
550,957	39,55
551,434	39,22
551,911	39,42
552,387	39,26
552,864	39,39
553,34	39,27
553,817	39,72
554,293	39,74
554,769	40,01
555,245	39,27
555,721	39,44
556,197	39,55
556,672	39,48
557,148	39,58
557,623	39,68
558,099	39,57
558,574	39,32
559,049	39,19
559,524	39,01
559,999	39,27
560,474	39,04
560,948	38,76
561,423	38,6
561,897	38,73
562,372	38,55
562,846	38,42
563,32	38,57
563,794	38,13
564,268	38,06
564,742	38,32
565,216	37,63
565,69	37,56
566,163	37,56
566,636	36,94
567,11	37,41
567,583	36,41
568,056	36,77
568,529	36,33
569,002	36,19
569,475	36,04
569,947	35,51
570,42	35,32
570,892	35,06
571,365	34,98
571,837	34,71
572,309	34,5
572,781	34,13
573,253	34,13
573,725	33,71
574,197	33,45
574,668	33,38
575,14	33,07
575,611	32,83
576,082	32,54
576,554	32,84
577,025	32,3
577,496	31,98
577,967	31,79
578,437	31,59
578,908	31,5
579,379	31,29
579,849	31,25
580,319	30,93
580,79	30,69
581,26	30,45
581,73	30,15
582,2	30,47
582,669	30,17
583,139	30
583,609	29,67
584,078	29,58
584,548	29,67
585,017	29,51
585,486	29,23
585,955	28,86
586,424	28,97
586,893	28,91
587,362	28,75
587,83	28,45
588,299	28,17
588,767	28,46
589,236	28,31
589,704	28,03
590,172	28,27
590,64	28,09
591,108	27,93
591,576	27,62
592,043	27,74
592,511	27,72
592,978	27,23
593,446	27,25
593,913	27,28
594,38	27,25
594,847	27,06
595,314	27,09
595,781	26,88
596,248	26,88
596,715	26,74
597,181	26,91
597,647	26,86
598,114	26,66
598,58	26,74
599,046	26,57
599,512	26,58
599,978	26,52
600,444	26,51
600,91	26,42
601,375	26,48
601,841	26,24
602,306	26,41
602,771	26,42
603,236	26,17
603,702	26
604,167	25,88
604,631	25,6
605,096	25,65
605,561	25,78
606,025	25,49
606,49	25,53
606,954	25,31
607,418	25,36
607,882	25,17
608,347	24,91
608,81	25,01
609,274	24,45
609,738	24,53
610,202	24,52
610,665	24,32
611,128	24,21
611,592	24,23
612,055	23,91
612,518	23,77
612,981	23,64
613,444	23,69
613,907	23,4
614,369	23,23
614,832	23,27
615,294	22,89
615,757	23,08
616,219	22,88
616,681	22,81
617,143	22,46
617,605	22,41
618,067	22,33
618,529	22,08
618,99	22,1
619,452	22,07
619,913	21,97
620,375	21,78
620,836	21,72
621,297	21,83
621,758	21,69
622,219	21,54
622,68	21,36
623,14	21,48
623,601	21,41
624,061	21,34
624,522	21,18
624,982	21,01
625,442	21,13
625,902	21,15
626,362	21,04
626,822	21,1
627,282	21,12
627,742	20,92
628,201	20,96
628,661	21,05
629,12	20,86
629,579	20,79
630,038	20,88
630,497	20,65
630,956	20,71
631,415	20,45
631,874	20,75
632,332	20,58
632,791	20,61
633,249	20,43
633,708	20,31
634,166	20,44
634,624	20,25
635,082	19,97
635,54	19,86
635,998	19,92
636,455	19,68
636,913	19,69
637,37	19,53
637,828	19,32
638,285	19,23
638,742	19,04
639,199	18,93
639,656	18,66
640,113	18,73
640,57	18,32
641,027	18,22
641,483	18,02
641,94	17,76
642,396	17,79
642,852	17,47
643,309	17,3
643,765	17,12
644,221	16,93
644,676	16,94
645,132	16,68
645,588	16,55
646,043	16,11
646,499	15,92
646,954	15,93
647,409	15,64
647,864	15,63
648,319	15,34
648,774	15,24
649,229	15,06
649,684	14,95
650,139	14,92
650,593	14,83
651,047	14,67
651,502	14,67
651,956	14,5
652,41	14,55
652,864	14,37
653,318	14,23
653,772	14,11
654,225	14,26
654,679	14,08
655,133	14,06
655,586	13,99
656,039	13,77
656,492	13,69
656,946	13,67
657,399	13,53
657,851	13,28
658,304	13,41
658,757	13,18
659,209	13,01
659,662	12,89
660,114	12,77
660,567	12,6
661,019	12,47
661,471	12,32
661,923	12,17
662,375	12,12
662,826	12,05
663,278	11,86
663,73	11,87
664,181	11,6
664,632	11,57
665,084	11,45
665,535	11,32
665,986	11,23
666,437	11,28
666,888	11,18
667,338	11,14
667,789	11,08
668,24	11,02
668,69	11,04
669,14	11,01
669,591	10,88
670,041	10,91
670,491	11
670,941	10,88
671,391	11
671,84	11,03
672,29	10,9
672,74	11,09
673,189	11,1
673,638	11,15
674,088	11,16
674,537	11,18
674,986	11,3
675,435	11,33
675,883	11,41
676,332	11,56
676,781	11,52
677,229	11,67
677,678	11,89
678,126	12,01
678,574	12,09
679,022	12,17
679,47	12,38
679,918	12,42
680,366	12,52
680,814	12,75
681,261	12,82
681,709	12,99
682,156	13,12
682,604	13,28
683,051	13,5
683,498	13,65
683,945	13,88
684,392	14,14
684,839	14,3
685,286	14,45
685,732	14,71
686,179	14,85
686,625	15,27
687,071	15,48
687,518	15,95
687,964	16,25
688,41	16,6
688,856	17,11
689,301	17,49
689,747	17,96
690,193	18,43
690,638	18,92
691,084	19,49
691,529	20,08
691,974	20,71
692,419	21,43
692,864	22,08
693,309	22,77
693,754	23,4
694,199	24,17
694,643	24,87
695,088	25,74
695,532	26,42
695,977	27,15
696,421	27,79
696,865	28,64
697,309	29,49
697,753	30,34
698,197	30,88
698,64	31,71
699,084	32,39
699,527	33,08
699,971	33,85
700,414	34,57
700,857	35,33
701,3	35,96
701,743	36,58
702,186	37,43
702,629	38,1
703,072	38,76
703,515	39,41
703,957	40,13
704,399	40,69
704,842	41,07
705,284	41,92
705,726	42,54
706,168	43,13
706,61	43,48
707,052	44,05
707,494	44,61
707,935	45,04
708,377	46,04
708,818	46,04
709,26	46,68
709,701	47,13
710,142	47,68
710,583	48,28
711,024	48,81
711,465	49,39
711,905	49,75
712,346	50,05
712,787	50,53
713,227	50,95
713,667	51,95
714,108	52,27
714,548	52,56
714,988	52,84
715,428	53,29
715,868	53,6
716,307	53,74
716,747	54,51
717,186	54,97
717,626	55,23
718,065	55,7
718,504	55,76
718,944	56,64
719,383	57,15
719,822	57,42
720,261	57,29
720,699	57,87
721,138	58,14
721,576	58,5
722,015	58,98
722,453	59,13
722,892	59,55
723,33	59,86
723,768	60,34
724,206	60,75
724,644	60,61
725,081	60,85
725,519	61,32
725,957	61,54
726,394	61,78
726,832	61,87
727,269	62,25
727,706	62,5
728,143	62,71
728,58	62,9
729,017	62,87
729,454	63,37
729,89	63,28
730,327	63,49
730,764	63,71
731,2	63,78
731,636	64,18
732,072	64,33
732,509	64,67
732,945	64,63
733,38	64,45
733,816	64,79
734,252	65,05
734,688	64,63
735,123	64,78
735,559	65,25
735,994	65,19
736,429	65,21
736,864	65,64
737,299	65,43
737,734	65,4
738,169	65,5
738,604	65,79
739,038	65,67
739,473	65,83
739,907	66,15
740,342	65,93
740,776	65,84
741,21	66,14
741,644	66,32
742,078	66,08
742,512	66,3
742,946	66,33
743,379	66,1
743,813	66,15
744,246	66,17
744,68	66,04
745,113	66,09
745,546	66,23
745,979	66,42
746,412	66,44
746,845	65,98
747,278	66,22
747,711	66,13
748,143	66,18
748,576	66,17
749,008	66,13
749,441	66,24
749,873	65,96
750,305	65,97
750,737	66,08
751,169	65,91
751,601	66,14
752,032	66,03
752,464	65,93
752,896	66,01
753,327	65,84
753,758	65,79
754,19	65,78
754,621	65,95
755,052	65,92
755,483	65,69
755,914	65,64
756,344	65,87
756,775	66
757,206	65,76
757,636	65,81
758,066	65,62
758,497	65,69
758,927	65,14
759,357	65,47
759,787	65,28
760,217	65,47
760,647	64,94
761,076	65,67
761,506	65,3
761,935	65,03
762,365	65,33
762,794	65,24
763,223	65,23
763,653	65,4
764,082	64,99
764,51	65,28
764,939	65,3
765,368	64,93
765,797	65,32
766,225	64,96
766,654	65,03
767,082	64,64
767,51	65,09
767,938	64,95
768,367	64,88
768,795	64,76
769,222	65,04
769,65	64,69
770,078	64,98
770,505	64,74
770,933	64,56
771,36	64,6
771,788	64,53
772,215	64,52
772,642	64,42
773,069	64,42
773,496	64,51
773,923	64,51
774,349	64,39
774,776	64,45
775,203	64,44
775,629	64,33
776,055	64,41
776,482	64,6
776,908	64,49
777,334	64,32
777,76	64,26
778,186	64,15
778,611	64,25
779,037	64,33
779,463	64,17
779,888	64,2
780,314	64,09
780,739	64,27
781,164	64,25
781,589	64,38
782,014	64,15
782,439	64,23
782,864	64,09
783,289	64,12
783,713	63,9
784,138	63,97
784,562	64,12
784,987	63,86
785,411	64,03
785,835	63,76
786,259	64,02
786,683	64,01
787,107	63,78
787,531	63,72
787,954	63,74
788,378	64,08
788,802	64,06
789,225	63,87
789,648	63,94
790,071	63,84
790,495	63,56
790,918	64,15
791,34	63,82
791,763	63,63
792,186	63,99
792,609	63,9
793,031	63,7
793,454	63,69
793,876	63,77
794,298	63,59
794,721	63,64
795,143	63,96
795,565	63,59
795,986	63,98
796,408	63,85
796,83	63,79
797,252	63,96
797,673	63,73
798,094	63,66
798,516	63,51
798,937	63,85
799,358	63,48
799,779	63,4
800,2	63,6
800,621	63,81
801,042	63,57
801,462	63,52
801,883	63,67
802,303	63,57
802,724	63,47
803,144	63,83
803,564	63,36
803,984	63,67
804,404	63,78
804,824	63,83
805,244	63,59
805,664	63,41
806,084	63,66
806,503	63,76
806,923	63,55
807,342	63,44
807,761	63,67
808,18	63,51
808,599	63,69
809,018	63,41
809,437	63,61
809,856	63,2
810,275	63,52
810,693	63,51
811,112	63,6
811,53	63,34
811,949	63,71
812,367	63,42
812,785	63,53
813,203	63,37
813,621	63,52
814,039	63,55
814,457	63,19
814,874	63,48
815,292	63,41
815,709	63,21
816,127	63,53
816,544	63,9
816,961	63,52
817,378	63,94
817,795	63,49
818,212	63,49
818,629	63,34
819,046	63,2
819,462	63,32
819,879	63,51
820,295	63,03
820,712	63,03
821,128	63,35
821,544	63,46
821,96	63,07
822,376	63,13
822,792	63,52
823,208	63,28
823,624	63,56
824,039	63,32
824,455	63,34
824,87	63,42
825,286	63,36
825,701	63,5
826,116	63,11
826,531	63,37
826,946	63,18
827,361	63,3
827,776	63,23
828,19	63,14
828,605	63,19
829,02	63,47
829,434	62,99
829,848	63,38
830,263	63,2
830,677	63,22
831,091	63,45
831,505	63,31
831,919	63,27
832,332	62,96
832,746	62,95
833,16	62,89
