Data from G4__Relative__7__00131.txt Node

Date: Tue Jan 30 18:06:56 CET 2024
User: diatiterra
Spectrometer: HDX00911
Trigger mode: 0
Integration Time (sec): 6,000000E-3
Scans to average: 3
Nonlinearity correction enabled: true
Boxcar width: 0
Storing dark spectrum: false
XAxis mode: Wavelengths
Number of Pixels in Spectrum: 2068
>>>>>Begin Spectral Data<<<<<
194,468	131,96
195,025	93,36
195,581	91,65
196,138	97,19
196,694	81,79
197,251	67,49
197,807	64,29
198,363	64,57
198,919	62,18
199,474	68,36
200,03	62,05
200,586	64,04
201,141	59,51
201,696	57,9
202,251	61,5
202,806	67,2
203,361	61,52
203,916	61,64
204,471	60
205,025	60,72
205,58	59,39
206,134	64,98
206,688	64,05
207,242	54,6
207,796	64,83
208,35	58,91
208,904	63,95
209,457	64,31
210,011	63,08
210,564	60,78
211,117	67,62
211,67	65,14
212,223	66,05
212,776	64,28
213,329	66,1
213,881	68,97
214,434	52,38
214,986	66,38
215,538	62,59
216,09	56,58
216,642	63,78
217,194	62,95
217,746	67,15
218,297	60,55
218,849	66,74
219,4	66,38
219,951	63,22
220,502	64,33
221,053	57,75
221,604	61,16
222,155	66,11
222,705	65,7
223,256	59,87
223,806	62,39
224,356	61,29
224,906	65,6
225,456	59,71
226,006	55,74
226,556	59,75
227,106	67,1
227,655	60,7
228,204	66,87
228,754	64,22
229,303	60,88
229,852	64,13
230,401	67,5
230,949	64,25
231,498	58,42
232,047	60,85
232,595	64,24
233,143	62,92
233,691	59,23
234,239	61,92
234,787	60,32
235,335	62,36
235,883	62,39
236,43	65,63
236,978	60,36
237,525	63,86
238,072	58,78
238,619	64,78
239,166	62,17
239,713	57,8
240,26	63,17
240,806	65,3
241,353	58,02
241,899	62,88
242,445	65,32
242,991	61,18
243,537	66,6
244,083	58,21
244,629	60,8
245,174	58,44
245,72	60,55
246,265	66,53
246,81	67,33
247,355	57,88
247,9	64,99
248,445	63,85
248,99	67,18
249,534	66,07
250,079	67,63
250,623	58,51
251,168	64,05
251,712	56,26
252,256	62,18
252,8	64
253,343	62,74
253,887	60,27
254,43	69,69
254,974	63,72
255,517	61,98
256,06	63,27
256,603	66,74
257,146	62,31
257,689	65,22
258,232	62,12
258,774	67,38
259,317	60,96
259,859	60,25
260,401	71,15
260,943	68,86
261,485	62,78
262,027	64,23
262,569	59,06
263,11	58,52
263,652	67,91
264,193	65,93
264,734	59,91
265,275	59,82
265,816	58,83
266,357	63,54
266,898	58,23
267,438	56,73
267,979	68,04
268,519	65,2
269,059	60,18
269,6	59,78
270,14	60,83
270,68	61,13
271,219	62,2
271,759	64,69
272,298	55,93
272,838	63,4
273,377	58,33
273,916	59,87
274,455	57,5
274,994	67,56
275,533	55,11
276,072	65,14
276,61	64,87
277,149	56,05
277,687	58,08
278,225	65,83
278,763	64,95
279,301	62,02
279,839	61,37
280,377	67,46
280,914	65,25
281,452	66,45
281,989	64,57
282,526	61,3
283,064	66,67
283,601	55,72
284,137	60,89
284,674	65,19
285,211	64,04
285,747	62,53
286,284	63,71
286,82	64,66
287,356	61,59
287,892	64,47
288,428	61,67
288,964	63,48
289,5	63,42
290,035	68,62
290,571	70,22
291,106	68,28
291,641	63,13
292,176	64,24
292,711	57,67
293,246	63,4
293,781	65,33
294,315	58,86
294,85	67,99
295,384	63,86
295,918	60,54
296,453	61,49
296,987	66,17
297,52	64,02
298,054	59,21
298,588	63,63
299,121	62,9
299,655	62,02
300,188	63,32
300,721	65,86
301,254	66,97
301,787	57,41
302,32	68,02
302,853	56,96
303,385	60
303,918	67,24
304,45	54,85
304,982	61,83
305,514	61,13
306,046	58,31
306,578	62,07
307,11	62,7
307,641	64,94
308,173	65,34
308,704	62,83
309,236	65,21
309,767	60,43
310,298	63,34
310,829	63,24
311,359	64,52
311,89	62,03
312,421	60,29
312,951	60,13
313,481	63,31
314,012	64,42
314,542	61,27
315,072	61,84
315,601	58,93
316,131	61,22
316,661	60,18
317,19	61,74
317,72	59,66
318,249	66,1
318,778	65,95
319,307	57,62
319,836	65,11
320,365	66,6
320,893	64,84
321,422	58,04
321,95	59,66
322,479	67,34
323,007	56,62
323,535	57,81
324,063	59,38
324,591	66,14
325,118	59,64
325,646	60,39
326,173	58,02
326,701	65,58
327,228	61,11
327,755	63,79
328,282	58,76
328,809	57,02
329,336	59,51
329,862	56,74
330,389	61,3
330,915	63,86
331,441	62,37
331,968	54,79
332,494	59,39
333,02	53,77
333,545	59,61
334,071	60,89
334,597	55,74
335,122	59,52
335,648	55,41
336,173	56,25
336,698	56,25
337,223	56,14
337,748	53,68
338,272	55,67
338,797	56,13
339,322	61,01
339,846	55,85
340,37	58,3
340,894	55,56
341,419	52,81
341,942	49,98
342,466	51,17
342,99	51,54
343,514	55,62
344,037	53,14
344,56	59
345,084	51,38
345,607	52,92
346,13	55,85
346,653	48,68
347,175	50,93
347,698	52,73
348,221	50,62
348,743	51,48
349,265	52,47
349,787	51,85
350,309	51,05
350,831	51,51
351,353	44,27
351,875	46,14
352,397	43,77
352,918	49,8
353,439	48,59
353,961	45,29
354,482	46,45
355,003	45,21
355,524	45,59
356,044	44,96
356,565	44,27
357,086	47,27
357,606	40,45
358,126	42,47
358,646	42,1
359,167	45,68
359,687	40,55
360,206	41,81
360,726	45,51
361,246	41,91
361,765	43,35
362,285	39,09
362,804	42,54
363,323	39,36
363,842	45,19
364,361	42,39
364,88	42,75
365,398	41,92
365,917	40,88
366,435	39,64
366,954	40,95
367,472	39,1
367,99	42
368,508	38,76
369,026	34,59
369,544	39,71
370,061	40,2
370,579	38,75
371,096	37,05
371,613	37,98
372,131	39,65
372,648	38,98
373,165	35,66
373,681	35,86
374,198	40,01
374,715	35,04
375,231	35,47
375,747	34,59
376,264	33,09
376,78	36,09
377,296	34,76
377,812	35,41
378,327	34,57
378,843	32,17
379,359	32,45
379,874	32,67
380,389	31,09
380,905	32,69
381,42	30,17
381,935	32,69
382,449	29,16
382,964	30,3
383,479	29,55
383,993	30,46
384,508	27,94
385,022	27,38
385,536	29,85
386,05	28,27
386,564	27,32
387,078	28,22
387,592	26,41
388,105	24,71
388,619	26,57
389,132	24,24
389,645	25,34
390,158	24
390,671	23,03
391,184	24,27
391,697	22,97
392,21	24,18
392,722	22,5
393,235	23,3
393,747	23,14
394,259	22,67
394,771	23,87
395,283	22,04
395,795	22,2
396,307	22,47
396,818	22,41
397,33	22,15
397,841	20,27
398,353	20,34
398,864	21,82
399,375	19,03
399,886	19,05
400,397	17,85
400,907	18,27
401,418	17,26
401,928	18,47
402,439	16,99
402,949	16,07
403,459	16,41
403,969	16,26
404,479	15,62
404,989	14,72
405,498	15,18
406,008	14,8
406,517	14,71
407,027	13,89
407,536	13,29
408,045	12,38
408,554	12,64
409,063	11,83
409,572	11,73
410,08	11,06
410,589	10,93
411,097	10,69
411,606	9,95
412,114	9,61
412,622	9,7
413,13	9,42
413,638	9,02
414,145	9,08
414,653	8,53
415,16	8,31
415,668	7,91
416,175	7,76
416,682	7,18
417,189	7,52
417,696	7,11
418,203	7,75
418,71	7,29
419,216	7,09
419,723	6,75
420,229	6,75
420,735	7,04
421,242	6,83
421,748	5,91
422,254	6,22
422,759	6,19
423,265	6,12
423,771	5,62
424,276	5,75
424,781	5,66
425,287	6,1
425,792	5,78
426,297	5,89
426,802	5,53
427,306	5,73
427,811	5,77
428,316	5,44
428,82	5,39
429,324	5,75
429,829	5,15
430,333	5,25
430,837	5,21
431,34	5,31
431,844	5,29
432,348	5,29
432,851	5,25
433,355	4,99
433,858	5,09
434,361	5,02
434,864	4,84
435,367	4,89
435,87	4,96
436,373	5,07
436,876	4,59
437,378	4,79
437,88	4,58
438,383	4,56
438,885	4,94
439,387	5
439,889	4,58
440,391	4,64
440,892	4,87
441,394	4,71
441,896	4,76
442,397	4,67
442,898	4,86
443,399	4,65
443,9	4,92
444,401	4,91
444,902	4,68
445,403	4,74
445,903	4,71
446,404	4,86
446,904	4,51
447,405	4,73
447,905	4,75
448,405	5,01
448,905	4,94
449,404	4,92
449,904	4,7
450,404	4,94
450,903	4,87
451,403	4,9
451,902	4,99
452,401	4,82
452,9	4,92
453,399	4,93
453,898	4,99
454,396	4,82
454,895	5,08
455,393	4,82
455,892	5,15
456,39	4,92
456,888	4,95
457,386	5
457,884	5,11
458,382	4,84
458,879	4,91
459,377	4,97
459,874	4,92
460,372	5
460,869	4,97
461,366	4,76
461,863	4,87
462,36	4,79
462,857	5,02
463,353	4,84
463,85	4,86
464,346	4,84
464,843	4,84
465,339	4,79
465,835	4,91
466,331	4,82
466,827	4,91
467,323	4,82
467,818	4,95
468,314	4,68
468,809	4,7
469,305	4,73
469,8	4,81
470,295	4,82
470,79	4,89
471,285	4,96
471,78	4,74
472,274	4,86
472,769	4,75
473,263	4,88
473,758	4,94
474,252	4,78
474,746	4,79
475,24	4,62
475,734	4,79
476,228	4,67
476,721	4,81
477,215	4,82
477,708	4,8
478,202	4,83
478,695	4,86
479,188	4,9
479,681	4,84
480,174	4,97
480,667	4,69
481,159	4,72
481,652	4,88
482,144	4,7
482,637	5,06
483,129	4,88
483,621	4,95
484,113	4,83
484,605	4,88
485,097	4,96
485,588	4,78
486,08	4,92
486,571	4,66
487,063	5,19
487,554	5
488,045	4,89
488,536	5,06
489,027	4,99
489,518	5
490,008	5,14
490,499	5,05
490,989	5,1
491,48	5,17
491,97	5,2
492,46	5,29
492,95	5,29
493,44	5,19
493,93	5,37
494,419	5,18
494,909	5,53
495,398	5,41
495,888	5,41
496,377	5,67
496,866	5,52
497,355	5,63
497,844	5,62
498,333	5,72
498,821	5,79
499,31	5,89
499,798	5,91
500,287	6,12
500,775	6,24
501,263	6,45
501,751	6,46
502,239	6,44
502,727	6,6
503,215	6,71
503,702	6,85
504,19	6,84
504,677	7,09
505,164	7,12
505,651	7,24
506,139	7,3
506,625	7,56
507,112	7,66
507,599	7,95
508,086	7,93
508,572	8,24
509,058	8,49
509,545	8,62
510,031	8,53
510,517	8,83
511,003	9,08
511,489	9,17
511,974	9,37
512,46	9,41
512,946	9,83
513,431	9,87
513,916	10,02
514,401	10,12
514,887	10,68
515,371	11,01
515,856	10,97
516,341	11,22
516,826	11,56
517,31	11,89
517,795	12,04
518,279	12,32
518,763	12,25
519,247	12,82
519,731	12,95
520,215	13,35
520,699	13,36
521,182	13,81
521,666	13,92
522,149	14,15
522,633	14,66
523,116	14,41
523,599	14,65
524,082	15,09
524,565	15,33
525,048	15,47
525,53	15,94
526,013	16,04
526,495	16,4
526,978	16,46
527,46	16,5
527,942	17,03
528,424	16,82
528,906	17,16
529,388	17,15
529,87	17,44
530,351	17,45
530,833	17,65
531,314	17,81
531,795	17,96
532,277	18,13
532,758	18,54
533,238	18,02
533,719	18,65
534,2	18,54
534,681	18,67
535,161	18,85
535,642	18,66
536,122	18,83
536,602	18,57
537,082	19,07
537,562	18,98
538,042	19,16
538,522	18,9
539,001	19,2
539,481	19,26
539,96	19,43
540,44	19,42
540,919	19,46
541,398	19,21
541,877	19,5
542,356	19,42
542,835	19,45
543,313	19,58
543,792	19,67
544,27	19,49
544,749	19,88
545,227	19,74
545,705	19,8
546,183	19,92
546,661	19,92
547,139	20
547,616	19,83
548,094	19,68
548,571	19,87
549,049	19,82
549,526	19,85
550,003	20,06
550,48	20,12
550,957	20,07
551,434	20,2
551,911	20,12
552,387	20,02
552,864	20,22
553,34	19,95
553,817	20,13
554,293	20,05
554,769	20,41
555,245	20,11
555,721	20,1
556,197	20,15
556,672	20,14
557,148	20,13
557,623	20,05
558,099	20,09
558,574	19,92
559,049	20,09
559,524	19,87
559,999	20,02
560,474	19,84
560,948	19,86
561,423	19,93
561,897	19,71
562,372	19,64
562,846	19,36
563,32	19,61
563,794	19,56
564,268	19,43
564,742	19,32
565,216	19,12
565,69	19,03
566,163	18,74
566,636	18,74
567,11	18,74
567,583	18,49
568,056	18,51
568,529	18,39
569,002	18,14
569,475	18,27
569,947	17,88
570,42	17,86
570,892	17,7
571,365	17,55
571,837	17,41
572,309	17,24
572,781	17,08
573,253	17,13
573,725	16,89
574,197	16,64
574,668	16,66
575,14	16,66
575,611	16,43
576,082	16,26
576,554	16,33
577,025	16,14
577,496	15,82
577,967	15,84
578,437	15,72
578,908	15,64
579,379	15,59
579,849	15,5
580,319	15,31
580,79	15,21
581,26	15,04
581,73	15,02
582,2	14,9
582,669	14,99
583,139	14,74
583,609	14,7
584,078	14,63
584,548	14,55
585,017	14,52
585,486	14,65
585,955	14,25
586,424	14,19
586,893	14,19
587,362	14,05
587,83	13,92
588,299	13,99
588,767	13,77
589,236	13,78
589,704	13,84
590,172	13,75
590,64	13,72
591,108	13,57
591,576	13,64
592,043	13,49
592,511	13,46
592,978	13,45
593,446	13,29
593,913	13,41
594,38	13,28
594,847	13,31
595,314	13,24
595,781	13,18
596,248	13,16
596,715	13,02
597,181	13,06
597,647	12,97
598,114	12,96
598,58	13,02
599,046	12,97
599,512	12,93
599,978	12,82
600,444	12,83
600,91	12,95
601,375	12,76
601,841	12,82
602,306	12,79
602,771	12,82
603,236	12,78
603,702	12,58
604,167	12,51
604,631	12,57
605,096	12,44
605,561	12,4
606,025	12,37
606,49	12,31
606,954	12,35
607,418	12,18
607,882	12,16
608,347	11,95
608,81	12,01
609,274	11,94
609,738	11,81
610,202	11,73
610,665	11,65
611,128	11,62
611,592	11,68
612,055	11,55
612,518	11,62
612,981	11,45
613,444	11,34
613,907	11,26
614,369	11,25
614,832	11,07
615,294	10,98
615,757	10,93
616,219	10,96
616,681	10,87
617,143	10,76
617,605	10,61
618,067	10,65
618,529	10,54
618,99	10,61
619,452	10,5
619,913	10,45
620,375	10,32
620,836	10,38
621,297	10,17
621,758	10,24
622,219	10,08
622,68	9,99
623,14	10,03
623,601	10,17
624,061	10,01
624,522	9,94
624,982	9,94
625,442	10,05
625,902	9,98
626,362	10
626,822	9,99
627,282	9,84
627,742	9,86
628,201	9,89
628,661	9,94
629,12	9,8
629,579	9,71
630,038	9,83
630,497	9,85
630,956	9,67
631,415	9,85
631,874	9,75
632,332	9,7
632,791	9,69
633,249	9,72
633,708	9,66
634,166	9,61
634,624	9,51
635,082	9,44
635,54	9,45
635,998	9,39
636,455	9,35
636,913	9,32
637,37	9,14
637,828	9,09
638,285	9,04
638,742	8,88
639,199	8,78
639,656	8,84
640,113	8,69
640,57	8,56
641,027	8,52
641,483	8,41
641,94	8,38
642,396	8,15
642,852	8,16
643,309	7,98
643,765	7,89
644,221	7,81
644,676	7,65
645,132	7,7
645,588	7,56
646,043	7,38
646,499	7,31
646,954	7,3
647,409	7,1
647,864	7,06
648,319	7,05
648,774	6,93
649,229	6,88
649,684	6,74
650,139	6,74
650,593	6,67
651,047	6,63
651,502	6,57
651,956	6,49
652,41	6,38
652,864	6,44
653,318	6,41
653,772	6,34
654,225	6,32
654,679	6,36
655,133	6,21
655,586	6,22
656,039	6,16
656,492	6,03
656,946	6
657,399	5,98
657,851	5,97
658,304	5,92
658,757	5,81
659,209	5,65
659,662	5,69
660,114	5,61
660,567	5,51
661,019	5,47
661,471	5,33
661,923	5,27
662,375	5,2
662,826	5,24
663,278	5,11
663,73	5,05
664,181	5,08
664,632	5
665,084	4,91
665,535	4,82
665,986	4,85
666,437	4,81
666,888	4,76
667,338	4,74
667,789	4,65
668,24	4,65
668,69	4,62
669,14	4,64
669,591	4,57
670,041	4,61
670,491	4,6
670,941	4,65
671,391	4,69
671,84	4,62
672,29	4,65
672,74	4,68
673,189	4,65
673,638	4,7
674,088	4,78
674,537	4,76
674,986	4,74
675,435	4,81
675,883	4,9
676,332	4,93
676,781	4,95
677,229	5,01
677,678	5,02
678,126	5,11
678,574	5,1
679,022	5,24
679,47	5,27
679,918	5,39
680,366	5,42
680,814	5,5
681,261	5,51
681,709	5,62
682,156	5,75
682,604	5,8
683,051	5,87
683,498	5,97
683,945	6,1
684,392	6,24
684,839	6,3
685,286	6,36
685,732	6,55
686,179	6,65
686,625	6,83
687,071	6,87
687,518	7,14
687,964	7,28
688,41	7,57
688,856	7,74
689,301	8,07
689,747	8,29
690,193	8,53
690,638	8,81
691,084	9,16
691,529	9,48
691,974	9,9
692,419	10,21
692,864	10,65
693,309	10,92
693,754	11,35
694,199	11,71
694,643	12,24
695,088	12,6
695,532	13,14
695,977	13,55
696,421	13,93
696,865	14,28
697,309	14,87
697,753	15,2
698,197	15,67
698,64	16,03
699,084	16,45
699,527	16,96
699,971	17,34
700,414	17,81
700,857	18,13
701,3	18,52
701,743	18,76
702,186	19,29
702,629	19,67
703,072	19,98
703,515	20,63
703,957	20,54
704,399	20,98
704,842	21,34
705,284	21,62
705,726	21,9
706,168	22,3
706,61	22,85
707,052	23,05
707,494	23,01
707,935	23,48
708,377	23,88
708,818	24,22
709,26	24,34
709,701	24,75
710,142	24,77
710,583	25,16
711,024	25,37
711,465	25,62
711,905	25,8
712,346	26,01
712,787	26,36
713,227	26,54
713,667	27,05
714,108	27,25
714,548	27,33
714,988	27,58
715,428	27,69
715,868	28,06
716,307	28,15
716,747	28,4
717,186	28,5
717,626	28,79
718,065	29,04
718,504	29,05
718,944	29,39
719,383	29,47
719,822	29,77
720,261	29,71
720,699	30,04
721,138	30,06
721,576	30,32
722,015	30,27
722,453	30,53
722,892	30,78
723,33	30,99
723,768	31,12
724,206	31,31
724,644	31,26
725,081	31,23
725,519	31,45
725,957	31,5
726,394	31,7
726,832	31,67
727,269	31,95
727,706	31,95
728,143	32,27
728,58	32,29
729,017	32,3
729,454	32,57
729,89	32,61
730,327	32,39
730,764	32,67
731,2	32,86
731,636	32,93
732,072	32,94
732,509	32,93
732,945	33,02
733,38	32,87
733,816	33,13
734,252	33,02
734,688	33,04
735,123	33,25
735,559	33,36
735,994	33,29
736,429	33,42
736,864	33,49
737,299	33,21
737,734	33,42
738,169	33,38
738,604	33,39
739,038	33,5
739,473	33,42
739,907	33,71
740,342	33,48
740,776	33,36
741,21	33,61
741,644	33,68
742,078	33,7
742,512	33,53
742,946	33,67
743,379	33,75
743,813	33,65
744,246	33,77
744,68	33,72
745,113	33,46
745,546	33,39
745,979	33,53
746,412	33,78
746,845	33,52
747,278	33,68
747,711	33,86
748,143	33,61
748,576	33,62
749,008	33,54
749,441	33,7
749,873	33,48
750,305	33,59
750,737	33,43
751,169	33,62
751,601	33,45
752,032	33,58
752,464	33,53
752,896	33,36
753,327	33,32
753,758	33,48
754,19	33,27
754,621	33,43
755,052	33,55
755,483	33,15
755,914	33,41
756,344	33,45
756,775	33,27
757,206	33,48
757,636	33,27
758,066	33,28
758,497	33,38
758,927	33,17
759,357	33,21
759,787	33,35
760,217	33,13
760,647	33,05
761,076	33,25
761,506	33,13
761,935	33,01
762,365	33,07
762,794	33,17
763,223	33,1
763,653	33,1
764,082	33,05
764,51	33,2
764,939	32,96
765,368	33,11
765,797	33,05
766,225	32,92
766,654	32,91
767,082	32,83
767,51	32,81
767,938	32,97
768,367	33,03
768,795	32,78
769,222	33,04
769,65	32,95
770,078	32,99
770,505	32,76
770,933	32,81
771,36	32,91
771,788	32,87
772,215	32,98
772,642	32,8
773,069	32,89
773,496	32,85
773,923	32,77
774,349	32,77
774,776	32,62
775,203	32,76
775,629	32,67
776,055	32,69
776,482	32,57
776,908	32,73
777,334	32,63
777,76	32,7
778,186	32,71
778,611	32,63
779,037	32,57
779,463	32,49
779,888	32,6
780,314	32,38
780,739	32,67
781,164	32,72
781,589	32,44
782,014	32,49
782,439	32,44
782,864	32,57
783,289	32,65
783,713	32,53
784,138	32,41
784,562	32,6
784,987	32,48
785,411	32,48
785,835	32,5
786,259	32,33
786,683	32,58
787,107	32,32
787,531	32,4
787,954	32,32
788,378	32,57
788,802	32,49
789,225	32,57
789,648	32,57
790,071	32,57
790,495	32,3
790,918	32,52
791,34	32,36
791,763	32,44
792,186	32,5
792,609	32,55
793,031	32,45
793,454	32,5
793,876	32,47
794,298	32,45
794,721	32,38
795,143	32,36
795,565	32,41
795,986	32,39
796,408	32,3
796,83	32,35
797,252	32,36
797,673	32,5
798,094	32,24
798,516	32,15
798,937	32,51
799,358	32,41
799,779	32,39
800,2	32,29
800,621	32,39
801,042	32,13
801,462	32,17
801,883	32,5
802,303	32,37
802,724	32,15
803,144	32,45
803,564	32,29
803,984	32,45
804,404	32,38
804,824	32,42
805,244	32,38
805,664	32,52
806,084	32,19
806,503	32,34
806,923	32,24
807,342	32,28
807,761	32,34
808,18	32,19
808,599	32,31
809,018	32,22
809,437	32,26
809,856	32,12
810,275	32,08
810,693	32,38
811,112	32,31
811,53	32,2
811,949	32,3
812,367	32,26
812,785	32,3
813,203	32,19
813,621	32,42
814,039	32,21
814,457	32,12
814,874	32,28
815,292	32,17
815,709	32,15
816,127	32,35
816,544	32,49
816,961	32,32
817,378	32,3
817,795	32,17
818,212	32,22
818,629	32,29
819,046	32,1
819,462	32,14
819,879	32,22
820,295	32,25
820,712	32,1
821,128	32,07
821,544	32,14
821,96	32,33
822,376	32,29
822,792	32,18
823,208	32,18
823,624	32,45
824,039	32,19
824,455	32,1
824,87	32,11
825,286	32,07
825,701	32,08
826,116	32,04
826,531	32,2
826,946	32,29
827,361	32,12
827,776	32,14
828,19	32,05
828,605	32,05
829,02	32,08
829,434	32,27
829,848	32,22
830,263	32,03
830,677	32,04
831,091	31,99
831,505	32,07
831,919	32,11
832,332	32,01
832,746	32,01
833,16	31,93
833,573	31,93
833,987	32,06
834,4	31,94
834,813	31,89
835,226	32,11
835,639	32,05
836,052	32,09
836,465	31,97
836,878	32,22
837,29	32,13
837,703	32,06
838,116	32,05
838,528	31,92
838,94	32,01
839,352	32
839,765	32,08
840,177	31,88
840,589	32,04
841	31,76
841,412	32,03
841,824	31,92
842,235	31,87
842,647	31,85
843,058	32
843,47	32,07
843,881	32,1
