Data from G6__Relative__1__00135.txt Node

Date: Tue Jan 30 18:07:40 CET 2024
User: diatiterra
Spectrometer: HDX00911
Trigger mode: 0
Integration Time (sec): 6,000000E-3
Scans to average: 3
Nonlinearity correction enabled: true
Boxcar width: 0
Storing dark spectrum: false
XAxis mode: Wavelengths
Number of Pixels in Spectrum: 2068
>>>>>Begin Spectral Data<<<<<
194,468	156,49
195,025	119,96
195,581	121,44
196,138	123,99
196,694	117,27
197,251	96,48
197,807	93,29
198,363	89,73
198,919	93,71
199,474	101,63
200,03	92,46
200,586	91,11
201,141	91,69
201,696	86,2
202,251	94,9
202,806	93,68
203,361	96,62
203,916	85,13
204,471	92,58
205,025	88,45
205,58	94,34
206,134	97,05
206,688	86,74
207,242	88,39
207,796	93,29
208,35	90,97
208,904	92,27
209,457	88,6
210,011	98,95
210,564	88,7
211,117	90,98
211,67	95,63
212,223	96,95
212,776	98,32
213,329	94,64
213,881	96,44
214,434	94,61
214,986	94,65
215,538	99,38
216,09	94,92
216,642	92,79
217,194	92,58
217,746	92,05
218,297	90,63
218,849	96,79
219,4	94,51
219,951	98,35
220,502	93,2
221,053	86,74
221,604	93,32
222,155	97,33
222,705	92,31
223,256	90,21
223,806	91,8
224,356	94,98
224,906	95,54
225,456	89,07
226,006	89,07
226,556	88,66
227,106	101,29
227,655	92,3
228,204	96,65
228,754	90,17
229,303	90,11
229,852	97,18
230,401	93,76
230,949	100,21
231,498	92,7
232,047	92,82
232,595	100,01
233,143	95,56
233,691	85,27
234,239	88,35
234,787	93,45
235,335	92,51
235,883	93,59
236,43	86,33
236,978	89,02
237,525	89,73
238,072	90,37
238,619	101,53
239,166	88,11
239,713	90,05
240,26	89,29
240,806	90,81
241,353	84,73
241,899	87,88
242,445	92,6
242,991	95,48
243,537	90,91
244,083	90,66
244,629	90,7
245,174	90,93
245,72	96,37
246,265	102,35
246,81	95,38
247,355	89,41
247,9	92,46
248,445	97,04
248,99	95,23
249,534	89,29
250,079	102,66
250,623	85,96
251,168	90,49
251,712	86,83
252,256	86,35
252,8	95,09
253,343	88,21
253,887	88,53
254,43	99,1
254,974	105,54
255,517	90,17
256,06	94,57
256,603	94,68
257,146	94,56
257,689	95,21
258,232	92,21
258,774	93,56
259,317	94,36
259,859	89,64
260,401	99,12
260,943	97,89
261,485	94,5
262,027	91,34
262,569	89,2
263,11	90,14
263,652	102,33
264,193	89,83
264,734	89,77
265,275	98,46
265,816	96,39
266,357	91,45
266,898	96,76
267,438	89,47
267,979	92,08
268,519	90,54
269,059	94,54
269,6	95,34
270,14	92,27
270,68	88,45
271,219	103,44
271,759	93,43
272,298	86,6
272,838	92,82
273,377	91,45
273,916	93,9
274,455	85
274,994	98,69
275,533	91,34
276,072	94,75
276,61	96,86
277,149	91,08
277,687	91,49
278,225	89,37
278,763	88,32
279,301	88,21
279,839	90,46
280,377	96,97
280,914	87,5
281,452	96,13
281,989	99,09
282,526	91,24
283,064	93,77
283,601	85,96
284,137	94,23
284,674	88,61
285,211	104,55
285,747	88,02
286,284	99,79
286,82	92
287,356	92,28
287,892	100,03
288,428	90,97
288,964	90,67
289,5	94,38
290,035	96,88
290,571	91,28
291,106	94,54
291,641	96,62
292,176	88,15
292,711	88,56
293,246	95,96
293,781	95,32
294,315	83,33
294,85	96,8
295,384	95,1
295,918	90,92
296,453	89,94
296,987	89,08
297,52	94,27
298,054	94,52
298,588	102,37
299,121	96,62
299,655	89,06
300,188	93,02
300,721	91,63
301,254	94,32
301,787	86,87
302,32	94,62
302,853	88,86
303,385	92,23
303,918	91,89
304,45	88,55
304,982	92,75
305,514	91,92
306,046	92,21
306,578	93,54
307,11	90,52
307,641	95,04
308,173	96,95
308,704	101,64
309,236	97
309,767	90,01
310,298	91,54
310,829	90,6
311,359	92,12
311,89	90,35
312,421	90,76
312,951	94,72
313,481	96,12
314,012	88,43
314,542	91,48
315,072	89,35
315,601	90
316,131	98,45
316,661	91,91
317,19	94,28
317,72	87,11
318,249	92,11
318,778	92,25
319,307	89,24
319,836	93,97
320,365	96,05
320,893	91,65
321,422	88,48
321,95	87,26
322,479	95,79
323,007	83,12
323,535	85,44
324,063	87,51
324,591	94,79
325,118	89,11
325,646	88,63
326,173	93,47
326,701	91,95
327,228	96,68
327,755	92,78
328,282	92,95
328,809	85,75
329,336	90,96
329,862	89,79
330,389	91,72
330,915	89,59
331,441	87,53
331,968	86,14
332,494	87,06
333,02	88,83
333,545	90,93
334,071	85,78
334,597	84,96
335,122	91,26
335,648	83,33
336,173	84,37
336,698	82,54
337,223	89,34
337,748	87,34
338,272	75,74
338,797	83,69
339,322	91,74
339,846	85,83
340,37	88,8
340,894	84,19
341,419	84,97
341,942	81,23
342,466	77,02
342,99	83,25
343,514	84,66
344,037	78,42
344,56	83,75
345,084	78,81
345,607	86,85
346,13	83,59
346,653	76,08
347,175	82,86
347,698	81,76
348,221	80
348,743	75,72
349,265	81,74
349,787	77,51
350,309	81,22
350,831	80,51
351,353	76,98
351,875	77,12
352,397	75,18
352,918	76,24
353,439	78,68
353,961	74,57
354,482	72,02
355,003	74,05
355,524	74,32
356,044	79,09
356,565	77,31
357,086	79,45
357,606	75,47
358,126	77,77
358,646	75,97
359,167	70,88
359,687	68,2
360,206	73,17
360,726	76,94
361,246	72,17
361,765	71,42
362,285	70,08
362,804	76,48
363,323	74,47
363,842	73,33
364,361	74,12
364,88	70,45
365,398	71,56
365,917	74,82
366,435	74,75
366,954	73,58
367,472	64,02
367,99	72,57
368,508	65,93
369,026	67,24
369,544	68,14
370,061	66,97
370,579	66,66
371,096	67,11
371,613	73,97
372,131	71,21
372,648	67,72
373,165	64,52
373,681	67,01
374,198	70,27
374,715	65,77
375,231	65,64
375,747	63,65
376,264	58,72
376,78	65,31
377,296	64,32
377,812	66,76
378,327	63,85
378,843	62,22
379,359	64,91
379,874	63,59
380,389	60,85
380,905	60,73
381,42	59,5
381,935	60,07
382,449	57,77
382,964	57,03
383,479	59,35
383,993	59,56
384,508	55,52
385,022	53,97
385,536	56,89
386,05	57,05
386,564	55,28
387,078	52,89
387,592	52,03
388,105	52,68
388,619	53,16
389,132	49,03
389,645	51,73
390,158	48,65
390,671	47,88
391,184	48,54
391,697	45,56
392,21	48,85
392,722	47,73
393,235	45,75
393,747	48,2
394,259	45,93
394,771	47
395,283	44,1
395,795	47,06
396,307	44,85
396,818	43,64
397,33	45,09
397,841	42,15
398,353	41,88
398,864	41,91
399,375	39,99
399,886	39,21
400,397	38,46
400,907	37,93
401,418	37,04
401,928	38,78
402,439	36,22
402,949	35,62
403,459	35,55
403,969	34,7
404,479	33,71
404,989	31,94
405,498	30,9
406,008	30,6
406,517	30,25
407,027	29,91
407,536	28,06
408,045	26,8
408,554	26,58
409,063	24,73
409,572	25,14
410,08	23,81
410,589	23,39
411,097	22,93
411,606	22,46
412,114	21,41
412,622	20,31
413,13	21,05
413,638	20,01
414,145	19,28
414,653	18,34
415,16	17,84
415,668	17,44
416,175	17,37
416,682	16,53
417,189	16,35
417,696	16,34
418,203	15,6
418,71	16,17
419,216	15,64
419,723	14,65
420,229	14,9
420,735	14,89
421,242	14,73
421,748	14,4
422,254	14,46
422,759	14,23
423,265	13,89
423,771	13,52
424,276	13,52
424,781	13,11
425,287	12,95
425,792	13,31
426,297	13,12
426,802	12,62
427,306	12,65
427,811	13,13
428,316	12,81
428,82	12,86
429,324	12,73
429,829	12,14
430,333	12,33
430,837	12,32
431,34	12,18
431,844	12,15
432,348	11,9
432,851	11,89
433,355	11,95
433,858	11,43
434,361	11,54
434,864	11,33
435,367	11,82
435,87	11,59
436,373	11,51
436,876	11,15
437,378	11,62
437,88	11,3
438,383	11,72
438,885	11,29
439,387	11,5
439,889	11,28
440,391	11,06
440,892	11,07
441,394	11,54
441,896	11,3
442,397	11,53
442,898	11,02
443,399	11,32
443,9	11,05
444,401	11,18
444,902	11,05
445,403	11,59
445,903	11,44
446,404	11,53
446,904	11,46
447,405	11,47
447,905	11,31
448,405	11,97
448,905	12,13
449,404	12,15
449,904	11,95
450,404	12,07
450,903	12,37
451,403	12,06
451,902	12,31
452,401	12,26
452,9	12,2
453,399	12,42
453,898	12,7
454,396	12,56
454,895	12,88
455,393	12,49
455,892	12,41
456,39	12,56
456,888	12,73
457,386	12,84
457,884	12,8
458,382	12,9
458,879	12,55
459,377	12,74
459,874	12,87
460,372	12,93
460,869	13,05
461,366	12,95
461,863	12,98
462,36	12,67
462,857	12,74
463,353	12,61
463,85	12,85
464,346	12,57
464,843	12,94
465,339	12,96
465,835	12,85
466,331	12,92
466,827	12,55
467,323	12,85
467,818	13,11
468,314	12,59
468,809	12,68
469,305	12,86
469,8	12,87
470,295	12,71
470,79	12,9
471,285	12,85
471,78	12,76
472,274	12,65
472,769	12,9
473,263	12,53
473,758	12,69
474,252	13,01
474,746	12,85
475,24	13,01
475,734	12,74
476,228	12,95
476,721	12,88
477,215	13,08
477,708	13,39
478,202	13,11
478,695	13,07
479,188	13,25
479,681	13,08
480,174	12,94
480,667	13,25
481,159	13,39
481,652	13,46
482,144	13,33
482,637	13,55
483,129	13,31
483,621	13,32
484,113	13,47
484,605	13,53
485,097	13,77
485,588	13,65
486,08	13,53
486,571	13,47
487,063	13,55
487,554	13,81
488,045	13,82
488,536	14,1
489,027	13,93
489,518	14
490,008	14,17
490,499	14,12
490,989	14,37
491,48	14,41
491,97	14,38
492,46	14,66
492,95	14,93
493,44	14,83
493,93	14,78
494,419	14,95
494,909	15,19
495,398	15,44
495,888	15,47
496,377	15,88
496,866	15,74
497,355	16,18
497,844	16,54
498,333	16,51
498,821	16,64
499,31	16,77
499,798	17,07
500,287	17,23
500,775	17,58
501,263	18,08
501,751	18,31
502,239	18,51
502,727	18,64
503,215	19,16
503,702	19,18
504,19	19,7
504,677	19,84
505,164	20,29
505,651	20,58
506,139	20,77
506,625	21,16
507,112	21,65
507,599	21,88
508,086	22,37
508,572	23
509,058	23,06
509,545	23,14
510,031	23,6
510,517	24,16
511,003	24,73
511,489	25,05
511,974	25,66
512,46	25,97
512,946	26,42
513,431	26,79
513,916	26,95
514,401	27,67
514,887	28,33
515,371	28,95
515,856	28,81
516,341	29,73
516,826	30,21
517,31	30,56
517,795	31,36
518,279	31,66
518,763	31,97
519,247	33,1
519,731	33,25
520,215	33,92
520,699	34,38
521,182	34,72
521,666	35,24
522,149	35,64
522,633	36,28
523,116	36,08
523,599	36,86
524,082	37,82
524,565	37,95
525,048	38,19
525,53	39,16
526,013	39,23
526,495	39,83
526,978	40,24
527,46	40,34
527,942	40,72
528,424	41,16
528,906	41,33
529,388	41,76
529,87	42,4
530,351	42,35
530,833	42,29
531,314	42,41
531,795	43,14
532,277	43,16
532,758	44,01
533,238	43,56
533,719	43,67
534,2	43,94
534,681	43,96
535,161	44,35
535,642	43,99
536,122	44,35
536,602	44,7
537,082	44,76
537,562	45,11
538,042	45,23
538,522	44,97
539,001	44,89
539,481	45,17
539,96	45,12
540,44	45,32
540,919	45,27
541,398	45,37
541,877	45,44
542,356	45,71
542,835	45,81
543,313	46,02
543,792	46,07
544,27	45,73
544,749	46,05
545,227	46,34
545,705	46,28
546,183	46,41
546,661	45,9
547,139	46,23
547,616	46,18
548,094	46,23
548,571	46,48
549,049	46,25
549,526	46,54
550,003	46,64
550,48	46,56
550,957	46,79
551,434	46,38
551,911	46,69
552,387	46,64
552,864	46,42
553,34	46,67
553,817	46,78
554,293	46,48
554,769	46,87
555,245	46,95
555,721	46,62
556,197	46,47
556,672	46,56
557,148	47,07
557,623	46,83
558,099	46,6
558,574	46,65
559,049	46,5
559,524	46,28
559,999	46,56
560,474	46,47
560,948	46,07
561,423	45,71
561,897	45,87
562,372	45,38
562,846	45,85
563,32	45,61
563,794	45,64
564,268	45,37
564,742	45,19
565,216	44,85
565,69	44,8
566,163	44,61
566,636	44,25
567,11	44,54
567,583	43,72
568,056	43,84
568,529	43,3
569,002	43,09
569,475	43,25
569,947	42,65
570,42	42,8
570,892	42,22
571,365	42,26
571,837	42,09
572,309	41,68
572,781	41,18
573,253	41,1
573,725	40,74
574,197	40,41
574,668	40,52
575,14	39,93
575,611	39,85
576,082	39,71
576,554	39,71
577,025	39,52
577,496	38,65
577,967	39,11
578,437	38,87
578,908	38,61
579,379	38,4
579,849	38,06
580,319	38,02
580,79	37,9
581,26	37,26
581,73	37,11
582,2	37,11
582,669	37,06
583,139	37,06
583,609	36,58
584,078	36,59
584,548	36,59
585,017	35,82
585,486	35,95
585,955	35,86
586,424	35,5
586,893	35,62
587,362	35,34
587,83	35,01
588,299	35,13
588,767	34,99
589,236	35,07
589,704	34,59
590,172	34,85
590,64	34,55
591,108	34,61
591,576	34,6
592,043	34,65
592,511	34,06
592,978	34,03
593,446	34,01
593,913	33,39
594,38	33,93
594,847	33,45
595,314	33,7
595,781	33,79
596,248	33,44
596,715	33,33
597,181	33,31
597,647	33,18
598,114	33,33
598,58	33,25
599,046	33,22
599,512	33,14
599,978	32,99
600,444	32,87
600,91	32,8
601,375	32,86
601,841	32,85
602,306	32,68
602,771	32,48
603,236	32,57
603,702	32,46
604,167	32,37
604,631	32,17
605,096	32,22
605,561	32,15
606,025	32
606,49	31,75
606,954	31,88
607,418	31,69
607,882	31,45
608,347	31,43
608,81	31,28
609,274	30,78
609,738	30,82
610,202	30,99
610,665	30,66
611,128	30,68
611,592	30,43
612,055	30,35
612,518	30,29
612,981	30,01
613,444	29,99
613,907	29,87
614,369	29,6
614,832	29,56
615,294	29,24
615,757	29,31
616,219	29
616,681	29,03
617,143	28,7
617,605	28,63
618,067	28,52
618,529	28,38
618,99	28,14
619,452	28,18
619,913	27,96
620,375	28
620,836	27,98
621,297	27,77
621,758	27,59
622,219	27,46
622,68	27,51
623,14	27,64
623,601	27,33
624,061	27,22
624,522	27,34
624,982	27,11
625,442	27,16
625,902	27,1
626,362	26,85
626,822	27,06
627,282	27,1
627,742	27,04
628,201	26,78
628,661	26,78
629,12	26,63
629,579	26,63
630,038	26,78
630,497	26,7
630,956	26,84
631,415	26,57
631,874	26,48
632,332	26,56
632,791	26,39
633,249	26,22
633,708	26,32
634,166	26,19
634,624	26,01
635,082	25,9
635,54	25,87
635,998	25,43
636,455	25,42
636,913	25,3
637,37	25,22
637,828	24,8
638,285	24,89
638,742	24,58
639,199	24,18
639,656	24,07
640,113	24,15
640,57	23,77
641,027	23,33
641,483	23,12
641,94	22,83
642,396	22,63
642,852	22,48
643,309	22,17
643,765	22,08
644,221	21,66
644,676	21,48
645,132	21,25
645,588	21,06
646,043	20,77
646,499	20,54
646,954	20,2
647,409	20,17
647,864	19,82
648,319	19,62
648,774	19,4
649,229	19,4
649,684	19,19
650,139	19,15
650,593	18,99
651,047	18,69
651,502	18,6
651,956	18,6
652,41	18,6
652,864	18,41
653,318	18,26
653,772	18,16
654,225	18,3
654,679	18,01
655,133	17,97
655,586	17,79
656,039	17,69
656,492	17,69
656,946	17,45
657,399	17,41
657,851	17,31
658,304	17,16
658,757	16,96
659,209	16,77
659,662	16,67
660,114	16,39
660,567	16,13
661,019	16,11
661,471	15,98
661,923	15,81
662,375	15,6
662,826	15,24
663,278	15,26
663,73	15,08
664,181	14,89
664,632	14,6
665,084	14,5
665,535	14,29
665,986	14,32
666,437	14,14
666,888	13,96
667,338	14,04
667,789	13,88
668,24	13,78
668,69	13,68
669,14	13,71
669,591	13,55
670,041	13,6
670,491	13,43
670,941	13,43
671,391	13,47
671,84	13,46
672,29	13,36
672,74	13,44
673,189	13,49
673,638	13,42
674,088	13,48
674,537	13,63
674,986	13,71
675,435	13,68
675,883	13,76
676,332	13,95
676,781	14,07
677,229	14,1
677,678	14,27
678,126	14,39
678,574	14,49
679,022	14,65
679,47	14,69
679,918	14,82
680,366	15,14
680,814	15,28
681,261	15,52
681,709	15,63
682,156	15,82
682,604	15,95
683,051	16,29
683,498	16,65
683,945	16,97
684,392	17,15
684,839	17,54
685,286	17,86
685,732	18,26
686,179	18,77
686,625	19,06
687,071	19,59
687,518	20,12
687,964	20,57
688,41	21,28
688,856	21,83
689,301	22,46
689,747	22,97
690,193	23,8
690,638	24,45
691,084	25,3
691,529	26,13
691,974	26,96
692,419	27,61
692,864	28,43
693,309	29,25
693,754	30,28
694,199	31,26
694,643	31,86
695,088	32,94
695,532	33,79
695,977	34,51
696,421	35,29
696,865	36,23
697,309	37,24
697,753	38,08
698,197	39
698,64	39,53
699,084	40,43
699,527	41,18
699,971	41,99
700,414	42,67
700,857	43,37
701,3	44,27
701,743	44,8
702,186	45,64
702,629	46,29
703,072	46,78
703,515	47,58
703,957	47,97
704,399	48,74
704,842	49,38
705,284	49,81
705,726	50,57
706,168	51,02
706,61	51,69
707,052	52,05
707,494	52,32
707,935	53,24
708,377	53,43
708,818	54,12
709,26	54,35
709,701	54,89
710,142	55,25
710,583	55,83
711,024	56,31
711,465	56,67
711,905	56,87
712,346	57,36
712,787	57,71
713,227	58,3
713,667	59,05
714,108	59,17
714,548	59,52
714,988	59,76
715,428	60,24
715,868	60,32
716,307	60,5
716,747	60,98
717,186	61,55
717,626	61,46
718,065	62,43
718,504	61,88
718,944	62,82
719,383	62,98
719,822	63,26
720,261	63,36
720,699	63,55
721,138	64
721,576	64,23
722,015	64,3
722,453	64,81
722,892	65,13
723,33	65,28
723,768	65,53
724,206	65,78
724,644	65,74
725,081	65,95
725,519	66,16
725,957	66,22
726,394	66,39
726,832	66,43
727,269	67,07
727,706	67,06
728,143	67,13
728,58	67,4
729,017	67,31
729,454	67,85
729,89	67,88
730,327	67,67
730,764	67,94
731,2	68,05
731,636	68,2
732,072	68,3
732,509	68,4
732,945	68,53
733,38	68,5
733,816	68,41
734,252	68,4
734,688	68,56
735,123	68,67
735,559	69,08
735,994	68,65
736,429	68,96
736,864	69,05
737,299	68,57
737,734	69,17
738,169	68,9
738,604	69,25
739,038	69,26
739,473	69,25
739,907	69,38
740,342	69,44
740,776	69,15
741,21	69,46
741,644	69,57
742,078	69,73
742,512	69,29
742,946	69,77
743,379	69,28
743,813	69,65
744,246	69,44
744,68	69,47
745,113	69,48
745,546	69,27
745,979	69,31
746,412	69,34
746,845	69,16
747,278	69,56
747,711	69,64
748,143	69,35
748,576	69,39
749,008	69,13
749,441	69,21
749,873	69,16
750,305	69,16
750,737	68,8
751,169	69,1
751,601	69
752,032	69,22
752,464	69,01
752,896	69,04
753,327	68,94
753,758	68,83
754,19	68,97
754,621	68,87
755,052	69,2
755,483	68,57
755,914	68,83
756,344	68,97
756,775	68,86
757,206	68,85
757,636	68,72
758,066	68,59
758,497	68,47
758,927	68,59
759,357	68,56
759,787	68,91
760,217	68,57
760,647	68,14
761,076	68,51
761,506	68,31
761,935	68,21
762,365	68,57
762,794	68,41
763,223	68,11
763,653	68,16
764,082	68,2
764,51	68,49
764,939	68,36
765,368	68,35
765,797	68,42
766,225	67,97
766,654	68,38
767,082	68,19
767,51	68,02
767,938	67,89
768,367	68,16
768,795	68,15
769,222	68,39
769,65	68,14
770,078	68,23
770,505	67,6
770,933	67,91
771,36	67,84
771,788	67,86
772,215	68,06
772,642	67,77
773,069	67,87
773,496	67,77
773,923	67,43
774,349	67,84
774,776	67,58
775,203	67,71
775,629	67,53
776,055	67,72
776,482	67,64
776,908	67,62
777,334	67,6
777,76	67,85
778,186	67,66
778,611	67,77
779,037	67,6
779,463	67,31
779,888	67,46
780,314	67,4
780,739	67,73
781,164	67,57
781,589	67,17
782,014	67,4
782,439	67,43
782,864	67,59
783,289	67,71
783,713	67,17
784,138	67,29
784,562	67,19
784,987	67,08
785,411	67,18
785,835	67,32
786,259	67,37
786,683	67,53
787,107	67,33
787,531	67,17
787,954	67,07
788,378	67,14
788,802	67,34
789,225	67,09
789,648	67,21
790,071	67,3
790,495	67,03
790,918	67,36
791,34	67,3
791,763	67,02
792,186	67,18
792,609	67,24
793,031	67
793,454	67,22
793,876	67,35
794,298	67,22
794,721	67,12
795,143	67,3
795,565	67,19
795,986	67,27
796,408	66,91
796,83	67,1
797,252	67,36
797,673	67,29
798,094	67
798,516	67
798,937	67,13
799,358	66,9
799,779	66,97
800,2	67,08
800,621	67,26
801,042	66,8
801,462	67,15
801,883	67,18
802,303	66,88
802,724	66,85
803,144	67,37
803,564	66,9
803,984	67,21
804,404	67,03
804,824	67,11
805,244	66,99
805,664	67,14
806,084	66,9
806,503	67,02
806,923	66,82
807,342	67,1
807,761	66,71
808,18	67,1
808,599	67,09
809,018	66,8
809,437	66,94
809,856	66,72
810,275	66,8
810,693	67,01
811,112	67,09
811,53	66,79
811,949	67,2
812,367	66,77
812,785	67
813,203	66,93
813,621	67,04
814,039	66,92
814,457	66,43
814,874	66,86
815,292	66,77
815,709	66,88
816,127	66,84
816,544	66,89
816,961	66,93
817,378	67,02
817,795	67,22
818,212	66,91
818,629	66,78
819,046	66,83
819,462	66,73
819,879	66,98
820,295	66,86
820,712	66,52
821,128	66,79
821,544	66,72
821,96	66,85
822,376	66,68
822,792	66,89
823,208	66,75
823,624	66,99
824,039	66,85
824,455	66,7
824,87	66,7
825,286	66,93
825,701	67,11
826,116	66,54
826,531	66,35
826,946	66,51
827,361	66,71
827,776	66,51
828,19	66,33
828,605	66,53
829,02	66,83
829,434	66,56
829,848	67,39
830,263	66,72
830,677	66,68
831,091	66,66
831,505	66,89
831,919	66,52
832,332	66,29
832,746	66,74
833,16	66,56
833,573	66,73
