Data from H1__Relative__7__00149.txt Node

Date: Tue Jan 30 18:08:46 CET 2024
User: diatiterra
Spectrometer: HDX00911
Trigger mode: 0
Integration Time (sec): 6,000000E-3
Scans to average: 3
Nonlinearity correction enabled: true
Boxcar width: 0
Storing dark spectrum: false
XAxis mode: Wavelengths
Number of Pixels in Spectrum: 2068
>>>>>Begin Spectral Data<<<<<
194,468	136,87
195,025	95,77
195,581	102,65
196,138	94,01
196,694	86,9
197,251	73,9
197,807	71,22
198,363	68,56
198,919	68,49
199,474	75,65
200,03	67,29
200,586	68,88
201,141	63,76
201,696	63,49
202,251	61,09
202,806	70,26
203,361	68,5
203,916	64,05
204,471	69,07
205,025	64,16
205,58	69,09
206,134	67,51
206,688	67,46
207,242	64,42
207,796	67,68
208,35	60,31
208,904	67,52
209,457	67,35
210,011	70,25
210,564	64,94
211,117	67,01
211,67	74,79
212,223	69,1
212,776	71,01
213,329	68,24
213,881	69,18
214,434	70,9
214,986	70,02
215,538	70,93
216,09	68,55
216,642	70,36
217,194	66,66
217,746	67,78
218,297	61,34
218,849	73,39
219,4	68,5
219,951	77,06
220,502	71,34
221,053	67,07
221,604	65,87
222,155	71,04
222,705	69,23
223,256	64,75
223,806	72,6
224,356	68,41
224,906	65,81
225,456	67,64
226,006	63,54
226,556	68,54
227,106	68,59
227,655	68,81
228,204	69,6
228,754	76,57
229,303	68,74
229,852	71,96
230,401	69,59
230,949	74,17
231,498	65,31
232,047	64,54
232,595	72,81
233,143	70,98
233,691	63,61
234,239	64,88
234,787	66,66
235,335	72,55
235,883	69,25
236,43	67,91
236,978	67,07
237,525	65,7
238,072	68,61
238,619	68,7
239,166	66,92
239,713	67,53
240,26	71,31
240,806	69,38
241,353	69,47
241,899	72,45
242,445	70,61
242,991	65,5
243,537	69,77
244,083	69,57
244,629	68,68
245,174	68,35
245,72	71,21
246,265	71,88
246,81	75,28
247,355	65,87
247,9	68,35
248,445	73,23
248,99	69,79
249,534	67,64
250,079	76,44
250,623	67,73
251,168	65,49
251,712	64,54
252,256	65,07
252,8	71,16
253,343	66,1
253,887	66
254,43	76,64
254,974	73,68
255,517	69,81
256,06	71,44
256,603	72,71
257,146	75,6
257,689	75,29
258,232	71,21
258,774	71,46
259,317	72,02
259,859	68,28
260,401	77,64
260,943	73,1
261,485	66,3
262,027	75,79
262,569	71,48
263,11	66,32
263,652	72,76
264,193	66,6
264,734	67,17
265,275	69,32
265,816	68,78
266,357	70,41
266,898	72,95
267,438	67,49
267,979	73,25
268,519	72,47
269,059	72,87
269,6	66,89
270,14	71,99
270,68	66,79
271,219	68,8
271,759	72,81
272,298	65,87
272,838	69,07
273,377	65,6
273,916	68,48
274,455	68,12
274,994	73,74
275,533	65,33
276,072	71,28
276,61	75,46
277,149	64,12
277,687	74,02
278,225	70
278,763	72,59
279,301	68,03
279,839	72,28
280,377	65,51
280,914	68,01
281,452	79,46
281,989	69,97
282,526	69,24
283,064	71,19
283,601	69,76
284,137	76,01
284,674	73,42
285,211	75,8
285,747	68,1
286,284	71,24
286,82	65,77
287,356	69,31
287,892	76,8
288,428	66,74
288,964	74,07
289,5	70,35
290,035	70,41
290,571	72,13
291,106	72,57
291,641	70,82
292,176	68,61
292,711	68,25
293,246	70,85
293,781	69,36
294,315	68,35
294,85	74,67
295,384	73,26
295,918	68,14
296,453	68,71
296,987	66,81
297,52	66,45
298,054	67,76
298,588	70,2
299,121	68,11
299,655	68,03
300,188	68,56
300,721	67,18
301,254	71,34
301,787	70,76
302,32	69,19
302,853	64,02
303,385	68
303,918	74,66
304,45	66,73
304,982	64,33
305,514	67,87
306,046	65,05
306,578	71,13
307,11	69,54
307,641	72,19
308,173	75,49
308,704	68,61
309,236	70,78
309,767	68,73
310,298	60,74
310,829	67,72
311,359	65,77
311,89	67,65
312,421	68,91
312,951	62,12
313,481	72,72
314,012	67,79
314,542	65,65
315,072	62,69
315,601	65,53
316,131	69,52
316,661	69,59
317,19	66,52
317,72	66,53
318,249	67,38
318,778	68,11
319,307	66,82
319,836	70,93
320,365	68,94
320,893	69,89
321,422	65,22
321,95	60,72
322,479	65,79
323,007	66,02
323,535	65,31
324,063	73,22
324,591	69,78
325,118	71,71
325,646	69,15
326,173	67,05
326,701	69,72
327,228	65,78
327,755	71,76
328,282	64,74
328,809	64,91
329,336	64,94
329,862	66,09
330,389	67,52
330,915	70,29
331,441	69,98
331,968	63,96
332,494	62,42
333,02	66,67
333,545	65,66
334,071	63,78
334,597	64,5
335,122	63,24
335,648	66,03
336,173	62,91
336,698	63,44
337,223	64,13
337,748	60,69
338,272	56,8
338,797	63,77
339,322	60,79
339,846	68,38
340,37	64,58
340,894	64,32
341,419	60,96
341,942	59,16
342,466	54,99
342,99	62,83
343,514	59,71
344,037	60,2
344,56	63,55
345,084	59,94
345,607	64,43
346,13	59,75
346,653	58,68
347,175	60,81
347,698	61,65
348,221	53,95
348,743	56,96
349,265	57,62
349,787	59,15
350,309	55,87
350,831	63,22
351,353	49,88
351,875	55,97
352,397	52,28
352,918	54,41
353,439	59,83
353,961	57,89
354,482	52,07
355,003	52,53
355,524	50,59
356,044	56,28
356,565	49,15
357,086	53,73
357,606	53,4
358,126	53,02
358,646	48,51
359,167	53,34
359,687	49,95
360,206	47,8
360,726	53,37
361,246	51,06
361,765	49,81
362,285	49,52
362,804	51,7
363,323	49,31
363,842	52,44
364,361	51,16
364,88	49,68
365,398	49,3
365,917	50,56
366,435	49,61
366,954	46,86
367,472	47,2
367,99	47,12
368,508	45,06
369,026	45,96
369,544	49,02
370,061	46,35
370,579	43,48
371,096	45,64
371,613	44,97
372,131	46,82
372,648	45,25
373,165	43,88
373,681	42,2
374,198	41,76
374,715	43,49
375,231	45,87
375,747	42,46
376,264	39,98
376,78	43,19
377,296	40,17
377,812	41,41
378,327	41,4
378,843	37,25
379,359	41,16
379,874	39,84
380,389	38,1
380,905	38,49
381,42	37,88
381,935	41,1
382,449	35,97
382,964	33,8
383,479	35,21
383,993	36,01
384,508	33,08
385,022	34,28
385,536	33,68
386,05	32,81
386,564	34
387,078	34,12
387,592	33,01
388,105	32,76
388,619	30,69
389,132	29,13
389,645	30,77
390,158	29,35
390,671	28,43
391,184	31,09
391,697	28,2
392,21	28,42
392,722	29,19
393,235	29,74
393,747	26,17
394,259	28,07
394,771	28,18
395,283	25,8
395,795	27,41
396,307	28,22
396,818	25,51
397,33	25,5
397,841	25
398,353	25,14
398,864	23,78
399,375	23,7
399,886	23,53
400,397	22,31
400,907	22,49
401,418	20,96
401,928	22,19
402,439	21,58
402,949	20,38
403,459	20,55
403,969	19,57
404,479	19,29
404,989	17,97
405,498	18,07
406,008	17,49
406,517	17,51
407,027	16,59
407,536	15,81
408,045	15,49
408,554	15,09
409,063	14,24
409,572	14,32
410,08	14,17
410,589	12,88
411,097	12,22
411,606	12,15
412,114	11,95
412,622	11,28
413,13	11,46
413,638	11,02
414,145	10,2
414,653	10,51
415,16	9,71
415,668	9,92
416,175	9,74
416,682	9,02
417,189	8,86
417,696	8,75
418,203	8,91
418,71	8,7
419,216	8,21
419,723	8,17
420,229	8,35
420,735	8,36
421,242	8,13
421,748	7,99
422,254	7,85
422,759	8,01
423,265	7,34
423,771	7,31
424,276	7,6
424,781	7,14
425,287	7,35
425,792	7,35
426,297	7,15
426,802	6,72
427,306	6,54
427,811	6,85
428,316	6,65
428,82	7,1
429,324	6,81
429,829	6,33
430,333	6,66
430,837	6,99
431,34	6,43
431,844	6,59
432,348	6,72
432,851	6,38
433,355	6,29
433,858	6,18
434,361	6,21
434,864	5,78
435,367	5,87
435,87	6,27
436,373	5,91
436,876	5,94
437,378	5,98
437,88	6,03
438,383	6,02
438,885	5,84
439,387	6,18
439,889	6,04
440,391	5,92
440,892	5,86
441,394	5,93
441,896	6
442,397	5,93
442,898	5,6
443,399	5,82
443,9	6,01
444,401	5,91
444,902	5,58
445,403	5,74
445,903	5,72
446,404	5,7
446,904	5,71
447,405	5,94
447,905	5,82
448,405	6,13
448,905	5,94
449,404	5,98
449,904	6,19
450,404	5,9
450,903	6,13
451,403	6
451,902	5,93
452,401	5,87
452,9	6,02
453,399	6,04
453,898	6,09
454,396	5,97
454,895	6,14
455,393	6,01
455,892	6,19
456,39	5,91
456,888	6,01
457,386	6
457,884	6,06
458,382	6,06
458,879	5,95
459,377	6,12
459,874	5,95
460,372	6,12
460,869	6,17
461,366	6,09
461,863	6,11
462,36	5,9
462,857	6,15
463,353	5,88
463,85	6,01
464,346	6,06
464,843	6,24
465,339	6,07
465,835	6,11
466,331	6,02
466,827	6,14
467,323	5,99
467,818	5,92
468,314	5,93
468,809	5,93
469,305	5,87
469,8	5,75
470,295	5,92
470,79	5,91
471,285	5,97
471,78	5,7
472,274	6,1
472,769	5,87
473,263	5,96
473,758	5,91
474,252	5,97
474,746	5,88
475,24	5,86
475,734	5,96
476,228	5,67
476,721	5,87
477,215	5,89
477,708	6
478,202	6,17
478,695	5,98
479,188	5,97
479,681	5,99
480,174	6,03
480,667	5,96
481,159	6,07
481,652	6,08
482,144	5,73
482,637	6,12
483,129	5,92
483,621	6,04
484,113	5,97
484,605	6,11
485,097	6,06
485,588	5,97
486,08	5,92
486,571	6,02
487,063	6,22
487,554	6,3
488,045	6,25
488,536	6,39
489,027	6,2
489,518	6,4
490,008	6,3
490,499	6,21
490,989	6,32
491,48	6,45
491,97	6,43
492,46	6,77
492,95	6,66
493,44	6,58
493,93	6,71
494,419	6,73
494,909	6,93
495,398	7,03
495,888	6,96
496,377	7,09
496,866	7,17
497,355	7,29
497,844	7,3
498,333	7,45
498,821	7,42
499,31	7,42
499,798	7,73
500,287	7,75
500,775	7,98
501,263	8,1
501,751	8,37
502,239	8,48
502,727	8,68
503,215	8,79
503,702	8,89
504,19	9,01
504,677	9,19
505,164	9,23
505,651	9,6
506,139	9,59
506,625	9,77
507,112	10,11
507,599	10,39
508,086	10,36
508,572	10,74
509,058	10,88
509,545	11,19
510,031	11,37
510,517	11,27
511,003	11,87
511,489	12,21
511,974	12,27
512,46	12,61
512,946	12,81
513,431	13,06
513,916	13,17
514,401	13,52
514,887	14,03
515,371	14,37
515,856	14,45
516,341	14,79
516,826	14,98
517,31	15,24
517,795	15,73
518,279	16,11
518,763	16,24
519,247	16,59
519,731	16,73
520,215	17,12
520,699	17,55
521,182	17,65
521,666	18,16
522,149	18,46
522,633	18,82
523,116	18,72
523,599	19,19
524,082	19,67
524,565	19,88
525,048	20,17
525,53	20,28
526,013	20,23
526,495	20,85
526,978	21,25
527,46	21,45
527,942	21,68
528,424	21,62
528,906	21,93
529,388	22,21
529,87	22,41
530,351	22,51
530,833	22,59
531,314	22,58
531,795	23,01
532,277	23,12
532,758	23,51
533,238	23,4
533,719	23,54
534,2	23,64
534,681	23,8
535,161	23,86
535,642	24,04
536,122	24,03
536,602	24,05
537,082	24,16
537,562	24,25
538,042	24,4
538,522	24,12
539,001	24,26
539,481	24,56
539,96	24,36
540,44	24,56
540,919	24,23
541,398	24,55
541,877	24,68
542,356	24,59
542,835	24,95
543,313	24,61
543,792	24,74
544,27	24,88
544,749	25,01
545,227	24,86
545,705	24,92
546,183	25,07
546,661	25,29
547,139	25,12
547,616	25,05
548,094	25,08
548,571	25,13
549,049	25,12
549,526	25,34
550,003	25,11
550,48	25,22
550,957	25,56
551,434	25,05
551,911	25,13
552,387	25,32
552,864	25,3
553,34	25,23
553,817	25,28
554,293	25,35
554,769	25,61
555,245	25,1
555,721	25,14
556,197	25,3
556,672	25,35
557,148	25,52
557,623	25,16
558,099	25,48
558,574	25,22
559,049	25,21
559,524	25,06
559,999	25,16
560,474	25,22
560,948	24,96
561,423	24,9
561,897	24,66
562,372	24,6
562,846	24,65
563,32	24,39
563,794	24,45
564,268	24,47
564,742	24,37
565,216	23,85
565,69	24,07
566,163	23,65
566,636	23,73
567,11	23,71
567,583	23,4
568,056	23,42
568,529	23,14
569,002	23,09
569,475	22,73
569,947	22,45
570,42	22,63
570,892	22,29
571,365	22,14
571,837	22,06
572,309	21,95
572,781	21,76
573,253	21,76
573,725	21,38
574,197	21,27
574,668	21,31
575,14	21,02
575,611	20,66
576,082	20,54
576,554	20,64
577,025	20,37
577,496	20,2
577,967	20,12
578,437	19,84
578,908	19,93
579,379	19,7
579,849	19,37
580,319	19,35
580,79	19,5
581,26	19,11
581,73	18,96
582,2	18,99
582,669	18,79
583,139	18,67
583,609	18,58
584,078	18,51
584,548	18,44
585,017	18,46
585,486	18,2
585,955	18,08
586,424	18,03
586,893	18,03
587,362	17,98
587,83	17,57
588,299	17,68
588,767	17,87
589,236	17,43
589,704	17,65
590,172	17,55
590,64	17,42
591,108	17,31
591,576	17,15
592,043	17,2
592,511	17,02
592,978	16,8
593,446	16,91
593,913	16,86
594,38	16,87
594,847	16,77
595,314	16,73
595,781	16,71
596,248	16,72
596,715	16,69
597,181	16,56
597,647	16,48
598,114	16,67
598,58	16,5
599,046	16,52
599,512	16,31
599,978	16,26
600,444	16,28
600,91	16,32
601,375	16,22
601,841	16,24
602,306	16,19
602,771	16,12
603,236	16,21
603,702	16,01
604,167	15,85
604,631	15,92
605,096	15,78
605,561	15,6
606,025	15,67
606,49	15,45
606,954	15,58
607,418	15,47
607,882	15,29
608,347	15,29
608,81	15,18
609,274	15,09
609,738	15,13
610,202	14,92
610,665	14,87
611,128	14,72
611,592	14,65
612,055	14,62
612,518	14,56
612,981	14,55
613,444	14,36
613,907	14,32
614,369	14,26
614,832	14,11
615,294	14,02
615,757	13,83
616,219	13,89
616,681	13,72
617,143	13,68
617,605	13,51
618,067	13,46
618,529	13,35
618,99	13,33
619,452	13,2
619,913	13,36
620,375	13
620,836	13,1
621,297	12,98
621,758	12,94
622,219	12,87
622,68	12,7
623,14	12,84
623,601	12,74
624,061	12,71
624,522	12,66
624,982	12,54
625,442	12,64
625,902	12,6
626,362	12,58
626,822	12,56
627,282	12,64
627,742	12,52
628,201	12,51
628,661	12,51
629,12	12,5
629,579	12,42
630,038	12,41
630,497	12,28
630,956	12,26
631,415	12,39
631,874	12,4
632,332	12,16
632,791	12,2
633,249	12,3
633,708	12,15
634,166	12,07
634,624	11,97
635,082	11,83
635,54	11,86
635,998	11,68
636,455	11,55
636,913	11,57
637,37	11,52
637,828	11,29
638,285	11,28
638,742	11,15
639,199	10,93
639,656	11,01
640,113	10,83
640,57	10,77
641,027	10,55
641,483	10,54
641,94	10,2
642,396	10,22
642,852	9,98
643,309	9,86
643,765	9,73
644,221	9,69
644,676	9,48
645,132	9,35
645,588	9,18
646,043	8,96
646,499	8,94
646,954	8,9
647,409	8,74
647,864	8,55
648,319	8,36
648,774	8,38
649,229	8,34
649,684	8,33
650,139	8,25
650,593	8,17
651,047	8,02
651,502	8,09
651,956	7,94
652,41	7,85
652,864	7,87
653,318	7,82
653,772	7,77
654,225	7,74
654,679	7,68
655,133	7,61
655,586	7,59
656,039	7,52
656,492	7,35
656,946	7,44
657,399	7,34
657,851	7,28
658,304	7,24
658,757	7,09
659,209	7
659,662	6,91
660,114	6,84
660,567	6,86
661,019	6,61
661,471	6,63
661,923	6,56
662,375	6,42
662,826	6,37
663,278	6,3
663,73	6,24
664,181	6,13
664,632	6,09
665,084	5,98
665,535	5,98
665,986	5,96
666,437	5,97
666,888	5,89
667,338	5,88
667,789	5,88
668,24	5,73
668,69	5,75
669,14	5,85
669,591	5,74
670,041	5,79
670,491	5,65
670,941	5,82
671,391	5,8
671,84	5,89
672,29	5,93
672,74	5,97
673,189	5,99
673,638	5,97
674,088	6,08
674,537	6,18
674,986	6,21
675,435	6,23
675,883	6,36
676,332	6,5
676,781	6,5
677,229	6,68
677,678	6,73
678,126	6,76
678,574	6,96
679,022	7,09
679,47	7,16
679,918	7,29
680,366	7,37
680,814	7,54
681,261	7,69
681,709	7,82
682,156	7,82
682,604	8,03
683,051	8,15
683,498	8,38
683,945	8,47
684,392	8,62
684,839	8,79
685,286	8,95
685,732	9,12
686,179	9,33
686,625	9,52
687,071	9,76
687,518	9,96
687,964	10,2
688,41	10,54
688,856	10,9
689,301	11,23
689,747	11,39
690,193	11,93
690,638	12,24
691,084	12,65
691,529	13,18
691,974	13,62
692,419	14,08
692,864	14,49
693,309	15,02
693,754	15,73
694,199	16
694,643	16,65
695,088	17,16
695,532	17,78
695,977	18,23
696,421	18,79
696,865	19,23
697,309	20,02
697,753	20,46
698,197	21,08
698,64	21,54
699,084	21,9
699,527	22,41
699,971	22,91
700,414	23,33
700,857	23,98
701,3	24,46
701,743	24,74
702,186	25,32
702,629	25,65
703,072	26,15
703,515	26,7
703,957	26,73
704,399	27,37
704,842	27,76
705,284	28,02
705,726	28,49
706,168	28,7
706,61	29,25
707,052	29,67
707,494	29,84
707,935	30,07
708,377	30,38
708,818	30,62
709,26	30,91
709,701	31,44
710,142	31,41
710,583	31,9
711,024	32,01
711,465	32,6
711,905	32,51
712,346	32,78
712,787	33,01
713,227	33,38
713,667	33,66
714,108	34,09
714,548	33,91
714,988	34,58
715,428	34,66
715,868	34,86
716,307	34,9
716,747	35,25
717,186	35,36
717,626	35,38
718,065	35,92
718,504	35,85
718,944	36,34
719,383	36,56
719,822	36,68
720,261	36,63
720,699	36,84
721,138	36,97
721,576	37,2
722,015	37,2
722,453	37,51
722,892	37,48
723,33	37,61
723,768	37,95
724,206	38,21
724,644	38,09
725,081	38,32
725,519	38,42
725,957	38,44
726,394	38,55
726,832	38,56
727,269	38,81
727,706	38,86
728,143	38,87
728,58	39,22
729,017	38,86
729,454	39,25
729,89	39,16
730,327	39,27
730,764	39,23
731,2	39,31
731,636	39,56
732,072	39,71
732,509	39,72
732,945	39,55
733,38	39,65
733,816	39,66
734,252	39,76
734,688	39,65
735,123	39,83
735,559	39,79
735,994	39,98
736,429	39,93
736,864	40,04
737,299	39,81
737,734	39,81
738,169	39,98
738,604	39,95
739,038	39,92
739,473	40,05
739,907	40,1
740,342	40,25
740,776	39,85
741,21	40,07
741,644	39,98
742,078	40
742,512	40,1
742,946	40,05
743,379	40
743,813	40,01
744,246	39,81
744,68	39,95
745,113	39,93
745,546	39,86
745,979	39,87
746,412	39,92
746,845	39,74
747,278	39,83
747,711	39,94
748,143	39,72
748,576	39,66
749,008	39,59
749,441	39,71
749,873	39,42
750,305	39,53
750,737	39,44
751,169	39,45
751,601	39,65
752,032	39,49
752,464	39,47
752,896	39,58
753,327	39,5
753,758	39,39
754,19	39,49
754,621	39,38
755,052	39,37
755,483	39,4
755,914	39,28
756,344	39,37
756,775	39,32
757,206	39,48
757,636	39,28
758,066	39,3
758,497	39,18
758,927	38,95
759,357	39,12
759,787	39,12
760,217	39,03
760,647	38,62
761,076	39,08
761,506	38,87
761,935	38,69
762,365	38,79
762,794	38,85
763,223	38,92
763,653	38,9
764,082	38,66
764,51	38,8
764,939	38,58
765,368	38,75
765,797	38,76
766,225	38,79
766,654	38,25
767,082	38,37
767,51	38,46
767,938	38,45
768,367	38,44
768,795	38,4
769,222	38,41
769,65	38,34
770,078	38,43
770,505	38,25
770,933	38,41
771,36	38,24
771,788	38,17
772,215	38,34
772,642	38,25
773,069	38,24
773,496	38,09
773,923	38,04
774,349	38
774,776	37,98
775,203	37,97
775,629	38,1
776,055	38,16
776,482	37,97
776,908	38,14
777,334	37,88
777,76	37,92
778,186	37,9
778,611	38,1
779,037	37,93
779,463	37,93
779,888	38,03
780,314	37,78
780,739	38,01
781,164	37,91
781,589	37,83
782,014	37,86
782,439	37,91
782,864	37,71
783,289	37,87
783,713	37,61
784,138	37,38
784,562	37,78
784,987	37,6
785,411	37,85
785,835	37,74
786,259	37,72
786,683	37,8
787,107	37,74
787,531	37,49
787,954	37,52
788,378	37,72
788,802	37,76
789,225	37,68
789,648	37,65
790,071	37,58
790,495	37,46
790,918	37,51
791,34	37,42
791,763	37,55
792,186	37,59
792,609	37,69
793,031	37,53
793,454	37,49
793,876	37,62
794,298	37,44
794,721	37,49
795,143	37,44
795,565	37,37
795,986	37,49
796,408	37,55
796,83	37,34
797,252	37,54
797,673	37,54
798,094	37,48
798,516	37,47
798,937	37,43
799,358	37,44
799,779	37,28
800,2	37,4
800,621	37,21
801,042	37,34
801,462	37,34
801,883	37,52
802,303	37,42
802,724	37,51
803,144	37,41
803,564	37,36
803,984	37,27
804,404	37,47
804,824	37,39
805,244	37,48
805,664	37,39
806,084	37,43
806,503	37,53
806,923	37,31
807,342	37,23
807,761	37,39
808,18	37,41
808,599	37,17
809,018	37,14
809,437	37,27
809,856	37,16
810,275	37,12
810,693	37,41
811,112	37,2
811,53	37,16
811,949	37,36
812,367	37,16
812,785	37,15
813,203	37,22
813,621	37,38
814,039	37,19
814,457	36,9
814,874	37,39
815,292	37,21
815,709	37,07
816,127	37,3
816,544	37,14
816,961	37,42
817,378	37,41
817,795	37,29
818,212	37,25
818,629	37,16
819,046	37,22
819,462	37,09
819,879	37,2
820,295	36,89
820,712	36,97
821,128	37,25
821,544	37,03
821,96	37,07
822,376	36,99
822,792	37,19
823,208	37,07
823,624	37,05
824,039	37,1
824,455	37,34
824,87	37,11
825,286	37,02
825,701	37,17
826,116	37,06
826,531	37,24
826,946	37,04
827,361	37,01
827,776	37,01
828,19	37
828,605	36,95
829,02	37,09
829,434	37,04
829,848	37,19
830,263	37
830,677	36,97
831,091	36,9
831,505	36,95
831,919	36,81
832,332	36,87
832,746	36,75
833,16	36,95
833,573	36,92
833,987	36,98
834,4	36,69
834,813	36,78
835,226	36,98
835,639	36,93
836,052	36,63
836,465	37,15
836,878	37,01
837,29	36,93
837,703	37,07
838,116	36,77
838,528	36,78
838,94	37
839,352	36,87
839,765	36,97
840,177	36,79
840,589	36,9
841	36,82
841,412	36,94
841,824	36,97
842,235	36,84
