Data from H1__Relative__6__00148.txt Node

Date: Tue Jan 30 18:08:42 CET 2024
User: diatiterra
Spectrometer: HDX00911
Trigger mode: 0
Integration Time (sec): 6,000000E-3
Scans to average: 3
Nonlinearity correction enabled: true
Boxcar width: 0
Storing dark spectrum: false
XAxis mode: Wavelengths
Number of Pixels in Spectrum: 2068
>>>>>Begin Spectral Data<<<<<
194,468	137,31
195,025	100,61
195,581	115,02
196,138	97,19
196,694	93,21
197,251	77,94
197,807	80,89
198,363	72,12
198,919	80,23
199,474	87,95
200,03	79,87
200,586	79,39
201,141	75,09
201,696	71,86
202,251	74,54
202,806	79,43
203,361	78,01
203,916	71,27
204,471	80,41
205,025	72,05
205,58	78,18
206,134	79,96
206,688	74,69
207,242	79,16
207,796	78,65
208,35	72,13
208,904	76,03
209,457	75,7
210,011	81,01
210,564	71,87
211,117	78,48
211,67	81,37
212,223	79,47
212,776	79,62
213,329	86,7
213,881	79,45
214,434	74,49
214,986	76,44
215,538	81,5
216,09	71,8
216,642	82,3
217,194	74,48
217,746	79,29
218,297	76,08
218,849	85,84
219,4	82,03
219,951	77,68
220,502	80
221,053	74,94
221,604	73,52
222,155	79,05
222,705	79,42
223,256	74,33
223,806	76,6
224,356	78,45
224,906	80,25
225,456	80,94
226,006	74,65
226,556	76,55
227,106	81,41
227,655	76,09
228,204	77,36
228,754	78,24
229,303	76,81
229,852	78,48
230,401	77,92
230,949	80,58
231,498	72,59
232,047	77,45
232,595	76,02
233,143	79,24
233,691	77,92
234,239	76,52
234,787	74,84
235,335	80,03
235,883	81,64
236,43	75,77
236,978	70,93
237,525	78,02
238,072	70,7
238,619	79,57
239,166	73,06
239,713	74,23
240,26	79,44
240,806	73,66
241,353	73,48
241,899	75,58
242,445	76,53
242,991	72,27
243,537	78,01
244,083	75,25
244,629	79,19
245,174	75,1
245,72	79,31
246,265	83,04
246,81	86,99
247,355	78,39
247,9	79,46
248,445	79,87
248,99	78,27
249,534	80,14
250,079	81,28
250,623	72,94
251,168	75,62
251,712	75,79
252,256	74,99
252,8	78,32
253,343	80,42
253,887	74,89
254,43	81,73
254,974	76,78
255,517	78,98
256,06	82,55
256,603	83,37
257,146	80,83
257,689	87,65
258,232	77,71
258,774	75,32
259,317	77,66
259,859	71,46
260,401	85,92
260,943	77,76
261,485	81,72
262,027	81,56
262,569	77,8
263,11	74,12
263,652	83,85
264,193	74,56
264,734	78,04
265,275	76,82
265,816	73,08
266,357	81,87
266,898	79,44
267,438	73,77
267,979	84,82
268,519	77,1
269,059	79,44
269,6	76,67
270,14	82,47
270,68	71,45
271,219	78,6
271,759	82,68
272,298	73,65
272,838	82,79
273,377	76,07
273,916	76,68
274,455	75,21
274,994	80,14
275,533	78
276,072	79,62
276,61	80,19
277,149	74,94
277,687	77,95
278,225	73,75
278,763	80,68
279,301	80,69
279,839	79,55
280,377	76,14
280,914	75
281,452	81,52
281,989	82,65
282,526	71,89
283,064	74,2
283,601	76,46
284,137	82,68
284,674	78,48
285,211	76,71
285,747	76,45
286,284	80,15
286,82	70,89
287,356	77,66
287,892	81,06
288,428	75,33
288,964	78,63
289,5	79,44
290,035	78,49
290,571	78,09
291,106	83,32
291,641	76,71
292,176	75,47
292,711	72,14
293,246	77,66
293,781	76,97
294,315	76,79
294,85	84,12
295,384	76,78
295,918	76,57
296,453	74,62
296,987	78,8
297,52	75,72
298,054	72,59
298,588	77,72
299,121	77,84
299,655	72,54
300,188	71,4
300,721	74,45
301,254	75,06
301,787	78,81
302,32	80,49
302,853	74,09
303,385	76,23
303,918	83,51
304,45	68,25
304,982	78,42
305,514	77,54
306,046	69,47
306,578	71,34
307,11	72,85
307,641	81,24
308,173	78,55
308,704	76,92
309,236	78,9
309,767	74,9
310,298	70,5
310,829	76,92
311,359	74,48
311,89	75,29
312,421	75,84
312,951	71,37
313,481	78,23
314,012	78,11
314,542	71,56
315,072	77,19
315,601	73,82
316,131	78,27
316,661	76,15
317,19	76,81
317,72	69,64
318,249	73,56
318,778	80,82
319,307	77,8
319,836	76,52
320,365	72,68
320,893	76,49
321,422	75
321,95	75,37
322,479	79,79
323,007	68,37
323,535	78,16
324,063	75,68
324,591	73,64
325,118	73,8
325,646	73,31
326,173	80,37
326,701	73,86
327,228	75,34
327,755	80,46
328,282	70,3
328,809	69,96
329,336	73,54
329,862	76,74
330,389	73,51
330,915	76,73
331,441	70,61
331,968	75,05
332,494	70,09
333,02	76,78
333,545	73,22
334,071	77,34
334,597	74,32
335,122	74,62
335,648	74,99
336,173	73,95
336,698	70,42
337,223	72,33
337,748	70,8
338,272	69,3
338,797	75,64
339,322	78,66
339,846	75,97
340,37	76,24
340,894	78,42
341,419	72,44
341,942	73,03
342,466	69,56
342,99	75,28
343,514	77,09
344,037	73,03
344,56	78,21
345,084	68,5
345,607	76,96
346,13	72,41
346,653	70,53
347,175	69,75
347,698	81
348,221	68,17
348,743	67,58
349,265	73,82
349,787	75,37
350,309	75,51
350,831	74,38
351,353	65,58
351,875	67,46
352,397	68,84
352,918	71,12
353,439	76,26
353,961	71,68
354,482	67,19
355,003	70,78
355,524	67,14
356,044	71,05
356,565	70,8
357,086	70,67
357,606	70,19
358,126	74,26
358,646	72,31
359,167	70,74
359,687	69,04
360,206	69,02
360,726	69,67
361,246	75,86
361,765	70,04
362,285	69,21
362,804	68,8
363,323	69,49
363,842	72,48
364,361	70,47
364,88	72,21
365,398	68,58
365,917	77,69
366,435	73,82
366,954	75,86
367,472	69,25
367,99	75,53
368,508	68,65
369,026	66,5
369,544	70,47
370,061	73,93
370,579	69,08
371,096	69,6
371,613	75,98
372,131	73,87
372,648	69,48
373,165	67,12
373,681	67,12
374,198	69,83
374,715	68,83
375,231	71,16
375,747	71,52
376,264	66,57
376,78	69,73
377,296	70,4
377,812	68,6
378,327	69,44
378,843	65,27
379,359	67,94
379,874	68,56
380,389	62,71
380,905	66,01
381,42	65,26
381,935	64,31
382,449	61,86
382,964	62,92
383,479	63,04
383,993	60,48
384,508	60,66
385,022	59,87
385,536	61,88
386,05	63,72
386,564	63,08
387,078	59,46
387,592	58,7
388,105	58,56
388,619	58,24
389,132	55,18
389,645	57,35
390,158	54,76
390,671	54,48
391,184	53,37
391,697	53,87
392,21	53,04
392,722	53,3
393,235	53,2
393,747	54,47
394,259	52,5
394,771	55,35
395,283	53,63
395,795	51,41
396,307	49,85
396,818	48,67
397,33	48,98
397,841	47,91
398,353	47,34
398,864	47,19
399,375	47,45
399,886	45,12
400,397	46,27
400,907	45,02
401,418	44,74
401,928	43,94
402,439	43,78
402,949	42,57
403,459	41,72
403,969	40,09
404,479	40,26
404,989	37,63
405,498	37,77
406,008	36,72
406,517	37,24
407,027	34,13
407,536	33,32
408,045	32,25
408,554	31,77
409,063	29,36
409,572	30,54
410,08	30,01
410,589	28,26
411,097	28,55
411,606	26,91
412,114	25,73
412,622	24,96
413,13	24,9
413,638	24,17
414,145	22,94
414,653	22,92
415,16	22,91
415,668	21,84
416,175	22,02
416,682	20,69
417,189	20,73
417,696	20,51
418,203	19,88
418,71	19,66
419,216	20,03
419,723	19,49
420,229	18,6
420,735	18,64
421,242	18,63
421,748	18,38
422,254	17,77
422,759	17,98
423,265	17,65
423,771	17,33
424,276	17,48
424,781	17,14
425,287	16,86
425,792	16,99
426,297	16,71
426,802	16,54
427,306	16,47
427,811	16,96
428,316	17,11
428,82	16,71
429,324	16,76
429,829	15,87
430,333	16,21
430,837	16,39
431,34	15,78
431,844	16,08
432,348	16,6
432,851	15,52
433,355	16,01
433,858	15,93
434,361	15,55
434,864	15,55
435,367	15,56
435,87	15,83
436,373	15,77
436,876	15,29
437,378	15,38
437,88	15,36
438,383	15,51
438,885	15,44
439,387	15,59
439,889	15,26
440,391	15,12
440,892	15,34
441,394	15,48
441,896	15,58
442,397	15,82
442,898	15,31
443,399	15,76
443,9	15,22
444,401	15,73
444,902	15,33
445,403	15,42
445,903	15,3
446,404	15,86
446,904	15,7
447,405	15,57
447,905	15,81
448,405	16,3
448,905	15,72
449,404	15,76
449,904	15,95
450,404	16,32
450,903	15,9
451,403	16,22
451,902	16,57
452,401	16,27
452,9	16,14
453,399	16,45
453,898	16,74
454,396	16,7
454,895	16,69
455,393	16,54
455,892	16,79
456,39	16,74
456,888	16,7
457,386	16,85
457,884	16,46
458,382	16,59
458,879	16,66
459,377	16,73
459,874	17,01
460,372	17,03
460,869	16,8
461,366	16,9
461,863	16,93
462,36	16,62
462,857	16,74
463,353	17,1
463,85	17,14
464,346	17,34
464,843	16,73
465,339	17,38
465,835	16,88
466,331	16,85
466,827	16,96
467,323	17,06
467,818	16,89
468,314	16,95
468,809	16,64
469,305	16,91
469,8	16,92
470,295	17,09
470,79	17,08
471,285	16,72
471,78	17,08
472,274	17,24
472,769	17,14
473,263	17,07
473,758	17,1
474,252	17
474,746	16,97
475,24	16,99
475,734	17,05
476,228	17,12
476,721	17,27
477,215	17,05
477,708	17,14
478,202	17,31
478,695	17,42
479,188	17,63
479,681	17,28
480,174	17,21
480,667	17,25
481,159	17,55
481,652	17,65
482,144	17,47
482,637	17,6
483,129	17,53
483,621	17,63
484,113	17,42
484,605	17,66
485,097	17,67
485,588	17,63
486,08	17,85
486,571	18,08
487,063	17,99
487,554	17,86
488,045	18,34
488,536	17,83
489,027	18,04
489,518	17,83
490,008	18,15
490,499	18,32
490,989	18,18
491,48	18,45
491,97	18,48
492,46	18,63
492,95	18,81
493,44	19,09
493,93	18,92
494,419	18,78
494,909	19,08
495,398	19,17
495,888	19,43
496,377	19,25
496,866	19,66
497,355	19,76
497,844	19,87
498,333	19,92
498,821	20,33
499,31	20,17
499,798	20,52
500,287	20,67
500,775	20,81
501,263	20,97
501,751	21,35
502,239	21,63
502,727	21,76
503,215	21,71
503,702	21,98
504,19	22,15
504,677	22,3
505,164	22,43
505,651	23,07
506,139	22,58
506,625	23,31
507,112	23,51
507,599	23,94
508,086	24,29
508,572	24,53
509,058	24,89
509,545	24,76
510,031	24,99
510,517	24,99
511,003	25,7
511,489	26,09
511,974	26,23
512,46	26,22
512,946	26,93
513,431	27,12
513,916	27,09
514,401	27,39
514,887	28,15
515,371	28,48
515,856	28,9
516,341	28,86
516,826	29,51
517,31	29,46
517,795	30,01
518,279	30,36
518,763	30,62
519,247	31,02
519,731	31,74
520,215	31,65
520,699	32,01
521,182	32,17
521,666	33,03
522,149	33,34
522,633	33,45
523,116	33,7
523,599	34,3
524,082	34,54
524,565	34,52
525,048	35,06
525,53	35,62
526,013	35,67
526,495	35,83
526,978	36,26
527,46	36,01
527,942	36,67
528,424	36,65
528,906	36,88
529,388	36,97
529,87	37,71
530,351	37,51
530,833	37,39
531,314	37,7
531,795	37,76
532,277	37,77
532,758	38,41
533,238	38,4
533,719	38,38
534,2	38,41
534,681	38,58
535,161	39,03
535,642	38,58
536,122	38,73
536,602	38,94
537,082	39,04
537,562	39,26
538,042	39,56
538,522	39,23
539,001	39,53
539,481	39,39
539,96	39,72
540,44	39,85
540,919	39,62
541,398	39,54
541,877	40,12
542,356	39,84
542,835	39,87
543,313	39,69
543,792	39,94
544,27	39,84
544,749	40,21
545,227	40,18
545,705	40,08
546,183	40,26
546,661	40,03
547,139	40,29
547,616	40,26
548,094	40,15
548,571	40,33
549,049	40,4
549,526	40,32
550,003	40,38
550,48	40,19
550,957	40,55
551,434	40,31
551,911	40,45
552,387	40,63
552,864	40,08
553,34	40,63
553,817	40,72
554,293	40,57
554,769	40,85
555,245	40,43
555,721	40,58
556,197	40,64
556,672	40,61
557,148	40,65
557,623	40,48
558,099	40,55
558,574	40,72
559,049	40,24
559,524	40,11
559,999	40,5
560,474	40,14
560,948	40,37
561,423	40,32
561,897	40,04
562,372	39,91
562,846	39,85
563,32	40,07
563,794	40,12
564,268	39,8
564,742	39,85
565,216	39,6
565,69	39,67
566,163	39,3
566,636	38,96
567,11	39,22
567,583	38,76
568,056	38,51
568,529	38,5
569,002	38,77
569,475	38,37
569,947	37,75
570,42	37,78
570,892	37,63
571,365	37,59
571,837	37,41
572,309	37,34
572,781	37,34
573,253	36,96
573,725	36,77
574,197	36,52
574,668	36,85
575,14	36,24
575,611	36,12
576,082	35,77
576,554	35,92
577,025	35,73
577,496	35,51
577,967	35,58
578,437	34,99
578,908	34,87
579,379	35,08
579,849	34,86
580,319	34,8
580,79	34,35
581,26	34,28
581,73	34,08
582,2	34,17
582,669	34,12
583,139	33,96
583,609	33,58
584,078	33,7
584,548	33,61
585,017	33,46
585,486	33,3
585,955	32,69
586,424	32,97
586,893	33,05
587,362	32,93
587,83	32,58
588,299	32,42
588,767	32,5
589,236	32,5
589,704	32,4
590,172	32,45
590,64	32,13
591,108	31,9
591,576	31,92
592,043	31,8
592,511	31,89
592,978	31,81
593,446	31,63
593,913	31,65
594,38	31,53
594,847	31,54
595,314	31,36
595,781	31,31
596,248	31,36
596,715	31,38
597,181	31,27
597,647	31,31
598,114	31,38
598,58	31,34
599,046	30,87
599,512	31,01
599,978	31
600,444	30,74
600,91	30,98
601,375	30,9
601,841	31,01
602,306	30,83
602,771	30,68
603,236	30,6
603,702	30,52
604,167	30,51
604,631	30,49
605,096	30,36
605,561	30,12
606,025	30,2
606,49	30,02
606,954	30,16
607,418	29,92
607,882	29,84
608,347	29,67
608,81	29,85
609,274	29,62
609,738	29,52
610,202	29,49
610,665	29,24
611,128	29,29
611,592	29,21
612,055	28,84
612,518	29
612,981	29,11
613,444	28,89
613,907	28,65
614,369	28,72
614,832	28,53
615,294	28,24
615,757	28,1
616,219	28,12
616,681	28,21
617,143	28,1
617,605	27,83
618,067	27,6
618,529	27,51
618,99	27,53
619,452	27,4
619,913	27,76
620,375	27,19
620,836	27,33
621,297	27,27
621,758	27,2
622,219	27
622,68	27,01
623,14	27,06
623,601	27,06
624,061	26,99
624,522	26,92
624,982	26,7
625,442	26,75
625,902	26,81
626,362	26,69
626,822	27,05
627,282	26,69
627,742	26,64
628,201	26,63
628,661	26,43
629,12	26,41
629,579	26,19
630,038	26,51
630,497	26,24
630,956	26,2
631,415	26,33
631,874	26,38
632,332	26,32
632,791	26,23
633,249	25,99
633,708	25,89
634,166	25,95
634,624	25,75
635,082	25,65
635,54	25,73
635,998	25,42
636,455	25,46
636,913	25,31
637,37	25,25
637,828	24,88
638,285	24,82
638,742	24,8
639,199	24,3
639,656	24,21
640,113	24,43
640,57	23,93
641,027	23,93
641,483	23,69
641,94	23,54
642,396	23,5
642,852	23,26
643,309	23,22
643,765	22,9
644,221	22,79
644,676	22,66
645,132	22,48
645,588	22,29
646,043	21,99
646,499	22,04
646,954	21,9
647,409	21,54
647,864	21,45
648,319	21,3
648,774	21,19
649,229	20,95
649,684	20,92
650,139	21,06
650,593	20,78
651,047	20,63
651,502	20,62
651,956	20,46
652,41	20,34
652,864	20,45
653,318	20,36
653,772	20,16
654,225	20,3
654,679	20,15
655,133	20,02
655,586	19,87
656,039	19,99
656,492	19,94
656,946	19,81
657,399	19,81
657,851	19,58
658,304	19,45
658,757	19,33
659,209	19,04
659,662	18,97
660,114	18,81
660,567	18,88
661,019	18,79
661,471	18,56
661,923	18,41
662,375	18,32
662,826	18,14
663,278	18,17
663,73	18,06
664,181	17,84
664,632	17,78
665,084	17,64
665,535	17,47
665,986	17,57
666,437	17,39
666,888	17,34
667,338	17,34
667,789	17,16
668,24	17,09
668,69	17,13
669,14	17,08
669,591	17,08
670,041	17,06
670,491	16,95
670,941	16,95
671,391	17,04
671,84	17,04
672,29	17
672,74	16,98
673,189	17,12
673,638	16,98
674,088	17,09
674,537	17,31
674,986	17,34
675,435	17,37
675,883	17,28
676,332	17,55
676,781	17,47
677,229	17,64
677,678	17,84
678,126	17,96
678,574	17,96
679,022	17,96
679,47	18,15
679,918	18,34
680,366	18,51
680,814	18,64
681,261	18,73
681,709	18,88
682,156	19,05
682,604	19,4
683,051	19,46
683,498	19,67
683,945	19,9
684,392	20
684,839	20,3
685,286	20,64
685,732	20,65
686,179	21,08
686,625	21,24
687,071	21,55
687,518	22,03
687,964	22,23
688,41	22,63
688,856	23
689,301	23,46
689,747	23,88
690,193	24,34
690,638	24,76
691,084	25,25
691,529	25,66
691,974	26,29
692,419	26,79
692,864	27,34
693,309	27,88
693,754	28,56
694,199	29,02
694,643	29,44
695,088	30,1
695,532	30,83
695,977	31,28
696,421	31,61
696,865	32,4
697,309	33,17
697,753	33,41
698,197	34,19
698,64	34,46
699,084	34,82
699,527	35,39
699,971	35,87
700,414	36,43
700,857	36,9
701,3	37,5
701,743	37,63
702,186	38,39
702,629	38,48
703,072	38,95
703,515	39,28
703,957	39,65
704,399	40,2
704,842	40,39
705,284	40,83
705,726	41,01
706,168	41,48
706,61	42,04
707,052	42,07
707,494	42,24
707,935	42,75
708,377	43,03
708,818	43,31
709,26	43,57
709,701	43,65
710,142	43,76
710,583	44,37
711,024	44,5
711,465	44,83
711,905	44,83
712,346	45,1
712,787	45,45
713,227	45,6
713,667	46,21
714,108	46,17
714,548	46,18
714,988	46,42
715,428	46,8
715,868	46,9
716,307	46,82
716,747	47,27
717,186	47,37
717,626	47,54
718,065	48,1
718,504	47,64
718,944	48,05
719,383	48,35
719,822	48,41
720,261	48,44
720,699	48,7
721,138	48,71
721,576	48,94
722,015	49
722,453	49,14
722,892	49,4
723,33	49,52
723,768	49,82
724,206	49,86
724,644	49,78
725,081	49,92
725,519	49,81
725,957	49,87
726,394	49,98
726,832	50,22
727,269	50,48
727,706	50,46
728,143	50,45
728,58	50,51
729,017	50,58
729,454	50,72
729,89	50,66
730,327	50,71
730,764	50,77
731,2	50,8
731,636	51,12
732,072	51,22
732,509	51,26
732,945	51,05
733,38	50,96
733,816	50,96
734,252	50,78
734,688	50,94
735,123	50,81
735,559	51,24
735,994	51,32
736,429	50,99
736,864	51,25
737,299	50,95
737,734	51,41
738,169	51,17
738,604	51,32
739,038	51,28
739,473	51,16
739,907	51,44
740,342	51,06
740,776	50,79
741,21	51,21
741,644	51,23
742,078	51,33
742,512	51,07
742,946	51,36
743,379	50,81
743,813	51,08
744,246	51,13
744,68	51,12
745,113	50,9
745,546	50,72
745,979	50,76
746,412	51,01
746,845	50,54
747,278	50,84
747,711	50,79
748,143	50,81
748,576	50,68
749,008	50,58
749,441	50,85
749,873	50,82
750,305	50,71
750,737	50,59
751,169	50,31
751,601	50,66
752,032	50,34
752,464	50,19
752,896	50,41
753,327	50,26
753,758	50,1
754,19	50,24
754,621	50,28
755,052	50,16
755,483	50,14
755,914	50,21
756,344	50,19
756,775	50,12
757,206	50,23
757,636	49,92
758,066	49,84
758,497	50,04
758,927	49,83
759,357	49,75
759,787	49,67
760,217	49,7
760,647	49,47
761,076	49,74
761,506	49,62
761,935	49,64
762,365	49,58
762,794	49,61
763,223	49,58
763,653	49,41
764,082	49,65
764,51	49,28
764,939	49,52
765,368	49,53
765,797	49,38
766,225	49,44
766,654	49,22
767,082	49,06
767,51	49,19
767,938	49,14
768,367	49,15
768,795	48,97
769,222	49,49
769,65	49,37
770,078	49,23
770,505	49,03
770,933	49,12
771,36	49,11
771,788	48,91
772,215	48,95
772,642	48,84
773,069	48,57
773,496	48,75
773,923	48,66
774,349	48,58
774,776	48,86
775,203	48,66
775,629	48,52
776,055	48,7
776,482	48,58
776,908	48,77
777,334	48,45
777,76	48,53
778,186	48,72
778,611	48,63
779,037	48,71
779,463	48,51
779,888	48,48
780,314	48,47
780,739	48,87
781,164	48,54
781,589	48,5
782,014	48,16
782,439	48,7
782,864	48,32
783,289	48,27
783,713	48,42
784,138	48,18
784,562	48,46
784,987	48,24
785,411	48,23
785,835	48,11
786,259	48,39
786,683	48,27
787,107	48,37
787,531	48,2
787,954	47,98
788,378	48,48
788,802	48,33
789,225	48,25
789,648	48,31
790,071	48,4
790,495	47,89
790,918	48,3
791,34	48,28
791,763	48,11
792,186	48,28
792,609	48,3
793,031	48,1
793,454	48,2
793,876	48,2
794,298	48,26
794,721	48,17
795,143	48,26
795,565	48
795,986	48,31
796,408	48,05
796,83	47,84
797,252	48,13
797,673	48,07
798,094	47,93
798,516	47,93
798,937	48
799,358	48,17
799,779	47,85
800,2	47,94
800,621	47,85
801,042	47,88
801,462	47,64
801,883	47,88
802,303	47,83
802,724	47,9
803,144	47,81
803,564	47,89
803,984	47,93
804,404	47,9
804,824	47,86
805,244	48,22
805,664	48,14
806,084	47,99
806,503	48,08
806,923	48,15
807,342	48,02
807,761	47,87
808,18	47,87
808,599	47,99
809,018	48,02
809,437	47,89
809,856	47,69
810,275	47,76
810,693	47,84
811,112	47,96
811,53	48,09
811,949	48,18
812,367	47,82
812,785	47,88
813,203	47,85
813,621	47,9
814,039	47,8
814,457	47,63
814,874	47,83
815,292	47,77
815,709	47,77
816,127	47,63
816,544	47,99
816,961	48,09
817,378	48,14
817,795	47,93
818,212	47,91
818,629	47,73
819,046	47,74
819,462	47,86
819,879	47,79
820,295	47,69
820,712	47,7
821,128	47,72
821,544	47,75
821,96	47,62
822,376	47,66
822,792	47,76
823,208	47,53
823,624	47,89
824,039	47,94
824,455	47,78
824,87	47,87
825,286	47,56
825,701	47,84
826,116	47,48
826,531	47,65
826,946	47,72
827,361	47,52
827,776	47,42
828,19	47,42
828,605	47,5
829,02	47,54
829,434	47,78
829,848	47,62
830,263	47,7
830,677	47,89
831,091	47,59
831,505	47,73
831,919	47,49
832,332	47,21
832,746	47,58
833,16	47,65
833,573	47,68
833,987	47,48
