Data from H1__Relative__9__00151.txt Node

Date: Tue Jan 30 18:08:53 CET 2024
User: diatiterra
Spectrometer: HDX00911
Trigger mode: 0
Integration Time (sec): 6,000000E-3
Scans to average: 3
Nonlinearity correction enabled: true
Boxcar width: 0
Storing dark spectrum: false
XAxis mode: Wavelengths
Number of Pixels in Spectrum: 2068
>>>>>Begin Spectral Data<<<<<
194,468	158,72
195,025	123,83
195,581	128,77
196,138	110,36
196,694	113,06
197,251	89,83
197,807	89,08
198,363	83,65
198,919	91,32
199,474	96,38
200,03	91,41
200,586	89,49
201,141	87,64
201,696	82,66
202,251	85,33
202,806	89,41
203,361	90,49
203,916	83,12
204,471	92,58
205,025	87,44
205,58	88,08
206,134	89,24
206,688	84,73
207,242	84,66
207,796	92,47
208,35	91,37
208,904	91,67
209,457	91,64
210,011	89,24
210,564	84,54
211,117	92,62
211,67	98,92
212,223	95,73
212,776	90,34
213,329	94
213,881	91,61
214,434	86,24
214,986	89,94
215,538	95,93
216,09	84,78
216,642	89,5
217,194	88,26
217,746	91,42
218,297	84,85
218,849	97,43
219,4	94,51
219,951	97,31
220,502	92,58
221,053	85,5
221,604	89,59
222,155	88,29
222,705	93,97
223,256	85,93
223,806	85
224,356	92,68
224,906	86,62
225,456	84,51
226,006	81,86
226,556	84,16
227,106	94,24
227,655	82,74
228,204	90,98
228,754	87,86
229,303	87,29
229,852	91,09
230,401	96,47
230,949	92,77
231,498	88,49
232,047	87,28
232,595	91,23
233,143	93,65
233,691	85,08
234,239	83,03
234,787	90,18
235,335	89,8
235,883	86,51
236,43	92,96
236,978	83,33
237,525	93,22
238,072	88,91
238,619	88,27
239,166	86,72
239,713	87,41
240,26	89,51
240,806	88,77
241,353	88,34
241,899	89,25
242,445	94,5
242,991	85,41
243,537	90,91
244,083	86,2
244,629	91,71
245,174	86,71
245,72	86,14
246,265	89,79
246,81	91,18
247,355	89,84
247,9	86,38
248,445	96,12
248,99	94,14
249,534	89,51
250,079	95,16
250,623	85,16
251,168	89,25
251,712	87,68
252,256	80,36
252,8	88,13
253,343	88,84
253,887	87,94
254,43	92,85
254,974	93,59
255,517	88,38
256,06	92,99
256,603	97,45
257,146	92,82
257,689	97,5
258,232	82,04
258,774	89,7
259,317	91,02
259,859	89,43
260,401	100,24
260,943	93,65
261,485	87,67
262,027	93,12
262,569	89
263,11	88,5
263,652	100,02
264,193	93,15
264,734	88,28
265,275	88,52
265,816	90,28
266,357	87,08
266,898	85,94
267,438	89,69
267,979	96,16
268,519	96,05
269,059	89,72
269,6	87,12
270,14	93,86
270,68	82,79
271,219	93,18
271,759	92,11
272,298	86,39
272,838	86,06
273,377	85,9
273,916	88,02
274,455	83,96
274,994	94,72
275,533	82,23
276,072	85,98
276,61	89,87
277,149	82,8
277,687	88,65
278,225	92,08
278,763	91,02
279,301	91,64
279,839	87,28
280,377	94,15
280,914	91,74
281,452	92,02
281,989	89,93
282,526	87,37
283,064	93,99
283,601	95,9
284,137	95,57
284,674	90,51
285,211	97,3
285,747	88,66
286,284	91,57
286,82	90,44
287,356	83,72
287,892	98,37
288,428	88,33
288,964	92,33
289,5	85,94
290,035	91,27
290,571	89,79
291,106	98,36
291,641	91,42
292,176	95,85
292,711	93,52
293,246	91,92
293,781	95,32
294,315	86,29
294,85	97,49
295,384	101,44
295,918	80,58
296,453	92,57
296,987	90,15
297,52	91,4
298,054	87,06
298,588	90,4
299,121	94,13
299,655	84,13
300,188	89,96
300,721	85,24
301,254	92,35
301,787	82,42
302,32	95,56
302,853	87,79
303,385	89,78
303,918	89,97
304,45	86,17
304,982	94,11
305,514	92,6
306,046	87,58
306,578	84,49
307,11	88,53
307,641	94,37
308,173	90,58
308,704	88,47
309,236	93,06
309,767	91,28
310,298	85,03
310,829	93,74
311,359	88,8
311,89	86,98
312,421	85,71
312,951	90,75
313,481	94,29
314,012	90,53
314,542	86,88
315,072	87,64
315,601	90,63
316,131	93,07
316,661	97,6
317,19	89,26
317,72	83,16
318,249	87,64
318,778	92,46
319,307	88,34
319,836	92,41
320,365	92,31
320,893	86,82
321,422	87,39
321,95	83,65
322,479	87,79
323,007	81,83
323,535	84,58
324,063	87,74
324,591	94,56
325,118	92,83
325,646	90,16
326,173	91,44
326,701	93,91
327,228	87,12
327,755	91,33
328,282	86,11
328,809	89,48
329,336	91,42
329,862	87,61
330,389	88,73
330,915	90,48
331,441	87,53
331,968	85,71
332,494	78,17
333,02	89,47
333,545	86,4
334,071	85,12
334,597	88,3
335,122	91,48
335,648	86,24
336,173	82,08
336,698	81,51
337,223	83,19
337,748	80,14
338,272	82,18
338,797	79,27
339,322	85,42
339,846	89,12
340,37	86,33
340,894	85,47
341,419	86,43
341,942	79,67
342,466	78,12
342,99	88,12
343,514	82,81
344,037	76,19
344,56	85,14
345,084	79,51
345,607	83,82
346,13	78
346,653	71,64
347,175	79,06
347,698	87,07
348,221	72,98
348,743	75,54
349,265	77,32
349,787	76,97
350,309	77,11
350,831	85,19
351,353	69,87
351,875	69,79
352,397	67,91
352,918	76,07
353,439	75,57
353,961	72,87
354,482	66,88
355,003	72,18
355,524	69,32
356,044	74,99
356,565	73,73
357,086	72,37
357,606	67,63
358,126	70,89
358,646	72,77
359,167	72,65
359,687	70,72
360,206	73,79
360,726	72,94
361,246	69,81
361,765	68,81
362,285	71,39
362,804	66,92
363,323	71,91
363,842	71,77
364,361	68,99
364,88	72,62
365,398	68,84
365,917	71,01
366,435	67,84
366,954	73,85
367,472	66,51
367,99	74,99
368,508	67,91
369,026	68,95
369,544	67,16
370,061	65,93
370,579	67,12
371,096	66,32
371,613	69,47
372,131	67,16
372,648	67,5
373,165	64,96
373,681	62,71
374,198	66,54
374,715	65,03
375,231	65,02
375,747	65,56
376,264	62,84
376,78	66,23
377,296	63,55
377,812	65,31
378,327	63,47
378,843	61,85
379,359	62,44
379,874	62,48
380,389	59,34
380,905	61,96
381,42	59,84
381,935	61,32
382,449	57,85
382,964	55,68
383,479	56,05
383,993	55,92
384,508	55,45
385,022	56,2
385,536	57,9
386,05	58,15
386,564	52,54
387,078	53,96
387,592	52,75
388,105	51,85
388,619	52,32
389,132	50,6
389,645	51,67
390,158	50,16
390,671	50,39
391,184	48,48
391,697	45,99
392,21	47,78
392,722	48,27
393,235	45,49
393,747	44,91
394,259	45,5
394,771	47,75
395,283	43,99
395,795	46,4
396,307	45,9
396,818	45,07
397,33	45,62
397,841	40,55
398,353	44,02
398,864	41,77
399,375	41,96
399,886	40,35
400,397	38,93
400,907	38,35
401,418	37,37
401,928	38,59
402,439	36,22
402,949	36,1
403,459	36,38
403,969	33,65
404,479	35,52
404,989	32,77
405,498	32,03
406,008	31,96
406,517	31,61
407,027	29,16
407,536	29,19
408,045	28,12
408,554	26,6
409,063	25,76
409,572	25,18
410,08	25,17
410,589	24,04
411,097	23,19
411,606	22,59
412,114	22,21
412,622	21,55
413,13	21,41
413,638	20,66
414,145	20,15
414,653	19,39
415,16	18,8
415,668	18,18
416,175	17,99
416,682	17,18
417,189	17,39
417,696	16,71
418,203	16,48
418,71	16,47
419,216	16,49
419,723	15,38
420,229	15,57
420,735	15,54
421,242	15,48
421,748	15,02
422,254	15,02
422,759	14,77
423,265	14,34
423,771	14,57
424,276	14,74
424,781	14,05
425,287	14,06
425,792	14,11
426,297	13,68
426,802	13,82
427,306	13,7
427,811	13,96
428,316	13,55
428,82	13,15
429,324	13,06
429,829	12,75
430,333	13,05
430,837	12,75
431,34	12,97
431,844	12,63
432,348	12,86
432,851	12,88
433,355	12,98
433,858	12,48
434,361	12,44
434,864	12,4
435,367	11,81
435,87	12,46
436,373	12,44
436,876	12,12
437,378	12,2
437,88	12,19
438,383	12
438,885	12,38
439,387	12,13
439,889	11,65
440,391	12,36
440,892	11,8
441,394	12,41
441,896	12,07
442,397	12,12
442,898	12,16
443,399	11,97
443,9	12,14
444,401	11,99
444,902	11,78
445,403	11,99
445,903	12,16
446,404	12,23
446,904	12,03
447,405	12,31
447,905	12,24
448,405	12,5
448,905	12,43
449,404	12,28
449,904	12,07
450,404	12,58
450,903	12,53
451,403	12,3
451,902	12,4
452,401	12,53
452,9	12,64
453,399	12,7
453,898	12,94
454,396	12,92
454,895	12,79
455,393	12,96
455,892	12,69
456,39	13,31
456,888	13,28
457,386	12,98
457,884	12,83
458,382	12,97
458,879	12,88
459,377	12,99
459,874	13,04
460,372	13,2
460,869	12,62
461,366	12,95
461,863	13
462,36	12,95
462,857	12,98
463,353	12,94
463,85	12,93
464,346	12,97
464,843	12,88
465,339	13,01
465,835	12,75
466,331	12,94
466,827	13,05
467,323	12,88
467,818	12,95
468,314	12,65
468,809	12,79
469,305	12,58
469,8	12,88
470,295	12,47
470,79	12,86
471,285	12,6
471,78	12,77
472,274	12,86
472,769	12,92
473,263	12,73
473,758	12,88
474,252	13,03
474,746	13,01
475,24	12,73
475,734	12,86
476,228	12,74
476,721	12,69
477,215	12,91
477,708	13,11
478,202	12,98
478,695	12,94
479,188	12,79
479,681	13,05
480,174	12,9
480,667	12,99
481,159	13,25
481,652	13,06
482,144	13,14
482,637	13,17
483,129	13,07
483,621	13,24
484,113	13,05
484,605	13,08
485,097	13,15
485,588	13,11
486,08	13,17
486,571	13,52
487,063	13,18
487,554	13,54
488,045	13,46
488,536	13,57
489,027	13,44
489,518	13,68
490,008	13,28
490,499	13,57
490,989	14,05
491,48	13,79
491,97	13,78
492,46	13,97
492,95	13,91
493,44	14,25
493,93	14,25
494,419	14,36
494,909	14,68
495,398	14,47
495,888	14,73
496,377	14,67
496,866	14,71
497,355	14,84
497,844	15,33
498,333	15,17
498,821	15,25
499,31	15,58
499,798	15,79
500,287	15,82
500,775	16,11
501,263	16,16
501,751	16,36
502,239	16,84
502,727	16,75
503,215	17,03
503,702	17,29
504,19	17,23
504,677	17,43
505,164	17,64
505,651	17,77
506,139	18,36
506,625	18,52
507,112	18,92
507,599	19,49
508,086	19,06
508,572	19,81
509,058	20,25
509,545	19,97
510,031	20,27
510,517	20,52
511,003	21,36
511,489	21,36
511,974	21,9
512,46	22,34
512,946	22,69
513,431	23,14
513,916	23,04
514,401	23,59
514,887	24,2
515,371	24,59
515,856	25,06
516,341	25,21
516,826	25,72
517,31	25,91
517,795	26,32
518,279	26,98
518,763	27,52
519,247	27,75
519,731	28,36
520,215	28,8
520,699	29,2
521,182	29,51
521,666	30,17
522,149	30,21
522,633	31,29
523,116	31,11
523,599	31,65
524,082	32,3
524,565	32,78
525,048	32,88
525,53	33,33
526,013	33,99
526,495	34,49
526,978	34,47
527,46	34,56
527,942	34,66
528,424	35,34
528,906	35,46
529,388	35,84
529,87	36,26
530,351	36,44
530,833	36,75
531,314	36,85
531,795	36,67
532,277	37,38
532,758	37,48
533,238	38,09
533,719	37,76
534,2	37,9
534,681	38,05
535,161	38,6
535,642	38,01
536,122	38,24
536,602	38,48
537,082	38,61
537,562	38,81
538,042	38,91
538,522	38,82
539,001	39,12
539,481	39,24
539,96	38,68
540,44	39,26
540,919	39,22
541,398	39,28
541,877	39,64
542,356	39,9
542,835	40,22
543,313	39,61
543,792	39,92
544,27	40,19
544,749	39,77
545,227	39,96
545,705	40,42
546,183	40,19
546,661	40,16
547,139	40,43
547,616	40,36
548,094	40,19
548,571	40,45
549,049	40,33
549,526	40,51
550,003	40,57
550,48	40,99
550,957	40,68
551,434	40,25
551,911	40,1
552,387	40,88
552,864	40,81
553,34	40,74
553,817	40,78
554,293	40,52
554,769	41,12
555,245	40,59
555,721	40,81
556,197	40,36
556,672	40,66
557,148	40,81
557,623	40,39
558,099	40,67
558,574	40,59
559,049	40,36
559,524	40,22
559,999	40,2
560,474	40,32
560,948	40,11
561,423	39,78
561,897	40,07
562,372	39,96
562,846	39,43
563,32	39,71
563,794	39,52
564,268	39,19
564,742	39,11
565,216	39,24
565,69	38,96
566,163	38,89
566,636	38,5
567,11	38,34
567,583	38,04
568,056	37,89
568,529	37,58
569,002	37,55
569,475	37,7
569,947	37,09
570,42	36,83
570,892	36,72
571,365	36,56
571,837	36,23
572,309	35,9
572,781	36,02
573,253	35,78
573,725	35,53
574,197	34,92
574,668	35,34
575,14	34,79
575,611	34,27
576,082	34,33
576,554	34,05
577,025	34,15
577,496	33,59
577,967	33,61
578,437	33,49
578,908	32,75
579,379	32,98
579,849	32,91
580,319	32,52
580,79	32,65
581,26	32,49
581,73	32,06
582,2	32,04
582,669	31,89
583,139	31,82
583,609	31,43
584,078	31,55
584,548	31,12
585,017	31,4
585,486	31,22
585,955	30,74
586,424	30,63
586,893	30,72
587,362	30,48
587,83	30,45
588,299	30,14
588,767	30,14
589,236	30,15
589,704	30,04
590,172	29,93
590,64	29,93
591,108	29,76
591,576	29,59
592,043	29,62
592,511	29,68
592,978	29,55
593,446	29,33
593,913	29,31
594,38	29,05
594,847	29,31
595,314	28,82
595,781	29,1
596,248	28,75
596,715	28,7
597,181	28,97
597,647	28,77
598,114	28,65
598,58	28,81
599,046	28,67
599,512	28,49
599,978	28,34
600,444	28,53
600,91	28,47
601,375	28,1
601,841	28,35
602,306	28,17
602,771	28,22
603,236	28,23
603,702	28,16
604,167	27,92
604,631	27,67
605,096	27,82
605,561	27,66
606,025	27,61
606,49	27,52
606,954	27,47
607,418	27,38
607,882	27,15
608,347	27,2
608,81	26,81
609,274	26,54
609,738	26,84
610,202	26,7
610,665	26,41
611,128	26,25
611,592	26,29
612,055	26,05
612,518	26,15
612,981	25,73
613,444	25,68
613,907	25,33
614,369	25,58
614,832	25,54
615,294	25,09
615,757	25,06
616,219	24,95
616,681	25,07
617,143	24,67
617,605	24,49
618,067	24,42
618,529	24,28
618,99	24,21
619,452	24,07
619,913	24,07
620,375	23,81
620,836	23,94
621,297	23,68
621,758	23,66
622,219	23,63
622,68	23,58
623,14	23,51
623,601	23,52
624,061	23,43
624,522	23,27
624,982	23,23
625,442	23,23
625,902	23,41
626,362	23,13
626,822	23,29
627,282	23,06
627,742	23,02
628,201	23,09
628,661	23,18
629,12	22,81
629,579	22,9
630,038	22,91
630,497	22,9
630,956	22,87
631,415	22,85
631,874	22,89
632,332	22,68
632,791	22,88
633,249	22,49
633,708	22,52
634,166	22,43
634,624	22,28
635,082	22,17
635,54	22,18
635,998	22,01
636,455	21,96
636,913	21,71
637,37	21,68
637,828	21,41
638,285	21,38
638,742	21,27
639,199	21,08
639,656	20,94
640,113	20,67
640,57	20,51
641,027	20,34
641,483	20,27
641,94	19,98
642,396	19,89
642,852	19,57
643,309	19,53
643,765	19,23
644,221	19,01
644,676	18,88
645,132	18,8
645,588	18,55
646,043	18,29
646,499	18,15
646,954	18,02
647,409	17,94
647,864	17,54
648,319	17,47
648,774	17,4
649,229	17,26
649,684	17,08
650,139	17,1
650,593	17,13
651,047	16,72
651,502	16,65
651,956	16,74
652,41	16,4
652,864	16,62
653,318	16,29
653,772	16,41
654,225	16,44
654,679	16,25
655,133	16,13
655,586	16,01
656,039	15,91
656,492	15,83
656,946	15,76
657,399	15,55
657,851	15,44
658,304	15,46
658,757	15,34
659,209	15,08
659,662	14,94
660,114	14,85
660,567	14,71
661,019	14,52
661,471	14,4
661,923	14,3
662,375	14,11
662,826	14,04
663,278	13,95
663,73	13,82
664,181	13,65
664,632	13,52
665,084	13,51
665,535	13,35
665,986	13,24
666,437	13,22
666,888	13,08
667,338	13
667,789	13,03
668,24	12,93
668,69	12,91
669,14	12,87
669,591	12,81
670,041	12,84
670,491	12,8
670,941	12,74
671,391	12,72
671,84	12,8
672,29	12,79
672,74	12,9
673,189	12,84
673,638	12,87
674,088	12,9
674,537	12,96
674,986	13,03
675,435	13,08
675,883	13,08
676,332	13,32
676,781	13,27
677,229	13,48
677,678	13,57
678,126	13,78
678,574	13,78
679,022	13,92
679,47	14,02
679,918	14,17
680,366	14,23
680,814	14,52
681,261	14,46
681,709	14,7
682,156	14,91
682,604	15,02
683,051	15,23
683,498	15,39
683,945	15,6
684,392	15,86
684,839	15,97
685,286	16,31
685,732	16,49
686,179	16,83
686,625	16,93
687,071	17,34
687,518	17,9
687,964	18,12
688,41	18,58
688,856	19
689,301	19,42
689,747	20,03
690,193	20,45
690,638	20,96
691,084	21,54
691,529	22,18
691,974	22,84
692,419	23,45
692,864	24,07
693,309	24,67
693,754	25,53
694,199	26,26
694,643	26,7
695,088	27,61
695,532	28,37
695,977	29
696,421	29,84
696,865	30,57
697,309	31,41
697,753	32,05
698,197	32,95
698,64	33,52
699,084	34,11
699,527	34,87
699,971	35,59
700,414	36,27
700,857	37,15
701,3	37,62
701,743	38,3
702,186	38,95
702,629	39,57
703,072	40,38
703,515	40,95
703,957	41,31
704,399	42,03
704,842	42,49
705,284	43,04
705,726	43,57
706,168	44,21
706,61	45,06
707,052	45,1
707,494	45,59
707,935	46,28
708,377	47,01
708,818	47,35
709,26	47,88
709,701	48,15
710,142	48,39
710,583	49,05
711,024	49,59
711,465	50,11
711,905	50,36
712,346	50,61
712,787	51,02
713,227	51,43
713,667	52,26
714,108	52,71
714,548	52,96
714,988	53,07
715,428	53,69
715,868	53,94
716,307	53,93
716,747	54,61
717,186	55
717,626	55,18
718,065	55,96
718,504	55,75
718,944	56,68
719,383	56,61
719,822	56,92
720,261	57,02
720,699	57,36
721,138	57,48
721,576	58,04
722,015	58,08
722,453	58,59
722,892	58,88
723,33	58,97
723,768	59,31
724,206	59,48
724,644	59,74
725,081	59,92
725,519	59,98
725,957	60,17
726,394	60,18
726,832	60,58
727,269	60,9
727,706	60,85
728,143	61,29
728,58	61,44
729,017	61,5
729,454	61,96
729,89	61,76
730,327	61,9
730,764	62,13
731,2	62,14
731,636	62,36
732,072	62,72
732,509	62,67
732,945	62,62
733,38	62,79
733,816	62,74
734,252	62,85
734,688	62,87
735,123	63,18
735,559	63,19
735,994	63,18
736,429	63,29
736,864	63,54
737,299	63,01
737,734	63,16
738,169	63,5
738,604	63,68
739,038	63,62
739,473	63,58
739,907	63,8
740,342	63,33
740,776	63,41
741,21	63,47
741,644	63,85
742,078	64,01
742,512	63,83
742,946	63,87
743,379	63,48
743,813	63,64
744,246	63,8
744,68	63,82
745,113	63,6
745,546	63,7
745,979	63,72
746,412	63,9
746,845	63,63
747,278	63,78
747,711	63,74
748,143	63,79
748,576	63,49
749,008	63,42
749,441	63,49
749,873	63,3
750,305	63,44
750,737	63,54
751,169	63,42
751,601	63,63
752,032	63,52
752,464	63,58
752,896	63,38
753,327	63,32
753,758	63,25
754,19	63,39
754,621	63,23
755,052	63,05
755,483	62,99
755,914	63,3
756,344	63,27
756,775	63,25
757,206	63,32
757,636	63,07
758,066	62,93
758,497	62,96
758,927	62,5
759,357	62,93
759,787	62,99
760,217	62,85
760,647	62,55
761,076	62,96
761,506	62,7
761,935	62,53
762,365	62,73
762,794	62,31
763,223	62,45
763,653	62,66
764,082	62,68
764,51	62,77
764,939	62,63
765,368	62,54
765,797	62,63
766,225	62,29
766,654	62,15
767,082	62,16
767,51	62,02
767,938	62,36
768,367	62,15
768,795	62,17
769,222	62,14
769,65	62,28
770,078	62,23
770,505	62,1
770,933	62,03
771,36	62,11
771,788	61,94
772,215	62,04
772,642	61,81
773,069	61,88
773,496	61,79
773,923	61,73
774,349	61,7
774,776	61,8
775,203	61,9
775,629	61,63
776,055	61,86
776,482	61,81
776,908	61,76
777,334	61,55
777,76	61,69
778,186	61,71
778,611	61,75
779,037	61,52
779,463	61,48
779,888	61,66
780,314	61,53
780,739	61,73
781,164	61,54
781,589	61,25
782,014	61,39
782,439	61,87
782,864	61,84
783,289	61,71
783,713	61,26
784,138	61,3
784,562	61,41
784,987	61,19
785,411	61,37
785,835	61,33
786,259	61,49
786,683	61,91
787,107	61,31
787,531	61,27
787,954	60,99
788,378	61,46
788,802	61,41
789,225	61,32
789,648	61,43
790,071	61,37
790,495	61,09
790,918	61,37
791,34	61,37
791,763	61,25
792,186	61,41
792,609	61,26
793,031	61,1
793,454	61,18
793,876	61,53
794,298	61,08
794,721	61,26
795,143	61,5
795,565	61,16
795,986	61,33
796,408	61,11
796,83	61,37
797,252	61,06
797,673	61,21
798,094	60,97
798,516	60,92
798,937	61,21
799,358	61,24
799,779	60,98
800,2	61,44
800,621	61,32
801,042	61,06
801,462	60,96
801,883	61,2
802,303	61,1
802,724	61,03
803,144	61,26
803,564	60,97
803,984	61,11
804,404	61,23
804,824	61,2
805,244	61,28
805,664	61,08
806,084	61,23
806,503	61,01
806,923	60,92
807,342	60,79
807,761	60,92
808,18	60,91
808,599	61,13
809,018	60,73
809,437	61,09
809,856	61,01
810,275	60,89
810,693	60,97
811,112	61,19
811,53	60,72
811,949	61,09
812,367	60,85
812,785	61,12
813,203	61,07
813,621	61,15
814,039	60,99
814,457	60,68
814,874	61,09
815,292	60,99
815,709	60,87
816,127	61,14
816,544	61,37
816,961	60,83
817,378	60,9
817,795	60,98
818,212	61,01
818,629	61,11
819,046	60,98
819,462	60,94
819,879	61,2
820,295	60,72
820,712	60,48
821,128	60,85
821,544	60,93
821,96	60,77
822,376	60,8
822,792	60,87
823,208	60,65
823,624	61,08
824,039	60,88
824,455	60,92
824,87	60,93
825,286	60,94
825,701	61
826,116	60,82
826,531	60,71
826,946	60,82
827,361	60,74
827,776	60,73
828,19	60,73
828,605	60,6
829,02	60,86
829,434	60,67
829,848	61
830,263	60,91
830,677	60,64
831,091	60,82
831,505	60,78
831,919	60,55
832,332	60,54
832,746	60,67
833,16	60,75
