Data from I2__Relative__9__00161.txt Node

Date: Tue Jan 30 18:10:14 CET 2024
User: diatiterra
Spectrometer: HDX00911
Trigger mode: 0
Integration Time (sec): 6,000000E-3
Scans to average: 3
Nonlinearity correction enabled: true
Boxcar width: 0
Storing dark spectrum: false
XAxis mode: Wavelengths
Number of Pixels in Spectrum: 2068
>>>>>Begin Spectral Data<<<<<
194,468	162,28
195,025	127,22
195,581	126,02
196,138	118,54
196,694	111,86
197,251	97,43
197,807	90,77
198,363	88,27
198,919	91,75
199,474	97,52
200,03	88,26
200,586	89,9
201,141	81,77
201,696	85,46
202,251	87,77
202,806	90,02
203,361	92,6
203,916	84,73
204,471	85,98
205,025	89,67
205,58	93,94
206,134	91,99
206,688	91,96
207,242	85,44
207,796	91,87
208,35	84,16
208,904	89,5
209,457	92,78
210,011	93,46
210,564	85,53
211,117	94,67
211,67	97,6
212,223	95,73
212,776	92,86
213,329	92,07
213,881	93,29
214,434	86,44
214,986	90,58
215,538	90,24
216,09	83,56
216,642	89,91
217,194	83,53
217,746	92,68
218,297	84,45
218,849	92,28
219,4	95,56
219,951	95,25
220,502	91,75
221,053	90,67
221,604	87,83
222,155	97,12
222,705	89,19
223,256	86,55
223,806	87,8
224,356	88,28
224,906	93,84
225,456	84,71
226,006	81,08
226,556	84,56
227,106	91,67
227,655	85,23
228,204	90,15
228,754	93,51
229,303	83,86
229,852	97,18
230,401	90,22
230,949	91,53
231,498	86
232,047	85,23
232,595	92,94
233,143	93,86
233,691	85,27
234,239	85,39
234,787	90,59
235,335	85,23
235,883	95,36
236,43	90,89
236,978	84,14
237,525	84,8
238,072	85,14
238,619	90,01
239,166	87,91
239,713	86,8
240,26	89,51
240,806	84,07
241,353	87,14
241,899	91,59
242,445	89,64
242,991	82,33
243,537	97,47
244,083	90,66
244,629	90,5
245,174	88,18
245,72	85,71
246,265	101,42
246,81	99,79
247,355	88,76
247,9	90,99
248,445	93,6
248,99	92,83
249,534	89,07
250,079	94,94
250,623	88,17
251,168	87,39
251,712	84,71
252,256	83,04
252,8	87,31
253,343	89,9
253,887	90,7
254,43	96,55
254,974	88,95
255,517	88,16
256,06	94,12
256,603	92,12
257,146	87,15
257,689	91,31
258,232	91,56
258,774	92,49
259,317	88,31
259,859	85,62
260,401	94,2
260,943	88,99
261,485	89,43
262,027	96,46
262,569	89,81
263,11	85,01
263,652	92,17
264,193	89,61
264,734	86,14
265,275	86,54
265,816	93,22
266,357	88,54
266,898	87,88
267,438	90,81
267,979	97,07
268,519	87,46
269,059	85,13
269,6	93,57
270,14	98,19
270,68	80,56
271,219	96,6
271,759	92,11
272,298	85,31
272,838	92,38
273,377	88,04
273,916	85,71
274,455	84,17
274,994	94,72
275,533	85,11
276,072	86,2
276,61	91,9
277,149	83,23
277,687	91,71
278,225	86,46
278,763	94,17
279,301	87,56
279,839	89,1
280,377	91,76
280,914	91,53
281,452	94,31
281,989	100,03
282,526	82,89
283,064	93,13
283,601	81,64
284,137	90,9
284,674	87,56
285,211	94,36
285,747	90,59
286,284	93,63
286,82	87,78
287,356	90,82
287,892	95,29
288,428	90,75
288,964	88,18
289,5	88,32
290,035	94,64
290,571	87,88
291,106	103,61
291,641	89,83
292,176	88,15
292,711	90,72
293,246	89,79
293,781	91,73
294,315	84,81
294,85	94,96
295,384	92,75
295,918	88,39
296,453	88,41
296,987	93,15
297,52	87,65
298,054	87,5
298,588	92,04
299,121	93
299,655	90,99
300,188	91,93
300,721	88,11
301,254	92,35
301,787	89,41
302,32	98,85
302,853	84,8
303,385	91,12
303,918	93,8
304,45	85,96
304,982	94,11
305,514	93,95
306,046	90,95
306,578	84,71
307,11	93,61
307,641	93,23
308,173	92
308,704	97,25
309,236	92,36
309,767	89,37
310,298	88,29
310,829	94,41
311,359	88,38
311,89	89,22
312,421	89,5
312,951	81,94
313,481	95,89
314,012	88,01
314,542	83,16
315,072	86,15
315,601	84,25
316,131	88,13
316,661	93,66
317,19	98,83
317,72	87,53
318,249	85,29
318,778	86,86
319,307	86,1
319,836	85,25
320,365	88,8
320,893	86,82
321,422	90,65
321,95	83,65
322,479	87,79
323,007	86,11
323,535	80,73
324,063	87,07
324,591	93,88
325,118	86,1
325,646	87,97
326,173	83,08
326,701	95,65
327,228	85,34
327,755	96,65
328,282	82,05
328,809	88,16
329,336	87,34
329,862	90,22
330,389	89,19
330,915	87,81
331,441	84,36
331,968	82,51
332,494	81
333,02	88,18
333,545	84,45
334,071	96,23
334,597	84,76
335,122	88,85
335,648	78,95
336,173	83,12
336,698	79,05
337,223	85,86
337,748	81,7
338,272	79,15
338,797	87,11
339,322	84,55
339,846	78,03
340,37	88,35
340,894	86,33
341,419	83,09
341,942	79,67
342,466	77,02
342,99	83,45
343,514	90,18
344,037	73,4
344,56	83,95
345,084	74,27
345,607	83,22
346,13	77,81
346,653	78,86
347,175	81,15
347,698	88,59
348,221	74,83
348,743	72
349,265	80,82
349,787	76,44
350,309	76,58
350,831	75,29
351,353	69,38
351,875	72,96
352,397	64,2
352,918	73,51
353,439	72,97
353,961	74,74
354,482	71,87
355,003	67,66
355,524	71,04
356,044	73,84
356,565	75,35
357,086	71,6
357,606	65,55
358,126	67,84
358,646	70,63
359,167	67,94
359,687	67,5
360,206	65,18
360,726	67,3
361,246	65,97
361,765	66,47
362,285	67,04
362,804	65,17
363,323	68,5
363,842	70,78
364,361	66,69
364,88	65,42
365,398	66,77
365,917	69,92
366,435	63,58
366,954	67,14
367,472	60,53
367,99	63,14
368,508	64,69
369,026	63,69
369,544	61,89
370,061	61,64
370,579	63,66
371,096	57,84
371,613	64,38
372,131	60,92
372,648	61,44
373,165	55,77
373,681	59,27
374,198	59,85
374,715	60,7
375,231	58,77
375,747	56,59
376,264	55,09
376,78	59,96
377,296	59,39
377,812	58,05
378,327	55,61
378,843	53,62
379,359	59,41
379,874	55,67
380,389	55,34
380,905	52,82
381,42	57,04
381,935	53
382,449	48,71
382,964	51,62
383,479	49,76
383,993	50,67
384,508	47,49
385,022	48,58
385,536	51,25
386,05	51,26
386,564	49,31
387,078	46,39
387,592	47,52
388,105	45,79
388,619	46,59
389,132	40,83
389,645	45,92
390,158	42,84
390,671	41,06
391,184	42,74
391,697	41,14
392,21	40,97
392,722	42,27
393,235	41,42
393,747	39,28
394,259	38,56
394,771	40,73
395,283	39,28
395,795	39,8
396,307	41,11
396,818	37,58
397,33	38,87
397,841	37,65
398,353	37,37
398,864	36,83
399,375	35,64
399,886	35,49
400,397	33,39
400,907	33,11
401,418	32,03
401,928	33,04
402,439	32,11
402,949	30,95
403,459	30,32
403,969	29,81
404,479	28,56
404,989	27,77
405,498	26,89
406,008	27,29
406,517	27,05
407,027	25,63
407,536	25,72
408,045	23,4
408,554	23,43
409,063	22,84
409,572	22,44
410,08	21,69
410,589	21,35
411,097	19,78
411,606	19,49
412,114	19,27
412,622	18,7
413,13	18,36
413,638	18,27
414,145	17,52
414,653	17,35
415,16	16,48
415,668	16,72
416,175	15,9
416,682	14,62
417,189	15,22
417,696	15,33
418,203	14,24
418,71	14,82
419,216	13,85
419,723	13,66
420,229	13,59
420,735	13,58
421,242	13,66
421,748	13,36
422,254	13,41
422,759	13,23
423,265	13,53
423,771	12,71
424,276	12,69
424,781	12,32
425,287	12,55
425,792	12,39
426,297	12,61
426,802	11,69
427,306	12,37
427,811	12,34
428,316	12,28
428,82	11,86
429,324	11,97
429,829	11,75
430,333	11,94
430,837	11,68
431,34	11,72
431,844	11,9
432,348	11,74
432,851	11,22
433,355	11,54
433,858	11,14
434,361	11,27
434,864	11,53
435,367	10,78
435,87	11,23
436,373	11,17
436,876	11,15
437,378	10,97
437,88	10,64
438,383	11,11
438,885	11,01
439,387	10,78
439,889	11,01
440,391	11,21
440,892	10,82
441,394	10,79
441,896	11,11
442,397	11,01
442,898	10,99
443,399	11,13
443,9	11,13
444,401	11,13
444,902	10,9
445,403	10,82
445,903	10,92
446,404	10,97
446,904	10,89
447,405	10,94
447,905	10,79
448,405	11,23
448,905	11,19
449,404	11,09
449,904	10,94
450,404	11,04
450,903	11,24
451,403	11,24
451,902	11,25
452,401	11,04
452,9	11,08
453,399	11,23
453,898	11,52
454,396	11,32
454,895	11,4
455,393	11,24
455,892	11,41
456,39	11,39
456,888	11,03
457,386	11,39
457,884	11,06
458,382	11,46
458,879	10,96
459,377	11,35
459,874	11,26
460,372	11,14
460,869	11,51
461,366	11,39
461,863	11,51
462,36	11,39
462,857	11,48
463,353	11,28
463,85	11,29
464,346	11,11
464,843	11,28
465,339	11,62
465,835	11,19
466,331	11,56
466,827	11,19
467,323	11,35
467,818	11,25
468,314	11,26
468,809	11,25
469,305	11,36
469,8	11,24
470,295	11,16
470,79	11,32
471,285	11,32
471,78	11,45
472,274	11,47
472,769	11,05
473,263	11,41
473,758	11,28
474,252	11,33
474,746	11,26
475,24	11,35
475,734	11,31
476,228	11,5
476,721	11,24
477,215	11,52
477,708	11,51
478,202	11,55
478,695	11,22
479,188	11,41
479,681	11,24
480,174	11,19
480,667	11,7
481,159	11,46
481,652	11,45
482,144	11,48
482,637	11,4
483,129	11,67
483,621	11,46
484,113	11,4
484,605	11,47
485,097	11,43
485,588	11,62
486,08	11,7
486,571	11,77
487,063	11,39
487,554	11,83
488,045	11,74
488,536	11,78
489,027	11,55
489,518	11,92
490,008	11,73
490,499	11,75
490,989	11,76
491,48	12,07
491,97	12,25
492,46	12
492,95	12,31
493,44	12,32
493,93	12,45
494,419	12,61
494,909	12,56
495,398	12,63
495,888	12,48
496,377	12,76
496,866	12,72
497,355	12,8
497,844	12,95
498,333	13,21
498,821	13,26
499,31	13,15
499,798	13,37
500,287	13,6
500,775	13,66
501,263	14,06
501,751	14,06
502,239	14,47
502,727	14,32
503,215	14,67
503,702	14,78
504,19	15,01
504,677	15,31
505,164	15,41
505,651	15,76
506,139	15,65
506,625	16
507,112	16,35
507,599	16,45
508,086	16,84
508,572	17,1
509,058	17,54
509,545	17,12
510,031	17,63
510,517	18,24
511,003	18,37
511,489	18,42
511,974	19,01
512,46	19,2
512,946	19,49
513,431	19,99
513,916	20,21
514,401	20,72
514,887	21,1
515,371	21,45
515,856	21,76
516,341	22,13
516,826	22,33
517,31	22,97
517,795	23,11
518,279	23,84
518,763	23,95
519,247	24,37
519,731	24,72
520,215	25,31
520,699	25,48
521,182	26,01
521,666	26,53
522,149	26,73
522,633	27,15
523,116	27,35
523,599	28,09
524,082	28,65
524,565	28,8
525,048	29,12
525,53	29,66
526,013	29,59
526,495	30,27
526,978	30,64
527,46	30,47
527,942	30,85
528,424	31,52
528,906	31,63
529,388	31,64
529,87	32,29
530,351	32,46
530,833	32,62
531,314	32,84
531,795	32,97
532,277	33,08
532,758	33,75
533,238	33,53
533,719	33,59
534,2	33,77
534,681	34,03
535,161	34,51
535,642	34,21
536,122	34,49
536,602	34,36
537,082	34,74
537,562	34,75
538,042	35,28
538,522	34,87
539,001	35,05
539,481	35,2
539,96	35,01
540,44	35,17
540,919	34,97
541,398	35,42
541,877	35,84
542,356	35,34
542,835	35,58
543,313	35,55
543,792	35,76
544,27	35,92
544,749	36,07
545,227	35,9
545,705	36,16
546,183	35,99
546,661	36,12
547,139	36,28
547,616	36,28
548,094	36,34
548,571	36,23
549,049	36,24
549,526	36,54
550,003	36,31
550,48	36,48
550,957	36,8
551,434	36,36
551,911	36,48
552,387	36,68
552,864	36,5
553,34	36,55
553,817	36,51
554,293	36,28
554,769	36,82
555,245	36,36
555,721	36,52
556,197	36,39
556,672	36,61
557,148	36,72
557,623	36,46
558,099	36,64
558,574	36,47
559,049	36,31
559,524	36,39
559,999	36,51
560,474	36,07
560,948	35,9
561,423	36,02
561,897	35,9
562,372	35,57
562,846	35,69
563,32	35,53
563,794	35,25
564,268	35,09
564,742	34,99
565,216	35,06
565,69	34,88
566,163	34,54
566,636	34,23
567,11	34,43
567,583	33,92
568,056	33,89
568,529	33,73
569,002	33,4
569,475	33,55
569,947	32,98
570,42	32,98
570,892	32,35
571,365	32,17
571,837	32,4
572,309	31,96
572,781	31,57
573,253	31,47
573,725	31,51
574,197	31,25
574,668	30,85
575,14	30,93
575,611	30,24
576,082	30,24
576,554	30,08
577,025	30,04
577,496	29,39
577,967	29,8
578,437	29,3
578,908	29,31
579,379	29,01
579,849	28,95
580,319	28,83
580,79	28,5
581,26	28,46
581,73	28,28
582,2	28,39
582,669	27,79
583,139	27,81
583,609	27,55
584,078	27,42
584,548	27,43
585,017	27,52
585,486	27,05
585,955	26,95
586,424	26,82
586,893	26,81
587,362	26,44
587,83	26,41
588,299	26,32
588,767	26,5
589,236	26,37
589,704	26,36
590,172	26,23
590,64	25,88
591,108	25,84
591,576	25,75
592,043	25,88
592,511	25,75
592,978	25,53
593,446	25,43
593,913	25,28
594,38	25,31
594,847	25,42
595,314	25,37
595,781	25,24
596,248	25,33
596,715	25,26
597,181	25,06
597,647	24,92
598,114	24,9
598,58	25,23
599,046	25,15
599,512	24,92
599,978	24,74
600,444	24,89
600,91	24,74
601,375	24,49
601,841	24,79
602,306	24,76
602,771	24,76
603,236	24,52
603,702	24,37
604,167	24,4
604,631	24,17
605,096	24,2
605,561	23,99
606,025	23,93
606,49	23,99
606,954	23,89
607,418	23,61
607,882	23,67
608,347	23,54
608,81	23,27
609,274	23,21
609,738	23,21
610,202	23,11
610,665	22,96
611,128	22,61
611,592	22,65
612,055	22,46
612,518	22,5
612,981	22,44
613,444	22,29
613,907	22,11
614,369	21,82
614,832	21,62
615,294	21,77
615,757	21,73
616,219	21,53
616,681	21,34
617,143	21,28
617,605	21,15
618,067	21,09
618,529	20,87
618,99	20,94
619,452	20,86
619,913	20,89
620,375	20,5
620,836	20,56
621,297	20,39
621,758	20,43
622,219	20,25
622,68	20,17
623,14	20,35
623,601	20,13
624,061	20,03
624,522	19,97
624,982	20,05
625,442	19,92
625,902	19,93
626,362	19,89
626,822	19,92
627,282	19,84
627,742	19,96
628,201	19,7
628,661	19,84
629,12	19,61
629,579	19,71
630,038	19,76
630,497	19,71
630,956	19,81
631,415	19,68
631,874	19,49
632,332	19,39
632,791	19,43
633,249	19,43
633,708	19,39
634,166	19,39
634,624	19,22
635,082	19,2
635,54	19,21
635,998	18,88
636,455	18,96
636,913	18,71
637,37	18,76
637,828	18,59
638,285	18,51
638,742	18,35
639,199	18,12
639,656	18
640,113	17,83
640,57	17,69
641,027	17,58
641,483	17,38
641,94	17,16
642,396	17,28
642,852	16,98
643,309	16,81
643,765	16,7
644,221	16,33
644,676	16,4
645,132	16,21
645,588	16,05
646,043	15,8
646,499	15,77
646,954	15,41
647,409	15,55
647,864	15,28
648,319	15,08
648,774	15
649,229	14,8
649,684	14,93
650,139	14,68
650,593	14,69
651,047	14,51
651,502	14,49
651,956	14,32
652,41	14,34
652,864	14,22
653,318	14,13
653,772	14,08
654,225	14,13
654,679	13,89
655,133	13,83
655,586	13,73
656,039	13,63
656,492	13,6
656,946	13,56
657,399	13,5
657,851	13,35
658,304	13,25
658,757	13,22
659,209	13,04
659,662	12,83
660,114	12,81
660,567	12,73
661,019	12,63
661,471	12,49
661,923	12,38
662,375	12,2
662,826	12,18
663,278	12,07
663,73	11,88
664,181	11,84
664,632	11,8
665,084	11,74
665,535	11,66
665,986	11,56
666,437	11,5
666,888	11,5
667,338	11,41
667,789	11,42
668,24	11,44
668,69	11,36
669,14	11,5
669,591	11,43
670,041	11,32
670,491	11,3
670,941	11,37
671,391	11,35
671,84	11,32
672,29	11,36
672,74	11,39
673,189	11,56
673,638	11,57
674,088	11,64
674,537	11,66
674,986	11,68
675,435	11,79
675,883	11,92
676,332	11,9
676,781	11,93
677,229	12,1
677,678	12,22
678,126	12,23
678,574	12,39
679,022	12,45
679,47	12,53
679,918	12,59
680,366	12,75
680,814	12,88
681,261	12,93
681,709	13,16
682,156	13,34
682,604	13,45
683,051	13,6
683,498	13,68
683,945	14,04
684,392	14,07
684,839	14,35
685,286	14,49
685,732	14,71
686,179	14,88
686,625	15,04
687,071	15,21
687,518	15,59
687,964	15,99
688,41	16,24
688,856	16,54
689,301	16,96
689,747	17,48
690,193	17,71
690,638	18,33
691,084	18,75
691,529	19,34
691,974	19,95
692,419	20,42
692,864	21,07
693,309	21,69
693,754	22,36
694,199	23,05
694,643	23,5
695,088	24,34
695,532	25,14
695,977	25,8
696,421	26,48
696,865	27,03
697,309	27,95
697,753	28,51
698,197	29,38
698,64	29,95
699,084	30,59
699,527	31,1
699,971	31,84
700,414	32,62
700,857	33,28
701,3	33,99
701,743	34,33
702,186	35,28
702,629	35,79
703,072	36,45
703,515	37,34
703,957	37,44
704,399	38,32
704,842	38,63
705,284	39,29
705,726	40,02
706,168	40,44
706,61	40,95
707,052	41,36
707,494	41,78
707,935	42,5
708,377	43,05
708,818	43,62
709,26	44,02
709,701	44,42
710,142	44,79
710,583	45,28
711,024	45,88
711,465	46,23
711,905	46,74
712,346	47,07
712,787	47,68
713,227	48,12
713,667	48,56
714,108	48,78
714,548	49,37
714,988	49,72
715,428	50,01
715,868	50,31
716,307	50,77
716,747	51,2
717,186	51,51
717,626	52,16
718,065	52,53
718,504	52,43
718,944	53,11
719,383	53,4
719,822	53,61
720,261	53,94
720,699	54,28
721,138	54,46
721,576	54,81
722,015	55,05
722,453	55,7
722,892	55,95
723,33	56,36
723,768	56,61
724,206	56,53
724,644	56,84
725,081	57,03
725,519	57,19
725,957	57,55
726,394	57,78
726,832	57,95
727,269	58,38
727,706	58,32
728,143	58,62
728,58	58,98
729,017	58,99
729,454	59,21
729,89	59,43
730,327	59,55
730,764	59,69
731,2	59,93
731,636	60,09
732,072	60,09
732,509	60,37
732,945	60,54
733,38	60,46
733,816	60,55
734,252	60,8
734,688	60,51
735,123	61,05
735,559	61,02
735,994	61,2
736,429	61,14
736,864	61,29
737,299	61,13
737,734	61,3
738,169	61,36
738,604	61,84
739,038	61,61
739,473	61,67
739,907	61,72
740,342	61,84
740,776	61,57
741,21	61,64
741,644	61,91
742,078	61,88
742,512	62,02
742,946	62,24
743,379	62,05
743,813	61,95
744,246	61,7
744,68	62,13
745,113	61,86
745,546	61,51
745,979	62,05
746,412	62,07
746,845	61,82
747,278	62,26
747,711	62,35
748,143	61,81
748,576	61,97
749,008	61,91
749,441	61,66
749,873	61,71
750,305	61,86
750,737	61,61
751,169	61,86
751,601	61,9
752,032	61,74
752,464	61,89
752,896	61,77
753,327	61,72
753,758	61,74
754,19	61,44
754,621	61,53
755,052	61,83
755,483	61,53
755,914	61,65
756,344	61,7
756,775	61,52
757,206	61,55
757,636	61,46
758,066	61,43
758,497	61,18
758,927	61,33
759,357	61,55
759,787	61,14
760,217	61,33
760,647	61,12
761,076	61,27
761,506	61,11
761,935	61,07
762,365	61,13
762,794	61,12
763,223	61,13
763,653	61,21
764,082	61,17
764,51	61,11
764,939	61,03
765,368	61,08
765,797	61,25
766,225	60,98
766,654	60,69
767,082	60,77
767,51	60,88
767,938	60,87
768,367	60,65
768,795	60,96
769,222	60,89
769,65	61,02
770,078	60,82
770,505	60,76
770,933	60,49
771,36	60,63
771,788	60,45
772,215	60,71
772,642	60,2
773,069	60,7
773,496	60,3
773,923	60,14
774,349	60,23
774,776	60,4
775,203	60,4
775,629	60,47
776,055	60,46
776,482	60,63
776,908	60,36
777,334	60,15
777,76	60,58
778,186	60,24
778,611	60,33
779,037	60,27
779,463	59,98
779,888	59,8
780,314	60,05
780,739	60,59
781,164	60,28
781,589	60,03
782,014	60,1
782,439	60,08
782,864	60,22
783,289	60,22
783,713	60,05
784,138	60
784,562	60,3
784,987	60,03
785,411	60,16
785,835	60,03
786,259	60,01
786,683	60,35
787,107	60,11
787,531	59,97
787,954	59,77
788,378	59,99
788,802	60
789,225	60,1
789,648	60,07
790,071	60,18
790,495	59,81
790,918	59,97
791,34	59,7
791,763	59,85
792,186	59,91
792,609	60,03
793,031	59,88
793,454	59,77
793,876	60,03
794,298	59,88
794,721	59,85
795,143	60,06
795,565	59,97
795,986	59,83
796,408	59,73
796,83	59,75
797,252	59,76
797,673	59,86
798,094	59,72
798,516	59,68
798,937	59,75
799,358	59,85
799,779	59,66
800,2	59,7
800,621	59,65
801,042	59,65
801,462	59,71
801,883	59,74
802,303	59,69
802,724	59,84
803,144	59,73
803,564	59,49
803,984	59,63
804,404	59,85
804,824	59,9
805,244	59,6
805,664	59,81
806,084	59,82
806,503	59,96
806,923	59,66
807,342	59,74
807,761	59,42
808,18	59,7
808,599	59,66
809,018	59,47
809,437	59,63
809,856	59,5
810,275	59,66
810,693	59,53
811,112	59,66
811,53	59,6
811,949	59,84
812,367	59,39
812,785	60,03
813,203	59,75
813,621	59,97
814,039	59,87
814,457	59,4
814,874	59,67
815,292	59,88
815,709	59,68
816,127	59,65
816,544	59,91
816,961	59,76
817,378	59,65
817,795	59,35
818,212	59,59
818,629	59,51
819,046	59,46
819,462	59,56
819,879	59,79
820,295	59,61
820,712	59,47
821,128	59,26
821,544	59,37
821,96	59,3
822,376	59,57
822,792	59,51
823,208	59,36
823,624	59,46
824,039	59,66
824,455	59,26
824,87	59,69
825,286	59,27
825,701	59,67
826,116	59,1
826,531	59,46
826,946	59,34
827,361	59,43
827,776	59,47
828,19	59,23
828,605	59,29
829,02	59,09
829,434	59,34
829,848	59,85
830,263	59,44
830,677	59,46
831,091	59,45
831,505	59,49
831,919	59,2
832,332	59,23
832,746	59,31
833,16	59,33
833,573	59,18
