Data from I2__Relative__6__00158.txt Node

Date: Tue Jan 30 18:10:06 CET 2024
User: diatiterra
Spectrometer: HDX00911
Trigger mode: 0
Integration Time (sec): 6,000000E-3
Scans to average: 3
Nonlinearity correction enabled: true
Boxcar width: 0
Storing dark spectrum: false
XAxis mode: Wavelengths
Number of Pixels in Spectrum: 2068
>>>>>Begin Spectral Data<<<<<
194,468	158,72
195,025	126,25
195,581	124,64
196,138	112,64
196,694	124,49
197,251	102,9
197,807	107,79
198,363	96,23
198,919	102,63
199,474	109,15
200,03	104,62
200,586	99,19
201,141	97,76
201,696	89,18
202,251	97,35
202,806	104,07
203,361	107,19
203,916	93,36
204,471	102,48
205,025	98,98
205,58	101,82
206,134	98,11
206,688	94,97
207,242	95,26
207,796	109,96
208,35	93,98
208,904	97,02
209,457	99,23
210,011	101,27
210,564	95,83
211,117	107,58
211,67	103,74
212,223	101,22
212,776	105,67
213,329	106,66
213,881	99,37
214,434	93,41
214,986	107,71
215,538	102,64
216,09	98,17
216,642	99,38
217,194	97,73
217,746	99,58
218,297	98,99
218,849	104,51
219,4	99,16
219,951	99,38
220,502	99,38
221,053	99,57
221,604	97,04
222,155	99,59
222,705	101,46
223,256	105,28
223,806	98,4
224,356	99,16
224,906	101,28
225,456	94,03
226,006	99,4
226,556	96,86
227,106	97,87
227,655	93,13
228,204	99,79
228,754	102,93
229,303	98,99
229,852	106,75
230,401	106,26
230,949	104,75
231,498	94,43
232,047	90,77
232,595	107,08
233,143	102,13
233,691	101,78
234,239	91,11
234,787	98,56
235,335	99,99
235,883	100,89
236,43	100,83
236,978	99,39
237,525	102,46
238,072	96,02
238,619	99,36
239,166	98,21
239,713	100,8
240,26	108,57
240,806	98,15
241,353	98,99
241,899	98,63
242,445	97,67
242,991	96,5
243,537	106,14
244,083	98,98
244,629	97,17
245,174	97,89
245,72	98,5
246,265	108,17
246,81	98,25
247,355	90,71
247,9	99,59
248,445	108,94
248,99	99,36
249,534	102,69
250,079	105,96
250,623	92,78
251,168	100,83
251,712	96,39
252,256	94,82
252,8	91,61
253,343	100,63
253,887	92,48
254,43	109,06
254,974	104,88
255,517	102,93
256,06	103,65
256,603	100,86
257,146	102,19
257,689	103,45
258,232	101,3
258,774	103,01
259,317	96,45
259,859	97,04
260,401	111,21
260,943	100,22
261,485	100,23
262,027	105,35
262,569	100
263,11	95,28
263,652	103,25
264,193	104,22
264,734	97,45
265,275	98,68
265,816	95,03
266,357	103,75
266,898	97,63
267,438	99,34
267,979	108,41
268,519	103,76
269,059	100,88
269,6	104,46
270,14	102,52
270,68	94,53
271,219	105,95
271,759	102,86
272,298	92,44
272,838	98,7
273,377	94,87
273,916	95,8
274,455	102,08
274,994	102,45
275,533	103,79
276,072	104,19
276,61	102,49
277,149	96,6
277,687	98,7
278,225	102,92
278,763	97,54
279,301	101,73
279,839	93,42
280,377	94,37
280,914	99,37
281,452	107,33
281,989	107,31
282,526	91,65
283,064	104,53
283,601	98,49
284,137	100,01
284,674	98,74
285,211	101,6
285,747	106,01
286,284	104,59
286,82	98,22
287,356	96,25
287,892	108,56
288,428	98,68
288,964	95,02
289,5	103,26
290,035	101,59
290,571	97,24
291,106	106,48
291,641	101,15
292,176	93,77
292,711	100,87
293,246	98,3
293,781	99,79
294,315	94,3
294,85	103,49
295,384	104,49
295,918	95,56
296,453	97,82
296,987	102,79
297,52	101,12
298,054	96,72
298,588	100,73
299,121	101,6
299,655	102,8
300,188	97,38
300,721	100,67
301,254	103,3
301,787	97,88
302,32	107,09
302,853	95,29
303,385	101,12
303,918	107,68
304,45	92,22
304,982	100,93
305,514	101,81
306,046	99,16
306,578	96,99
307,11	97,14
307,641	104,1
308,173	108,04
308,704	107,42
309,236	103,74
309,767	97,88
310,298	100,22
310,829	98,67
311,359	99,59
311,89	96,42
312,421	97,9
312,951	96,26
313,481	106,22
314,012	96,85
314,542	98,7
315,072	98,31
315,601	93,61
316,131	103,39
316,661	95,85
317,19	105,53
317,72	94,39
318,249	98,51
318,778	104,11
319,307	96,64
319,836	100,24
320,365	100,02
320,893	99,79
321,422	93,48
321,95	98,09
322,479	100,91
323,007	94,44
323,535	95,07
324,063	101,8
324,591	109,11
325,118	103,27
325,646	95,63
326,173	104,76
326,701	102,63
327,228	102,9
327,755	106,08
328,282	99,15
328,809	101,32
329,336	106,13
329,862	100,44
330,389	98,18
330,915	100,9
331,441	104,87
331,968	101,49
332,494	93,73
333,02	99,15
333,545	101,95
334,071	101,34
334,597	97,91
335,122	100,89
335,648	99,79
336,173	98,12
336,698	101,02
337,223	95,08
337,748	95,31
338,272	94,3
338,797	97,58
339,322	100,46
339,846	95,48
340,37	99,34
340,894	101,5
341,419	95,2
341,942	96,07
342,466	86,49
342,99	94,34
343,514	99,38
344,037	88,82
344,56	98,01
345,084	90,53
345,607	99,58
346,13	89,73
346,653	92
347,175	95,41
347,698	94,28
348,221	84,43
348,743	88,81
349,265	93,52
349,787	93,91
350,309	91,39
350,831	90,78
351,353	84,58
351,875	86,95
352,397	78,12
352,918	87,67
353,439	92
353,961	83,09
354,482	84,81
355,003	81,53
355,524	83,22
356,044	84,18
356,565	83,49
357,086	90,38
357,606	83,62
358,126	83,12
358,646	81,47
359,167	80,17
359,687	79,85
360,206	84,55
360,726	89,39
361,246	79,84
361,765	80,92
362,285	82,68
362,804	81,86
363,323	80,3
363,842	82,15
364,361	82,76
364,88	81,58
365,398	75,7
365,917	86,55
366,435	83,54
366,954	79,89
367,472	77,47
367,99	86,17
368,508	76,18
369,026	81,91
369,544	79,05
370,061	76,36
370,579	77,85
371,096	79,65
371,613	80
372,131	79,42
372,648	78,29
373,165	72,09
373,681	79,57
374,198	76,85
374,715	74,63
375,231	76,98
375,747	72,93
376,264	70,11
376,78	76,31
377,296	73,49
377,812	72,76
378,327	73,04
378,843	73,13
379,359	72,25
379,874	75,1
380,389	71,77
380,905	67,94
381,42	68,14
381,935	68,89
382,449	67,15
382,964	65,79
383,479	66,03
383,993	65,87
384,508	63,56
385,022	64,32
385,536	63,69
386,05	63,57
386,564	64,07
387,078	62,15
387,592	61,58
388,105	61,56
388,619	60,88
389,132	55,91
389,645	60,88
390,158	57,66
390,671	57,38
391,184	56,72
391,697	52,73
392,21	54,81
392,722	55,88
393,235	55,79
393,747	54,52
394,259	52,07
394,771	54,29
395,283	51,5
395,795	52,23
396,307	54,1
396,818	50,69
397,33	51,55
397,841	50,34
398,353	49,42
398,864	49,35
399,375	48,64
399,886	47,07
400,397	46,27
400,907	44,22
401,418	44,03
401,928	45,65
402,439	43,6
402,949	43,85
403,459	41,94
403,969	40,48
404,479	39,93
404,989	39,41
405,498	38,16
406,008	36,66
406,517	37,73
407,027	35,11
407,536	35,24
408,045	33,57
408,554	32,52
409,063	31,57
409,572	31,32
410,08	30,57
410,589	28,77
411,097	28,16
411,606	27,24
412,114	25,63
412,622	25,72
413,13	24,49
413,638	24,14
414,145	23,88
414,653	22,76
415,16	23,38
415,668	22,18
416,175	22,28
416,682	21,06
417,189	21,6
417,696	20,6
418,203	20,29
418,71	20,3
419,216	19,87
419,723	19,4
420,229	18,94
420,735	18,4
421,242	18
421,748	17,82
422,254	17,72
422,759	17,97
423,265	17,14
423,771	17,55
424,276	17,58
424,781	17,32
425,287	16,84
425,792	17,07
426,297	17,22
426,802	16,84
427,306	16,51
427,811	16,94
428,316	16,75
428,82	17,01
429,324	16,44
429,829	16,5
430,333	16,2
430,837	16,11
431,34	16,19
431,844	16,07
432,348	16,55
432,851	16,17
433,355	15,99
433,858	15,69
434,361	15,49
434,864	15,52
435,367	15,06
435,87	15,85
436,373	15,66
436,876	15,66
437,378	15,19
437,88	15,3
438,383	15,38
438,885	15,4
439,387	15,46
439,889	15,02
440,391	15,41
440,892	15,58
441,394	15,39
441,896	15,09
442,397	15,31
442,898	15,15
443,399	15,03
443,9	15,24
444,401	15,39
444,902	15,06
445,403	15,08
445,903	15,23
446,404	15,27
446,904	14,9
447,405	15,18
447,905	14,75
448,405	15,7
448,905	15,44
449,404	15,43
449,904	15,35
450,404	15,47
450,903	15,16
451,403	15,29
451,902	15,45
452,401	15,23
452,9	15,47
453,399	15,36
453,898	15,68
454,396	15,27
454,895	15,29
455,393	15,77
455,892	15,85
456,39	15,53
456,888	15,18
457,386	15,53
457,884	15,34
458,382	15,35
458,879	15,6
459,377	15,28
459,874	15,58
460,372	15,41
460,869	15,33
461,366	15,39
461,863	15,5
462,36	15,49
462,857	15,48
463,353	15,75
463,85	15,48
464,346	15,7
464,843	15,69
465,339	15,37
465,835	15,44
466,331	15,69
466,827	15,32
467,323	15,62
467,818	15,29
468,314	15,57
468,809	15,49
469,305	15,61
469,8	15,31
470,295	15,52
470,79	15,68
471,285	15,72
471,78	15,47
472,274	15,46
472,769	15,47
473,263	15,45
473,758	15,58
474,252	15,38
474,746	15,49
475,24	15,49
475,734	15,46
476,228	15,62
476,721	15,39
477,215	15,64
477,708	15,78
478,202	15,59
478,695	15,54
479,188	15,73
479,681	15,9
480,174	15,25
480,667	15,89
481,159	15,8
481,652	15,9
482,144	15,6
482,637	15,78
483,129	15,61
483,621	15,87
484,113	15,63
484,605	15,83
485,097	16,07
485,588	16,03
486,08	15,84
486,571	15,74
487,063	15,65
487,554	15,98
488,045	16,11
488,536	16,19
489,027	15,9
489,518	15,86
490,008	15,93
490,499	15,79
490,989	15,92
491,48	16,49
491,97	16,29
492,46	16,09
492,95	16,36
493,44	16,38
493,93	16,25
494,419	16,37
494,909	16,43
495,398	16,56
495,888	16,35
496,377	16,75
496,866	16,77
497,355	16,73
497,844	16,91
498,333	16,59
498,821	16,79
499,31	17,02
499,798	16,82
500,287	16,96
500,775	17,27
501,263	17,37
501,751	17,42
502,239	17,58
502,727	17,8
503,215	17,72
503,702	17,77
504,19	17,86
504,677	18,19
505,164	18,33
505,651	18,43
506,139	18,64
506,625	18,87
507,112	18,99
507,599	19,07
508,086	19,19
508,572	19,59
509,058	19,98
509,545	19,83
510,031	20,22
510,517	20,21
511,003	20,8
511,489	21,13
511,974	21,23
512,46	21,59
512,946	21,52
513,431	22,14
513,916	22,12
514,401	22,56
514,887	23,14
515,371	23,48
515,856	23,58
516,341	24,25
516,826	24,38
517,31	24,79
517,795	25,26
518,279	25,46
518,763	25,86
519,247	25,98
519,731	26,52
520,215	26,98
520,699	27,29
521,182	28
521,666	28,49
522,149	28,71
522,633	29,23
523,116	29,23
523,599	30,13
524,082	30,58
524,565	30,79
525,048	31,03
525,53	31,63
526,013	31,8
526,495	32,24
526,978	32,71
527,46	32,82
527,942	33,1
528,424	33,64
528,906	33,55
529,388	34,03
529,87	34,27
530,351	34,49
530,833	34,7
531,314	34,8
531,795	35,65
532,277	35,69
532,758	36,07
533,238	35,86
533,719	36,08
534,2	36,19
534,681	36,69
535,161	36,29
535,642	36,62
536,122	36,79
536,602	37,32
537,082	37,23
537,562	37,24
538,042	37,34
538,522	37,5
539,001	37,41
539,481	37,82
539,96	37,78
540,44	38,07
540,919	37,89
541,398	37,86
541,877	38,4
542,356	38,11
542,835	38,3
543,313	38,25
543,792	38,85
544,27	38,77
544,749	38,65
545,227	38,72
545,705	38,99
546,183	38,86
546,661	38,96
547,139	39,1
547,616	38,87
548,094	39,04
548,571	39,23
549,049	39,17
549,526	39,46
550,003	39,3
550,48	39
550,957	39,46
551,434	39,12
551,911	39,47
552,387	39,54
552,864	39,52
553,34	39,62
553,817	39,38
554,293	39,57
554,769	39,93
555,245	39,58
555,721	39,22
556,197	39,77
556,672	39,58
557,148	39,69
557,623	39,31
558,099	39,6
558,574	39,19
559,049	39,3
559,524	39,12
559,999	39,38
560,474	39,32
560,948	38,64
561,423	38,87
561,897	38,86
562,372	38,59
562,846	38,39
563,32	38,23
563,794	38,1
564,268	38,33
564,742	38,12
565,216	37,46
565,69	37,59
566,163	37,4
566,636	36,99
567,11	37,04
567,583	36,7
568,056	36,3
568,529	36,02
569,002	36,1
569,475	35,92
569,947	35,55
570,42	35,28
570,892	34,98
571,365	34,59
571,837	34,74
572,309	34,18
572,781	34,12
573,253	34,1
573,725	33,69
574,197	33,28
574,668	33,5
575,14	33,1
575,611	32,53
576,082	32,18
576,554	32,51
577,025	32,02
577,496	31,93
577,967	31,67
578,437	31,77
578,908	31,34
579,379	31,14
579,849	30,95
580,319	30,8
580,79	30,65
581,26	30,47
581,73	30,24
582,2	30,09
582,669	29,79
583,139	29,75
583,609	29,54
584,078	29,41
584,548	29,21
585,017	29,3
585,486	29,22
585,955	28,73
586,424	28,64
586,893	28,64
587,362	28,55
587,83	28,36
588,299	28,3
588,767	28,19
589,236	28,06
589,704	27,97
590,172	27,94
590,64	27,7
591,108	27,67
591,576	27,66
592,043	27,68
592,511	27,61
592,978	27,33
593,446	27,19
593,913	27,1
594,38	27,3
594,847	27,04
595,314	26,89
595,781	27,08
596,248	26,86
596,715	26,69
597,181	26,74
597,647	26,86
598,114	26,73
598,58	26,74
599,046	26,45
599,512	26,51
599,978	26,4
600,444	26,6
600,91	26,36
601,375	26,4
601,841	26,35
602,306	26
602,771	26,25
603,236	26,21
603,702	25,94
604,167	26,01
604,631	25,82
605,096	25,72
605,561	25,83
606,025	25,79
606,49	25,43
606,954	25,6
607,418	25,23
607,882	25,23
608,347	25,11
608,81	24,95
609,274	24,85
609,738	24,89
610,202	24,87
610,665	24,44
611,128	24,19
611,592	24,34
612,055	24,09
612,518	24,12
612,981	23,9
613,444	23,69
613,907	23,62
614,369	23,42
614,832	23,52
615,294	23,32
615,757	23,17
616,219	23,2
616,681	23
617,143	22,94
617,605	22,78
618,067	22,73
618,529	22,46
618,99	22,48
619,452	22,46
619,913	22,36
620,375	22,12
620,836	22,37
621,297	22
621,758	22,18
622,219	21,92
622,68	22,02
623,14	22,05
623,601	21,81
624,061	21,78
624,522	21,77
624,982	21,76
625,442	21,81
625,902	21,5
626,362	21,55
626,822	21,51
627,282	21,29
627,742	21,44
628,201	21,43
628,661	21,24
629,12	21,23
629,579	21,17
630,038	21,55
630,497	21,06
630,956	21,29
631,415	21,23
631,874	21,15
632,332	21,18
632,791	21,2
633,249	21,03
633,708	20,9
634,166	20,89
634,624	20,72
635,082	20,35
635,54	20,69
635,998	20,5
636,455	20,29
636,913	20,35
637,37	20,29
637,828	19,94
638,285	19,93
638,742	19,84
639,199	19,67
639,656	19,53
640,113	19,45
640,57	19,33
641,027	19,04
641,483	18,96
641,94	18,88
642,396	18,83
642,852	18,64
643,309	18,56
643,765	18,47
644,221	18,24
644,676	18,07
645,132	18,06
645,588	17,97
646,043	17,78
646,499	17,63
646,954	17,46
647,409	17,24
647,864	17,17
648,319	17,05
648,774	16,92
649,229	16,78
649,684	16,85
650,139	16,93
650,593	16,82
651,047	16,64
651,502	16,5
651,956	16,43
652,41	16,52
652,864	16,42
653,318	16,15
653,772	16,22
654,225	16,34
654,679	16,13
655,133	15,98
655,586	16,02
656,039	15,86
656,492	15,85
656,946	15,69
657,399	15,7
657,851	15,62
658,304	15,53
658,757	15,48
659,209	15,23
659,662	15,19
660,114	15,29
660,567	15,04
661,019	14,89
661,471	14,91
661,923	14,75
662,375	14,77
662,826	14,66
663,278	14,63
663,73	14,61
664,181	14,59
664,632	14,43
665,084	14,36
665,535	14,38
665,986	14,32
666,437	14,24
666,888	14,14
667,338	14,16
667,789	14,13
668,24	14,11
668,69	14,09
669,14	14,09
669,591	14,06
670,041	14,06
670,491	13,96
670,941	14
671,391	13,98
671,84	14,13
672,29	14
672,74	14,1
673,189	14,13
673,638	14,05
674,088	14,12
674,537	14,12
674,986	14,11
675,435	14,18
675,883	14,25
676,332	14,29
676,781	14,36
677,229	14,26
677,678	14,38
678,126	14,4
678,574	14,46
679,022	14,47
679,47	14,56
679,918	14,64
680,366	14,68
680,814	14,71
681,261	14,68
681,709	14,79
682,156	14,89
682,604	14,82
683,051	15,01
683,498	15,06
683,945	15,19
684,392	15,27
684,839	15,43
685,286	15,41
685,732	15,65
686,179	15,79
686,625	15,81
687,071	15,97
687,518	16,28
687,964	16,51
688,41	16,67
688,856	17,02
689,301	17,26
689,747	17,47
690,193	17,97
690,638	18,39
691,084	18,75
691,529	19,09
691,974	19,79
692,419	20,21
692,864	20,66
693,309	21,49
693,754	22,05
694,199	22,77
694,643	23,05
695,088	23,79
695,532	24,69
695,977	25,33
696,421	26,08
696,865	26,9
697,309	27,75
697,753	28,46
698,197	29,12
698,64	29,95
699,084	30,69
699,527	31,48
699,971	32,2
700,414	32,95
700,857	33,72
701,3	34,45
701,743	35,3
702,186	36,16
702,629	36,98
703,072	37,52
703,515	38,5
703,957	39,15
704,399	39,91
704,842	40,27
705,284	41,27
705,726	42,09
706,168	42,76
706,61	43,49
707,052	44,23
707,494	44,55
707,935	45,48
708,377	46,13
708,818	46,79
709,26	47,51
709,701	48,25
710,142	48,74
710,583	49,37
711,024	50
711,465	50,8
711,905	51,35
712,346	51,56
712,787	52,28
713,227	53,07
713,667	54,1
714,108	54,44
714,548	54,94
714,988	55,47
715,428	56,08
715,868	56,78
716,307	57,01
716,747	57,88
717,186	58,29
717,626	58,72
718,065	59,75
718,504	59,65
718,944	60,83
719,383	60,83
719,822	61,45
720,261	61,83
720,699	62,52
721,138	62,58
721,576	63,36
722,015	63,77
722,453	64,31
722,892	64,91
723,33	65,22
723,768	65,56
724,206	66,13
724,644	66,46
725,081	66,92
725,519	66,97
725,957	67,4
726,394	67,69
726,832	68,21
727,269	68,47
727,706	68,74
728,143	69,22
728,58	69,62
729,017	69,71
729,454	70,24
729,89	70,3
730,327	70,47
730,764	70,84
731,2	71,01
731,636	71,58
732,072	71,89
732,509	71,84
732,945	72,2
733,38	72,48
733,816	72,39
734,252	72,39
734,688	72,39
735,123	72,84
735,559	73,18
735,994	73,31
736,429	73,28
736,864	73,5
737,299	73,36
737,734	73,56
738,169	73,92
738,604	74,14
739,038	73,96
739,473	74,22
739,907	74,7
740,342	74,49
740,776	74,29
741,21	74,76
741,644	74,59
742,078	74,88
742,512	74,87
742,946	75,39
743,379	74,95
743,813	75,23
744,246	74,93
744,68	75,07
745,113	75,09
745,546	75,16
745,979	75,09
746,412	75,17
746,845	75,37
747,278	75,29
747,711	75,59
748,143	75,61
748,576	75,21
749,008	75,24
749,441	75,23
749,873	75,3
750,305	75,31
750,737	75,42
751,169	75,44
751,601	75,37
752,032	75,49
752,464	75,44
752,896	75,27
753,327	75,32
753,758	75,69
754,19	75,66
754,621	75,65
755,052	75,56
755,483	75,41
755,914	75,3
756,344	75,44
756,775	75,39
757,206	75,76
757,636	75,6
758,066	75,37
758,497	75,55
758,927	75,2
759,357	75,61
759,787	75,37
760,217	75,13
760,647	75,1
761,076	75,49
761,506	75,13
761,935	75,03
762,365	75,22
762,794	75,39
763,223	75,06
763,653	75,08
764,082	75,22
764,51	75,47
764,939	75,11
765,368	75,16
765,797	75,42
766,225	74,99
766,654	74,89
767,082	74,77
767,51	74,89
767,938	74,96
768,367	75,07
768,795	74,92
769,222	75,03
769,65	75,22
770,078	75,35
770,505	74,59
770,933	74,86
771,36	74,64
771,788	74,93
772,215	74,96
772,642	74,98
773,069	74,91
773,496	74,68
773,923	74,44
774,349	74,43
774,776	74,91
775,203	74,7
775,629	74,59
776,055	74,83
776,482	74,42
776,908	74,7
777,334	74,45
777,76	74,75
778,186	74,64
778,611	74,8
779,037	74,46
779,463	74,55
779,888	74,39
780,314	74,49
780,739	74,74
781,164	74,66
781,589	74,52
782,014	74,35
782,439	74,59
782,864	74,31
783,289	74,67
783,713	74,04
784,138	74,3
784,562	74,34
784,987	74,09
785,411	74,51
785,835	74,33
786,259	74,37
786,683	74,75
787,107	74,37
787,531	74,37
787,954	74,1
788,378	74,54
788,802	74,44
789,225	74,43
789,648	74,29
790,071	74,62
790,495	74,12
790,918	74,4
791,34	74,38
791,763	74,33
792,186	74,33
792,609	74,62
793,031	74,36
793,454	74,4
793,876	74,5
794,298	74,33
794,721	74,15
795,143	74,32
795,565	74,12
795,986	74,33
796,408	74,14
796,83	74,12
797,252	74,26
797,673	74,21
798,094	73,94
798,516	73,79
798,937	74,08
799,358	74,33
799,779	74,07
800,2	74,14
800,621	74,16
801,042	73,96
801,462	73,81
801,883	74,06
802,303	74,24
802,724	73,83
803,144	74,39
803,564	73,82
803,984	74,07
804,404	74,09
804,824	74,36
805,244	74,12
805,664	74,5
806,084	74,12
806,503	74,24
806,923	74,22
807,342	73,89
807,761	73,85
808,18	73,87
808,599	74,11
809,018	73,78
809,437	74,02
809,856	73,62
810,275	73,73
810,693	74,27
811,112	74,16
811,53	73,81
811,949	74,35
812,367	73,56
812,785	73,68
813,203	73,93
813,621	73,91
814,039	74,02
814,457	73,59
814,874	73,95
815,292	73,92
815,709	73,83
816,127	73,87
816,544	74,23
816,961	73,77
817,378	74,12
817,795	73,87
818,212	73,73
818,629	73,8
819,046	73,79
819,462	73,86
819,879	74,12
820,295	73,84
820,712	73,61
821,128	73,92
821,544	73,52
821,96	73,95
822,376	73,8
822,792	73,57
823,208	73,73
823,624	74,2
824,039	73,73
824,455	73,72
824,87	74
825,286	73,46
825,701	73,84
826,116	73,52
826,531	73,8
826,946	73,82
827,361	73,42
827,776	73,49
828,19	73,63
828,605	73,62
829,02	73,91
829,434	73,41
829,848	73,72
830,263	73,75
