Data from I4__Relative__0__00162.txt Node

Date: Tue Jan 30 18:10:32 CET 2024
User: diatiterra
Spectrometer: HDX00911
Trigger mode: 0
Integration Time (sec): 6,000000E-3
Scans to average: 3
Nonlinearity correction enabled: true
Boxcar width: 0
Storing dark spectrum: false
XAxis mode: Wavelengths
Number of Pixels in Spectrum: 2068
>>>>>Begin Spectral Data<<<<<
194,468	154,26
195,025	108,35
195,581	114,1
196,138	112,64
196,694	110,66
197,251	86,97
197,807	83,41
198,363	84,07
198,919	87,62
199,474	94,33
200,03	85,75
200,586	76,97
201,141	81,16
201,696	78,2
202,251	76,78
202,806	90,83
203,361	83,51
203,916	78,91
204,471	85,57
205,025	79,75
205,58	80,81
206,134	79,75
206,688	78,3
207,242	78,57
207,796	81,3
208,35	81,75
208,904	78,6
209,457	85,57
210,011	82,07
210,564	85,93
211,117	89,14
211,67	89,71
212,223	85,36
212,776	83,61
213,329	83,48
213,881	85,95
214,434	78,87
214,986	85,87
215,538	86,99
216,09	83,56
216,642	84,36
217,194	76,95
217,746	87,03
218,297	82,46
218,849	87,34
219,4	89,01
219,951	83,88
220,502	89,28
221,053	83,84
221,604	84,89
222,155	89,32
222,705	83,99
223,256	81,45
223,806	85,6
224,356	84,94
224,906	88,53
225,456	81,14
226,006	84,2
226,556	81,63
227,106	89,75
227,655	83,99
228,204	89,73
228,754	86,82
229,303	86,49
229,852	89,14
230,401	86,46
230,949	86,98
231,498	85,23
232,047	84,21
232,595	82,88
233,143	80,94
233,691	82,09
234,239	80,46
234,787	87,32
235,335	81,7
235,883	88,06
236,43	85,92
236,978	85,36
237,525	86,85
238,072	81,79
238,619	89,35
239,166	80,78
239,713	82,14
240,26	91,65
240,806	83,87
241,353	81,72
241,899	86,52
242,445	90,27
242,991	82,74
243,537	87,95
244,083	84,58
244,629	85,25
245,174	82,7
245,72	87,2
246,265	95,37
246,81	87,87
247,355	86,6
247,9	88,69
248,445	94,06
248,99	93,49
249,534	87,51
250,079	90,32
250,623	85,76
251,168	90,29
251,712	85,13
252,256	78,29
252,8	82,2
253,343	86,32
253,887	85,57
254,43	86,83
254,974	93,37
255,517	89,95
256,06	86,18
256,603	89,56
257,146	91,08
257,689	92,23
258,232	83,12
258,774	87,56
259,317	90,4
259,859	82,87
260,401	95,99
260,943	86,87
261,485	90,31
262,027	88,01
262,569	84,11
263,11	80,9
263,652	94,24
264,193	84,74
264,734	85,93
265,275	83,67
265,816	90,51
266,357	84,58
266,898	81,82
267,438	87
267,979	88,91
268,519	85,91
269,059	86
269,6	86,68
270,14	92,04
270,68	82,18
271,219	89,99
271,759	82,46
272,298	83,58
272,838	88,02
273,377	83,33
273,916	78,99
274,455	84,17
274,994	85,66
275,533	83,78
276,072	87,73
276,61	89,42
277,149	81,95
277,687	83,41
278,225	84,37
278,763	85,63
279,301	81,77
279,839	84,78
280,377	88,51
280,914	82,84
281,452	88,83
281,989	93,22
282,526	80,65
283,064	91,84
283,601	81,21
284,137	88,46
284,674	86,92
285,211	90,97
285,747	86,73
286,284	87,69
286,82	85,33
287,356	88,73
287,892	93,15
288,428	86,13
288,964	88,18
289,5	92
290,035	82,3
290,571	83,2
291,106	90,96
291,641	89,16
292,176	86,07
292,711	81,64
293,246	82,56
293,781	84,8
294,315	83,76
294,85	87,12
295,384	93,45
295,918	82,27
296,453	85,34
296,987	87,8
297,52	84,11
298,054	89,7
298,588	88,28
299,121	85,99
299,655	83,27
300,188	87,56
300,721	84,58
301,254	85,79
301,787	86,65
302,32	93,44
302,853	79,66
303,385	84
303,918	87,1
304,45	82,72
304,982	89,79
305,514	88,55
306,046	81,05
306,578	86,86
307,11	84,77
307,641	95,04
308,173	89,64
308,704	88,94
309,236	86,33
309,767	81,92
310,298	82,86
310,829	87,23
311,359	81,54
311,89	89,67
312,421	85,71
312,951	93,84
313,481	93,6
314,012	86,11
314,542	83,82
315,072	82,74
315,601	84,46
316,131	93,52
316,661	85,35
317,19	83,99
317,72	80,66
318,249	88,49
318,778	83,84
319,307	88,79
319,836	88,16
320,365	86,93
320,893	88,8
321,422	81,74
321,95	78,56
322,479	86,9
323,007	80,55
323,535	82,44
324,063	81,93
324,591	88,42
325,118	89,11
325,646	84,47
326,173	85,79
326,701	82,58
327,228	88,9
327,755	93,51
328,282	82,26
328,809	83,56
329,336	86,21
329,862	84,13
330,389	88,5
330,915	86,71
331,441	89,86
331,968	76,54
332,494	75,95
333,02	81,3
333,545	87,48
334,071	81,34
334,597	76,82
335,122	79,44
335,648	81,04
336,173	81,45
336,698	75,35
337,223	80,94
337,748	77,22
338,272	73,66
338,797	78,46
339,322	78,23
339,846	79,67
340,37	81,85
340,894	80,13
341,419	78,29
341,942	69,71
342,466	73,56
342,99	73,72
343,514	80,16
344,037	74,7
344,56	81,38
345,084	67,63
345,607	72,91
346,13	73,9
346,653	67,56
347,175	73,36
347,698	73,22
348,221	69,84
348,743	72
349,265	69,59
349,787	70,2
350,309	69,44
350,831	74,2
351,353	64,75
351,875	66,46
352,397	60,79
352,918	70,1
353,439	67,61
353,961	64,87
354,482	65,01
355,003	63,6
355,524	62,14
356,044	66,13
356,565	66,57
357,086	63,28
357,606	63,63
358,126	62,64
358,646	63,62
359,167	62,33
359,687	62,44
360,206	60,41
360,726	62,71
361,246	58,88
361,765	59,58
362,285	59,08
362,804	58,57
363,323	60,54
363,842	61,68
364,361	59,94
364,88	57,82
365,398	59,91
365,917	60,51
366,435	57,73
366,954	61,5
367,472	53,05
367,99	59,64
368,508	52,35
369,026	52,69
369,544	53,43
370,061	54,11
370,579	52,93
371,096	54,68
371,613	56,33
372,131	54,22
372,648	52,63
373,165	50,58
373,681	51,22
374,198	54,26
374,715	54,47
375,231	51,39
375,747	49,02
376,264	47,53
376,78	52,55
377,296	50,89
377,812	49,44
378,327	49,26
378,843	47,52
379,359	48,77
379,874	48,03
380,389	46,99
380,905	45,7
381,42	45,59
381,935	44,43
382,449	44,31
382,964	42,55
383,479	43,31
383,993	42,39
384,508	39,81
385,022	41,82
385,536	42,14
386,05	38,45
386,564	40,88
387,078	40,82
387,592	39,54
388,105	35,31
388,619	37,45
389,132	34,49
389,645	37,02
390,158	35,57
390,671	35,03
391,184	34,33
391,697	32,35
392,21	32,33
392,722	34,6
393,235	33,92
393,747	33,71
394,259	32,52
394,771	33,07
395,283	31,73
395,795	33,09
396,307	31,91
396,818	32,06
397,33	31,63
397,841	29,45
398,353	30,73
398,864	29,83
399,375	30,1
399,886	27,2
400,397	27,06
400,907	26,29
401,418	25,9
401,928	26,37
402,439	25,72
402,949	23,78
403,459	24,91
403,969	25,02
404,479	23,09
404,989	23,23
405,498	21,98
406,008	21,6
406,517	21,29
407,027	19,43
407,536	20,07
408,045	18,19
408,554	18,34
409,063	17,18
409,572	17,98
410,08	17,26
410,589	16,35
411,097	15,7
411,606	15,21
412,114	14,55
412,622	14,15
413,13	13,95
413,638	13,69
414,145	12,74
414,653	12,85
415,16	12,14
415,668	12,1
416,175	11,74
416,682	10,74
417,189	10,78
417,696	10,71
418,203	10,78
418,71	10,66
419,216	10,26
419,723	9,94
420,229	9,65
420,735	9,77
421,242	9,8
421,748	9,27
422,254	9,66
422,759	9,42
423,265	9,35
423,771	9,14
424,276	8,87
424,781	8,81
425,287	8,78
425,792	9,12
426,297	8,58
426,802	8,45
427,306	8,46
427,811	8,91
428,316	8,5
428,82	8,58
429,324	8,37
429,829	8,26
430,333	8,29
430,837	7,78
431,34	8,08
431,844	8,02
432,348	7,9
432,851	7,87
433,355	7,92
433,858	7,9
434,361	7,56
434,864	7,89
435,367	7,32
435,87	7,85
436,373	7,51
436,876	7,6
437,378	7,46
437,88	7,48
438,383	7,25
438,885	7,58
439,387	7,83
439,889	7,36
440,391	7,69
440,892	7,37
441,394	7,21
441,896	7,45
442,397	7,41
442,898	7,29
443,399	7,26
443,9	7,51
444,401	7,66
444,902	7,11
445,403	7,34
445,903	7,42
446,404	7,21
446,904	7,33
447,405	7,32
447,905	7,16
448,405	7,24
448,905	7,71
449,404	7,42
449,904	7,11
450,404	7,25
450,903	7,5
451,403	7,65
451,902	7,58
452,401	7,3
452,9	7,44
453,399	7,26
453,898	7,56
454,396	7,72
454,895	7,53
455,393	7,45
455,892	7,57
456,39	7,68
456,888	7,43
457,386	7,29
457,884	7,57
458,382	7,49
458,879	7,49
459,377	7,54
459,874	7,59
460,372	7,7
460,869	7,38
461,366	7,62
461,863	7,58
462,36	7,43
462,857	7,77
463,353	7,54
463,85	7,32
464,346	7,33
464,843	7,55
465,339	7,54
465,835	7,48
466,331	7,55
466,827	7,55
467,323	7,29
467,818	7,71
468,314	7,26
468,809	7,57
469,305	7,38
469,8	7,31
470,295	7,31
470,79	7,4
471,285	7,31
471,78	7,51
472,274	7,4
472,769	7,32
473,263	7,4
473,758	7,48
474,252	7,17
474,746	7,45
475,24	7,27
475,734	7,36
476,228	7,27
476,721	7,55
477,215	7,44
477,708	7,59
478,202	7,5
478,695	7,03
479,188	7,56
479,681	7,43
480,174	7,47
480,667	7,61
481,159	7,61
481,652	7,47
482,144	7,4
482,637	7,31
483,129	7,46
483,621	7,57
484,113	7,57
484,605	7,45
485,097	7,44
485,588	7,54
486,08	7,5
486,571	7,51
487,063	7,5
487,554	7,67
488,045	7,47
488,536	7,7
489,027	7,81
489,518	7,82
490,008	7,67
490,499	7,72
490,989	7,69
491,48	7,91
491,97	8,06
492,46	7,98
492,95	8,01
493,44	8,26
493,93	8,15
494,419	7,89
494,909	8,32
495,398	8,25
495,888	8,52
496,377	8,71
496,866	8,4
497,355	8,48
497,844	8,67
498,333	8,77
498,821	8,96
499,31	9,02
499,798	9,01
500,287	9,32
500,775	9,59
501,263	9,46
501,751	9,74
502,239	9,75
502,727	10,01
503,215	10,1
503,702	10,2
504,19	10,39
504,677	10,61
505,164	10,73
505,651	11,03
506,139	11,22
506,625	11,35
507,112	11,61
507,599	12,05
508,086	12,15
508,572	12,45
509,058	12,71
509,545	12,58
510,031	12,96
510,517	13,29
511,003	13,42
511,489	14,26
511,974	14,23
512,46	14,51
512,946	14,63
513,431	15,22
513,916	15,52
514,401	15,69
514,887	16,37
515,371	16,62
515,856	16,64
516,341	17,24
516,826	17,45
517,31	17,65
517,795	18,33
518,279	18,77
518,763	18,94
519,247	19,5
519,731	19,86
520,215	20,31
520,699	20,68
521,182	21,04
521,666	21,69
522,149	21,87
522,633	22,4
523,116	22,51
523,599	22,82
524,082	23,17
524,565	23,84
525,048	24,47
525,53	24,52
526,013	24,47
526,495	25,25
526,978	25,38
527,46	25,68
527,942	25,96
528,424	26,31
528,906	26,61
529,388	26,64
529,87	27,15
530,351	27,19
530,833	27,42
531,314	27,75
531,795	28,16
532,277	27,92
532,758	28,71
533,238	28,65
533,719	28,63
534,2	28,7
534,681	29,03
535,161	29,1
535,642	29,25
536,122	29,36
536,602	29,14
537,082	29,62
537,562	29,34
538,042	29,74
538,522	29,77
539,001	29,97
539,481	30,2
539,96	29,97
540,44	30,21
540,919	29,68
541,398	30,13
541,877	30,37
542,356	30,34
542,835	30,27
543,313	30,38
543,792	30,81
544,27	30,29
544,749	30,71
545,227	30,56
545,705	30,85
546,183	31,12
546,661	30,82
547,139	30,87
547,616	31,32
548,094	30,89
548,571	30,99
549,049	31,05
549,526	30,76
550,003	31,24
550,48	31,1
550,957	31,25
551,434	31,05
551,911	31,28
552,387	31,49
552,864	31,33
553,34	30,99
553,817	31,65
554,293	31,31
554,769	31,63
555,245	31,18
555,721	31,19
556,197	31,14
556,672	31,55
557,148	31,4
557,623	31,35
558,099	31,11
558,574	30,93
559,049	31,12
559,524	30,99
559,999	30,98
560,474	30,97
560,948	30,75
561,423	30,56
561,897	30,35
562,372	30,17
562,846	30,14
563,32	30,05
563,794	29,99
564,268	29,99
564,742	29,78
565,216	29,25
565,69	29,36
566,163	29,03
566,636	28,81
567,11	28,9
567,583	28,43
568,056	28,46
568,529	27,98
569,002	28,23
569,475	27,73
569,947	27,25
570,42	27,59
570,892	27,37
571,365	26,77
571,837	26,76
572,309	26,6
572,781	26,28
573,253	26,21
573,725	25,85
574,197	25,57
574,668	25,56
575,14	25,31
575,611	24,96
576,082	24,9
576,554	24,81
577,025	24,32
577,496	24,1
577,967	24,01
578,437	23,87
578,908	23,8
579,379	23,81
579,849	23,29
580,319	23,18
580,79	22,99
581,26	22,76
581,73	22,82
582,2	22,78
582,669	22,42
583,139	22,36
583,609	22,12
584,078	22,12
584,548	21,97
585,017	21,97
585,486	21,79
585,955	21,61
586,424	21,63
586,893	21,36
587,362	21,49
587,83	21,07
588,299	21,02
588,767	21,01
589,236	20,83
589,704	20,81
590,172	20,57
590,64	20,68
591,108	20,36
591,576	20,55
592,043	20,59
592,511	20,42
592,978	20,09
593,446	20,05
593,913	20,18
594,38	20,09
594,847	20
595,314	19,8
595,781	19,79
596,248	19,82
596,715	19,67
597,181	19,58
597,647	19,7
598,114	19,63
598,58	19,57
599,046	19,39
599,512	19,38
599,978	19,27
600,444	19,32
600,91	19,22
601,375	19,29
601,841	19,11
602,306	19,07
602,771	19,13
603,236	19,05
603,702	18,81
604,167	18,7
604,631	18,58
605,096	18,7
605,561	18,66
606,025	18,4
606,49	18,49
606,954	18,4
607,418	18,37
607,882	18,14
608,347	18,01
608,81	17,95
609,274	17,76
609,738	17,83
610,202	17,73
610,665	17,59
611,128	17,3
611,592	17,26
612,055	17,06
612,518	17,13
612,981	16,9
613,444	16,74
613,907	16,59
614,369	16,43
614,832	16,55
615,294	16,18
615,757	16,18
616,219	16,08
616,681	16,09
617,143	15,95
617,605	15,85
618,067	15,77
618,529	15,46
618,99	15,58
619,452	15,28
619,913	15,42
620,375	15,31
620,836	15,24
621,297	15,09
621,758	15,08
622,219	14,97
622,68	14,84
623,14	14,92
623,601	14,88
624,061	14,74
624,522	14,66
624,982	14,72
625,442	14,75
625,902	14,61
626,362	14,48
626,822	14,63
627,282	14,55
627,742	14,54
628,201	14,51
628,661	14,47
629,12	14,39
629,579	14,43
630,038	14,52
630,497	14,44
630,956	14,34
631,415	14,36
631,874	14,33
632,332	14,15
632,791	14,14
633,249	14,18
633,708	14,05
634,166	14,03
634,624	13,99
635,082	13,78
635,54	13,85
635,998	13,72
636,455	13,66
636,913	13,46
637,37	13,46
637,828	13,23
638,285	13,26
638,742	12,95
639,199	12,75
639,656	12,73
640,113	12,62
640,57	12,46
641,027	12,34
641,483	12,14
641,94	11,99
642,396	11,88
642,852	11,77
643,309	11,49
643,765	11,55
644,221	11,17
644,676	11,11
645,132	11,05
645,588	10,83
646,043	10,72
646,499	10,51
646,954	10,48
647,409	10,34
647,864	10,16
648,319	10,04
648,774	9,82
649,229	9,83
649,684	9,75
650,139	9,84
650,593	9,53
651,047	9,47
651,502	9,47
651,956	9,42
652,41	9,31
652,864	9,25
653,318	9,23
653,772	9,1
654,225	9,13
654,679	9,04
655,133	9,01
655,586	8,94
656,039	8,85
656,492	8,81
656,946	8,52
657,399	8,64
657,851	8,55
658,304	8,44
658,757	8,46
659,209	8,22
659,662	8,19
660,114	8,12
660,567	8,13
661,019	7,95
661,471	7,87
661,923	7,69
662,375	7,67
662,826	7,56
663,278	7,47
663,73	7,43
664,181	7,36
664,632	7,3
665,084	7,33
665,535	7,22
665,986	7,19
666,437	7,08
666,888	7,13
667,338	7,12
667,789	7,13
668,24	7,1
668,69	6,99
669,14	7,18
669,591	7,14
670,041	7,19
670,491	7,07
670,941	7,08
671,391	7,18
671,84	7,2
672,29	7,3
672,74	7,29
673,189	7,31
673,638	7,4
674,088	7,53
674,537	7,58
674,986	7,62
675,435	7,65
675,883	7,8
676,332	7,79
676,781	7,98
677,229	8,12
677,678	8,3
678,126	8,33
678,574	8,4
679,022	8,44
679,47	8,63
679,918	8,71
680,366	8,88
680,814	8,96
681,261	9,11
681,709	9,23
682,156	9,38
682,604	9,46
683,051	9,64
683,498	9,81
683,945	9,94
684,392	10,04
684,839	10,17
685,286	10,44
685,732	10,6
686,179	10,67
686,625	10,92
687,071	11,03
687,518	11,39
687,964	11,58
688,41	11,87
688,856	12,18
689,301	12,63
689,747	12,91
690,193	13,32
690,638	13,86
691,084	14,32
691,529	14,83
691,974	15,3
692,419	15,88
692,864	16,5
693,309	17,05
693,754	17,65
694,199	18,39
694,643	18,79
695,088	19,64
695,532	20,41
695,977	21,11
696,421	21,75
696,865	22,51
697,309	23,11
697,753	23,84
698,197	24,63
698,64	25,17
699,084	25,89
699,527	26,56
699,971	27,32
700,414	27,87
700,857	28,71
701,3	29,53
701,743	30,1
702,186	30,61
702,629	31,11
703,072	31,86
703,515	32,61
703,957	32,86
704,399	33,65
704,842	34,27
705,284	34,71
705,726	35,41
706,168	35,88
706,61	36,56
707,052	36,84
707,494	37,39
707,935	37,89
708,377	38,53
708,818	38,86
709,26	39,66
709,701	39,99
710,142	40,29
710,583	40,56
711,024	41,14
711,465	41,94
711,905	41,8
712,346	42,42
712,787	42,92
713,227	43,27
713,667	44,24
714,108	44,47
714,548	44,57
714,988	44,91
715,428	45,18
715,868	45,78
716,307	45,78
716,747	46,45
717,186	46,56
717,626	47,01
718,065	47,63
718,504	47,55
718,944	48,31
719,383	48,54
719,822	48,88
720,261	48,94
720,699	49,22
721,138	49,62
721,576	49,88
722,015	50,08
722,453	50,62
722,892	50,85
723,33	51,15
723,768	51,52
724,206	51,65
724,644	51,66
725,081	52,07
725,519	52,17
725,957	52,15
726,394	52,5
726,832	52,49
727,269	53,2
727,706	52,99
728,143	53,31
728,58	53,48
729,017	53,43
729,454	53,87
729,89	53,98
730,327	54,05
730,764	54,28
731,2	54,52
731,636	54,63
732,072	54,72
732,509	54,91
732,945	54,76
733,38	54,92
733,816	55,03
734,252	55,01
734,688	54,91
735,123	55,13
735,559	55,63
735,994	55,45
736,429	55,38
736,864	55,54
737,299	55,37
737,734	55,71
738,169	55,71
738,604	55,88
739,038	55,97
739,473	55,83
739,907	56,1
740,342	55,95
740,776	55,94
741,21	56,29
741,644	56,06
742,078	56,26
742,512	56,3
742,946	56,37
743,379	56,23
743,813	56,28
744,246	55,93
744,68	56,29
745,113	56,04
745,546	56,21
745,979	56,23
746,412	56,19
746,845	56,29
747,278	56,36
747,711	56,21
748,143	56,23
748,576	56,31
749,008	56,03
749,441	55,91
749,873	55,91
750,305	55,72
750,737	55,93
751,169	55,94
751,601	55,86
752,032	55,94
752,464	55,94
752,896	56,08
753,327	55,66
753,758	55,61
754,19	55,84
754,621	56,05
755,052	55,91
755,483	55,8
755,914	55,7
756,344	55,8
756,775	55,78
757,206	55,63
757,636	55,71
758,066	55,54
758,497	55,51
758,927	55,45
759,357	55,57
759,787	55,55
760,217	55,26
760,647	55,16
761,076	55,52
761,506	55,32
761,935	55,18
762,365	55,37
762,794	55,11
763,223	55,02
763,653	55,29
764,082	55,27
764,51	55,21
764,939	55,09
765,368	55,18
765,797	55,24
766,225	55,05
766,654	54,93
767,082	55
767,51	54,9
767,938	54,78
768,367	54,93
768,795	54,9
769,222	54,93
769,65	55
770,078	54,92
770,505	54,76
770,933	54,72
771,36	54,84
771,788	54,75
772,215	54,88
772,642	54,4
773,069	54,53
773,496	54,64
773,923	54,48
774,349	54,51
774,776	54,58
775,203	54,7
775,629	54,55
776,055	54,49
776,482	54,56
776,908	54,44
777,334	54,41
777,76	54,49
778,186	54,44
778,611	54,44
779,037	54,46
779,463	54,1
779,888	54,3
780,314	54,19
780,739	54,54
781,164	54,42
781,589	54,25
782,014	54
782,439	54,5
782,864	54,28
783,289	54,33
783,713	54,2
784,138	53,99
784,562	54,26
784,987	54,17
785,411	54,11
785,835	54,15
786,259	54,23
786,683	54,32
787,107	54,03
787,531	54,08
787,954	53,96
788,378	54,34
788,802	54,35
789,225	53,95
789,648	54,13
790,071	54,02
790,495	53,96
790,918	54,37
791,34	54,18
791,763	53,97
792,186	54,06
792,609	54,34
793,031	53,99
793,454	54,03
793,876	54,17
794,298	53,93
794,721	53,87
795,143	54,24
795,565	53,87
795,986	54,17
796,408	53,85
796,83	53,76
797,252	53,86
797,673	53,9
798,094	53,68
798,516	53,9
798,937	53,96
799,358	53,94
799,779	53,69
800,2	54,03
800,621	53,91
801,042	53,93
801,462	53,96
801,883	53,98
802,303	53,73
802,724	54,02
803,144	53,93
803,564	53,68
803,984	54,05
804,404	54,04
804,824	54,11
805,244	54,18
805,664	54,02
806,084	53,71
806,503	54,05
806,923	53,96
807,342	53,85
807,761	53,78
808,18	53,93
808,599	53,75
809,018	53,65
809,437	53,75
809,856	53,66
810,275	53,59
810,693	54,07
811,112	53,79
811,53	53,57
811,949	53,96
812,367	53,58
812,785	53,91
813,203	53,7
813,621	53,75
814,039	53,77
814,457	53,52
814,874	53,74
815,292	53,8
815,709	53,82
816,127	53,57
816,544	53,83
816,961	53,91
817,378	53,94
817,795	53,79
818,212	53,54
818,629	53,61
819,046	53,71
819,462	53,65
819,879	53,78
820,295	53,84
820,712	53,48
821,128	53,53
821,544	53,72
821,96	53,51
822,376	53,59
822,792	53,64
823,208	53,66
823,624	53,69
824,039	53,8
824,455	53,71
824,87	53,71
825,286	53,6
825,701	53,82
826,116	53,44
826,531	53,55
826,946	53,69
827,361	53,44
827,776	53,56
828,19	53,42
828,605	53,42
829,02	53,57
829,434	53,53
829,848	53,82
830,263	53,95
830,677	53,72
831,091	53,58
831,505	53,71
831,919	53,48
832,332	53,42
832,746	53,54
833,16	53,67
833,573	53,57
833,987	53,61
834,4	53,2
834,813	53,35
835,226	53,49
835,639	53,5
836,052	53,48
836,465	53,37
836,878	53,93
837,29	53,78
837,703	53,59
838,116	53,85
838,528	53,6
838,94	53,45
839,352	53,63
839,765	53,5
840,177	53,5
