Data from I4__Relative__4__00166.txt Node

Date: Tue Jan 30 18:10:47 CET 2024
User: diatiterra
Spectrometer: HDX00911
Trigger mode: 0
Integration Time (sec): 6,000000E-3
Scans to average: 3
Nonlinearity correction enabled: true
Boxcar width: 0
Storing dark spectrum: false
XAxis mode: Wavelengths
Number of Pixels in Spectrum: 2068
>>>>>Begin Spectral Data<<<<<
194,468	145,34
195,025	104,48
195,581	112,27
196,138	105,37
196,694	104,64
197,251	82,93
197,807	83,41
198,363	77,57
198,919	79,58
199,474	86,13
200,03	74,84
200,586	69,69
201,141	73,68
201,696	76,71
202,251	78,2
202,806	74,33
203,361	77,59
203,916	75,49
204,471	77,11
205,025	79,34
205,58	77,98
206,134	81,86
206,688	72,68
207,242	74,05
207,796	76,01
208,35	76,14
208,904	72,66
209,457	74,75
210,011	81,22
210,564	74,05
211,117	80,53
211,67	82,25
212,223	77,43
212,776	88,24
213,329	81,12
213,881	76,1
214,434	75,88
214,986	85,01
215,538	77,84
216,09	70,78
216,642	82,71
217,194	78,18
217,746	78,03
218,297	75,49
218,849	80,48
219,4	78,01
219,951	81,4
220,502	83,92
221,053	72,87
221,604	75,67
222,155	79,46
222,705	75,88
223,256	80,23
223,806	78,6
224,356	80,33
224,906	78,77
225,456	79,75
226,006	76,4
226,556	74,79
227,106	81,84
227,655	84,19
228,204	80,29
228,754	80,12
229,303	81,44
229,852	81,74
230,401	83,34
230,949	81,2
231,498	77,57
232,047	75,81
232,595	80,31
233,143	83,05
233,691	78,12
234,239	77,9
234,787	76,48
235,335	78,37
235,883	82,53
236,43	81,57
236,978	71,54
237,525	80,49
238,072	75,73
238,619	78,05
239,166	79,79
239,713	76,05
240,26	82,44
240,806	81,01
241,353	78,91
241,899	75,38
242,445	77,8
242,991	77,41
243,537	80,34
244,083	76,46
244,629	82,42
245,174	77,42
245,72	79,53
246,265	82,81
246,81	80,36
247,355	76,67
247,9	79,46
248,445	82,85
248,99	79,35
249,534	84,6
250,079	81,28
250,623	75,14
251,168	74,38
251,712	75,79
252,256	72,51
252,8	75,25
253,343	76,21
253,887	73,11
254,43	87,75
254,974	86,29
255,517	79,43
256,06	87,54
256,603	82,09
257,146	84,97
257,689	81,7
258,232	77,92
258,774	82,19
259,317	78,91
259,859	80,12
260,401	87,04
260,943	82
261,485	79,96
262,027	83,34
262,569	76,78
263,11	77
263,652	79,46
264,193	80,76
264,734	77,83
265,275	79,47
265,816	82,59
266,357	83,75
266,898	77,49
267,438	83,19
267,979	85,5
268,519	81,95
269,059	78,56
269,6	79,34
270,14	78,6
270,68	75,5
271,219	87,94
271,759	80,05
272,298	71,92
272,838	81,49
273,377	81,41
273,916	76,47
274,455	78,96
274,994	85,66
275,533	77,34
276,072	82,03
276,61	77,48
277,149	75,58
277,687	76,42
278,225	70,62
278,763	80,01
279,301	77,9
279,839	79,1
280,377	77,01
280,914	76,27
281,452	87,68
281,989	88,05
282,526	75,76
283,064	87,54
283,601	79,48
284,137	77,79
284,674	79,54
285,211	81,46
285,747	82,02
286,284	80,15
286,82	80
287,356	80,8
287,892	85,57
288,428	77,09
288,964	79,67
289,5	80,31
290,035	81,18
290,571	74,47
291,106	90
291,641	83,72
292,176	79,84
292,711	81
293,246	79,36
293,781	82,78
294,315	77,85
294,85	82,74
295,384	85,23
295,918	77,21
296,453	79
296,987	81,59
297,52	77,93
298,054	77,85
298,588	80,77
299,121	78,75
299,655	78,33
300,188	77,73
300,721	79,74
301,254	78,56
301,787	76,91
302,32	87,32
302,853	78,37
303,385	77,56
303,918	78,01
304,45	76,24
304,982	79,33
305,514	73,27
306,046	79,79
306,578	79,32
307,11	75,5
307,641	83,95
308,173	78,79
308,704	78,77
309,236	77,97
309,767	76,39
310,298	78,09
310,829	74,45
311,359	79,67
311,89	79,33
312,421	74,16
312,951	70,71
313,481	77,08
314,012	75,16
314,542	75,28
315,072	76,98
315,601	68,29
316,131	83,2
316,661	75,5
317,19	79,68
317,72	75,67
318,249	75,48
318,778	82,12
319,307	73,54
319,836	74,51
320,365	79,92
320,893	81,1
321,422	77,61
321,95	73,46
322,479	81,35
323,007	68,8
323,535	73,66
324,063	75,9
324,591	80,01
325,118	78,21
325,646	77,68
326,173	84,66
326,701	81,27
327,228	79,34
327,755	81,18
328,282	71,15
328,809	79,39
329,336	77,61
329,862	75
330,389	78,59
330,915	73,62
331,441	73,57
331,968	74,41
332,494	72,52
333,02	77,86
333,545	78,4
334,071	78
334,597	66,8
335,122	80,97
335,648	71,87
336,173	75,41
336,698	72,89
337,223	70,28
337,748	69,05
338,272	66,46
338,797	74,24
339,322	80,41
339,846	74,13
340,37	76,24
340,894	78,63
341,419	72,44
341,942	68,93
342,466	67,92
342,99	78,19
343,514	73,2
344,037	67,82
344,56	71,47
345,084	68,85
345,607	70,29
346,13	70,93
346,653	67,56
347,175	68,61
347,698	74,36
348,221	62,45
348,743	67,76
349,265	64,62
349,787	66,1
350,309	69,44
350,831	69,7
351,353	62,77
351,875	64,46
352,397	62,49
352,918	62,59
353,439	67,61
353,961	61,8
354,482	59,24
355,003	62,2
355,524	57,46
356,044	62,85
356,565	57,45
357,086	62,36
357,606	59,16
358,126	59,89
358,646	57,82
359,167	62,63
359,687	58,23
360,206	55,8
360,726	57,81
361,246	58,29
361,765	57,11
362,285	55,75
362,804	58,43
363,323	53,72
363,842	57,41
364,361	56,3
364,88	54,16
365,398	52,15
365,917	56,69
366,435	52,94
366,954	54,11
367,472	55,05
367,99	54,52
368,508	52,35
369,026	51,34
369,544	51,72
370,061	49,13
370,579	49,24
371,096	48,92
371,613	51,71
372,131	51,56
372,648	51,53
373,165	45,5
373,681	48,32
374,198	48,45
374,715	50,25
375,231	50,87
375,747	47
376,264	46,1
376,78	50,7
377,296	47,13
377,812	44,21
378,327	48,12
378,843	45,21
379,359	43,27
379,874	47,57
380,389	42,1
380,905	43,59
381,42	42,12
381,935	41,18
382,449	42,22
382,964	39,85
383,479	39,14
383,993	41,02
384,508	38,65
385,022	39,09
385,536	40,55
386,05	37,86
386,564	39,12
387,078	38,68
387,592	37,78
388,105	35,63
388,619	35,65
389,132	34,13
389,645	33,12
390,158	32,43
390,671	33,61
391,184	32,51
391,697	30,25
392,21	31,74
392,722	31,76
393,235	31,96
393,747	29,83
394,259	30,46
394,771	32,32
395,283	30,41
395,795	31
396,307	30,17
396,818	28,27
397,33	30,61
397,841	28,14
398,353	28,22
398,864	28,72
399,375	27,13
399,886	26,53
400,397	25,74
400,907	23,8
401,418	24,51
401,928	24,96
402,439	24
402,949	22,91
403,459	21,86
403,969	23,33
404,479	21,04
404,989	20,6
405,498	20,99
406,008	19,87
406,517	19,94
407,027	18,51
407,536	18,43
408,045	18,21
408,554	17,5
409,063	16,91
409,572	16,38
410,08	15,97
410,589	15,46
411,097	14,92
411,606	14,17
412,114	13,71
412,622	12,87
413,13	12,43
413,638	12,52
414,145	12,77
414,653	12,15
415,16	11,49
415,668	11,72
416,175	11,18
416,682	10,28
417,189	10,76
417,696	10,02
418,203	10,38
418,71	10,06
419,216	9,95
419,723	10
420,229	9,47
420,735	9,19
421,242	9,5
421,748	9,06
422,254	9,08
422,759	9,06
423,265	9,12
423,771	8,66
424,276	8,47
424,781	8,83
425,287	8,44
425,792	8,38
426,297	8,07
426,802	8,25
427,306	8,25
427,811	8,27
428,316	8,07
428,82	8,33
429,324	8,26
429,829	7,84
430,333	7,79
430,837	7,99
431,34	7,93
431,844	7,91
432,348	7,82
432,851	7,38
433,355	7,64
433,858	7,52
434,361	7,55
434,864	7,52
435,367	7,28
435,87	7,68
436,373	7,64
436,876	7,48
437,378	7,26
437,88	7,26
438,383	7,25
438,885	7,38
439,387	7,25
439,889	7,05
440,391	7,14
440,892	7,17
441,394	7,3
441,896	7,24
442,397	6,98
442,898	7,3
443,399	7,03
443,9	7,34
444,401	7,27
444,902	6,97
445,403	7,26
445,903	7,08
446,404	6,96
446,904	7,28
447,405	7,06
447,905	6,97
448,405	7,35
448,905	7,38
449,404	7,12
449,904	7,07
450,404	7,16
450,903	7,22
451,403	7,22
451,902	7,15
452,401	7,17
452,9	6,99
453,399	7,24
453,898	7,19
454,396	7,35
454,895	7,26
455,393	7,26
455,892	7,51
456,39	7,24
456,888	7,09
457,386	7,24
457,884	7,29
458,382	7,14
458,879	7,15
459,377	7,22
459,874	7,18
460,372	7,28
460,869	7,05
461,366	7,26
461,863	7,44
462,36	7
462,857	7,28
463,353	7,32
463,85	7,2
464,346	7,21
464,843	7,17
465,339	7,11
465,835	7,02
466,331	7,2
466,827	6,96
467,323	7,03
467,818	7,28
468,314	7,05
468,809	7,11
469,305	7,08
469,8	7,03
470,295	7,23
470,79	7,03
471,285	7,08
471,78	7,07
472,274	6,96
472,769	7,16
473,263	7,2
473,758	7,08
474,252	7,21
474,746	6,96
475,24	7
475,734	7,29
476,228	7,16
476,721	6,99
477,215	6,98
477,708	7,42
478,202	7,12
478,695	7,18
479,188	7,22
479,681	7,01
480,174	7,1
480,667	7,35
481,159	7,12
481,652	7,25
482,144	7,05
482,637	7,18
483,129	7,29
483,621	7,1
484,113	7,15
484,605	7,13
485,097	7,31
485,588	7,1
486,08	7,16
486,571	7,33
487,063	7,27
487,554	7,15
488,045	7,41
488,536	7,45
489,027	7,22
489,518	7,35
490,008	7,28
490,499	7,32
490,989	7,46
491,48	7,48
491,97	7,4
492,46	7,4
492,95	7,48
493,44	7,55
493,93	7,65
494,419	7,57
494,909	7,73
495,398	7,7
495,888	7,75
496,377	7,79
496,866	7,81
497,355	7,81
497,844	7,9
498,333	8,12
498,821	8,05
499,31	8,09
499,798	8,21
500,287	8,3
500,775	8,35
501,263	8,61
501,751	8,69
502,239	8,68
502,727	8,85
503,215	8,93
503,702	8,76
504,19	9,05
504,677	9,36
505,164	9,17
505,651	9,36
506,139	9,75
506,625	9,62
507,112	10
507,599	10,09
508,086	10,13
508,572	10,51
509,058	10,43
509,545	10,55
510,031	10,86
510,517	10,96
511,003	11,36
511,489	11,46
511,974	11,71
512,46	11,79
512,946	12,08
513,431	12,3
513,916	12,54
514,401	12,67
514,887	13,1
515,371	13,39
515,856	13,56
516,341	13,94
516,826	14,38
517,31	14,32
517,795	14,73
518,279	15,09
518,763	15,23
519,247	15,39
519,731	15,91
520,215	16,18
520,699	16,48
521,182	16,67
521,666	16,98
522,149	17,42
522,633	17,59
523,116	17,83
523,599	18,37
524,082	18,6
524,565	18,72
525,048	19,2
525,53	19,39
526,013	19,61
526,495	19,94
526,978	20,21
527,46	20,53
527,942	20,5
528,424	20,98
528,906	21,02
529,388	21,41
529,87	21,43
530,351	21,87
530,833	21,88
531,314	21,78
531,795	22,1
532,277	22,54
532,758	22,6
533,238	22,75
533,719	22,79
534,2	22,44
534,681	22,85
535,161	23,26
535,642	23,36
536,122	23,17
536,602	23,37
537,082	23,49
537,562	23,29
538,042	23,84
538,522	23,54
539,001	23,64
539,481	23,9
539,96	23,6
540,44	24,09
540,919	23,83
541,398	24,05
541,877	24,02
542,356	23,99
542,835	24,03
543,313	24,24
543,792	24,12
544,27	24,27
544,749	24,47
545,227	24,6
545,705	24,33
546,183	24,56
546,661	24,52
547,139	24,57
547,616	24,75
548,094	24,54
548,571	24,72
549,049	24,62
549,526	24,84
550,003	24,87
550,48	24,74
550,957	25,08
551,434	24,78
551,911	24,84
552,387	24,85
552,864	24,77
553,34	25,01
553,817	24,8
554,293	25,01
554,769	25,15
555,245	24,84
555,721	24,85
556,197	24,91
556,672	24,88
557,148	24,81
557,623	24,73
558,099	24,57
558,574	24,54
559,049	24,54
559,524	24,6
559,999	24,31
560,474	24,26
560,948	24,46
561,423	24,09
561,897	23,98
562,372	23,95
562,846	23,95
563,32	23,78
563,794	23,71
564,268	23,7
564,742	23,41
565,216	23,23
565,69	23,14
566,163	23,03
566,636	22,9
567,11	22,71
567,583	22,61
568,056	22,6
568,529	22,21
569,002	22,19
569,475	22,1
569,947	21,76
570,42	21,48
570,892	21,41
571,365	21,32
571,837	21,09
572,309	20,87
572,781	20,82
573,253	20,67
573,725	20,41
574,197	20,14
574,668	20,47
575,14	20,13
575,611	19,71
576,082	19,62
576,554	19,58
577,025	19,41
577,496	19,13
577,967	19,05
578,437	18,86
578,908	18,8
579,379	18,81
579,849	18,68
580,319	18,47
580,79	18,38
581,26	18,2
581,73	17,99
582,2	17,94
582,669	17,83
583,139	17,62
583,609	17,56
584,078	17,68
584,548	17,29
585,017	17,31
585,486	17,35
585,955	17,07
586,424	17,02
586,893	16,96
587,362	16,93
587,83	16,92
588,299	16,67
588,767	16,62
589,236	16,57
589,704	16,45
590,172	16,54
590,64	16,37
591,108	16,27
591,576	16,07
592,043	16,15
592,511	16,36
592,978	16,2
593,446	16,09
593,913	15,97
594,38	15,77
594,847	15,88
595,314	15,85
595,781	15,64
596,248	15,93
596,715	15,8
597,181	15,73
597,647	15,77
598,114	15,78
598,58	15,7
599,046	15,59
599,512	15,45
599,978	15,54
600,444	15,45
600,91	15,32
601,375	15,14
601,841	15,36
602,306	15,32
602,771	15,34
603,236	15,33
603,702	15,2
604,167	14,98
604,631	14,89
605,096	15
605,561	14,88
606,025	14,9
606,49	14,73
606,954	14,74
607,418	14,72
607,882	14,54
608,347	14,38
608,81	14,31
609,274	14,13
609,738	14,18
610,202	14,2
610,665	13,98
611,128	14,02
611,592	13,91
612,055	13,85
612,518	13,67
612,981	13,47
613,444	13,47
613,907	13,4
614,369	13,3
614,832	13,35
615,294	13,17
615,757	13,15
616,219	13,06
616,681	12,9
617,143	12,89
617,605	12,83
618,067	12,75
618,529	12,55
618,99	12,43
619,452	12,54
619,913	12,57
620,375	12,35
620,836	12,46
621,297	12,3
621,758	12,26
622,219	12,19
622,68	12,19
623,14	12,29
623,601	12,08
624,061	12,13
624,522	12,08
624,982	12,01
625,442	12,03
625,902	11,89
626,362	11,84
626,822	12,02
627,282	11,87
627,742	11,83
628,201	11,93
628,661	11,93
629,12	11,77
629,579	11,87
630,038	11,87
630,497	11,76
630,956	11,78
631,415	11,81
631,874	11,65
632,332	11,7
632,791	11,71
633,249	11,58
633,708	11,63
634,166	11,53
634,624	11,45
635,082	11,47
635,54	11,4
635,998	11,27
636,455	11,14
636,913	11,14
637,37	11,14
637,828	10,99
638,285	10,96
638,742	10,9
639,199	10,63
639,656	10,58
640,113	10,63
640,57	10,38
641,027	10,24
641,483	10,2
641,94	10,12
642,396	10,05
642,852	9,88
643,309	9,83
643,765	9,66
644,221	9,66
644,676	9,54
645,132	9,46
645,588	9,34
646,043	9,22
646,499	9,19
646,954	9,08
647,409	8,92
647,864	8,83
648,319	8,78
648,774	8,69
649,229	8,59
649,684	8,58
650,139	8,55
650,593	8,52
651,047	8,35
651,502	8,35
651,956	8,38
652,41	8,25
652,864	8,3
653,318	8,15
653,772	8,16
654,225	8,11
654,679	8,08
655,133	8,18
655,586	8,01
656,039	7,97
656,492	7,95
656,946	7,89
657,399	7,89
657,851	7,79
658,304	7,75
658,757	7,66
659,209	7,52
659,662	7,47
660,114	7,47
660,567	7,43
661,019	7,34
661,471	7,31
661,923	7,19
662,375	7,17
662,826	7,14
663,278	7,08
663,73	7,05
664,181	7,07
664,632	6,93
665,084	6,94
665,535	6,98
665,986	6,97
666,437	6,83
666,888	6,84
667,338	6,91
667,789	6,81
668,24	6,83
668,69	6,93
669,14	6,89
669,591	6,91
670,041	6,95
670,491	6,93
670,941	6,9
671,391	6,99
671,84	6,97
672,29	7,08
672,74	7,16
673,189	7,19
673,638	7,17
674,088	7,26
674,537	7,34
674,986	7,41
675,435	7,48
675,883	7,55
676,332	7,7
676,781	7,63
677,229	7,86
677,678	7,92
678,126	8
678,574	8,14
679,022	8,19
679,47	8,32
679,918	8,32
680,366	8,4
680,814	8,5
681,261	8,59
681,709	8,71
682,156	8,84
682,604	8,93
683,051	8,97
683,498	9,14
683,945	9,2
684,392	9,22
684,839	9,42
685,286	9,63
685,732	9,53
686,179	9,81
686,625	9,82
687,071	9,94
687,518	10,19
687,964	10,27
688,41	10,49
688,856	10,76
689,301	10,9
689,747	11,2
690,193	11,44
690,638	11,75
691,084	12,05
691,529	12,3
691,974	12,67
692,419	13,14
692,864	13,52
693,309	13,92
693,754	14,44
694,199	14,8
694,643	15,36
695,088	15,92
695,532	16,32
695,977	16,79
696,421	17,41
696,865	17,84
697,309	18,54
697,753	18,99
698,197	19,63
698,64	20,2
699,084	20,72
699,527	21,25
699,971	21,79
700,414	22,37
700,857	22,84
701,3	23,62
701,743	23,88
702,186	24,6
702,629	24,98
703,072	25,58
703,515	26,01
703,957	26,38
704,399	26,97
704,842	27,57
705,284	27,96
705,726	28,56
706,168	28,94
706,61	29,48
707,052	29,74
707,494	30,14
707,935	30,8
708,377	31,27
708,818	31,5
709,26	31,95
709,701	32,58
710,142	32,85
710,583	33,4
711,024	33,81
711,465	34,21
711,905	34,37
712,346	34,87
712,787	35,11
713,227	35,68
713,667	36,25
714,108	36,46
714,548	36,85
714,988	36,95
715,428	37,39
715,868	37,91
716,307	37,94
716,747	38,61
717,186	38,71
717,626	39,04
718,065	39,82
718,504	39,67
718,944	40,17
719,383	40,45
719,822	40,55
720,261	41,06
720,699	41,24
721,138	41,15
721,576	41,66
722,015	41,91
722,453	42,31
722,892	42,41
723,33	42,81
723,768	43,1
724,206	43,55
724,644	43,36
725,081	43,46
725,519	44,01
725,957	44,03
726,394	44,2
726,832	44,47
727,269	44,71
727,706	44,93
728,143	44,81
728,58	45,08
729,017	45,14
729,454	45,57
729,89	45,7
730,327	45,77
730,764	46,07
731,2	46,09
731,636	46,45
732,072	46,45
732,509	46,42
732,945	46,41
733,38	46,7
733,816	46,54
734,252	46,88
734,688	46,66
735,123	46,62
735,559	47,05
735,994	47,13
736,429	47,27
736,864	47,22
737,299	47,14
737,734	47,53
738,169	47,39
738,604	47,59
739,038	47,34
739,473	47,67
739,907	47,57
740,342	47,48
740,776	47,6
741,21	47,79
741,644	48,1
742,078	47,8
742,512	47,77
742,946	48,01
743,379	47,79
743,813	47,84
744,246	47,79
744,68	47,95
745,113	47,88
745,546	47,88
745,979	47,79
746,412	47,87
746,845	47,56
747,278	47,92
747,711	47,91
748,143	47,93
748,576	47,78
749,008	47,82
749,441	47,6
749,873	48,04
750,305	47,68
750,737	47,81
751,169	47,87
751,601	47,76
752,032	47,8
752,464	48,02
752,896	47,67
753,327	47,59
753,758	47,66
754,19	47,62
754,621	47,7
755,052	47,59
755,483	47,58
755,914	47,47
756,344	47,85
756,775	47,57
757,206	47,72
757,636	47,29
758,066	47,48
758,497	47,52
758,927	47,29
759,357	47,4
759,787	47,42
760,217	47,3
760,647	47,14
761,076	47,44
761,506	47,26
761,935	47,14
762,365	47,02
762,794	47,2
763,223	47,31
763,653	47,23
764,082	47,06
764,51	47,24
764,939	47,01
765,368	46,97
765,797	47,22
766,225	46,99
766,654	46,72
767,082	46,87
767,51	46,87
767,938	46,76
768,367	46,98
768,795	46,89
769,222	46,96
769,65	47,05
770,078	46,95
770,505	46,67
770,933	46,75
771,36	46,7
771,788	46,72
772,215	46,85
772,642	46,69
773,069	46,77
773,496	46,47
773,923	46,69
774,349	46,55
774,776	46,76
775,203	46,59
775,629	46,38
776,055	46,67
776,482	46,59
776,908	46,51
777,334	46,42
777,76	46,5
778,186	46,42
778,611	46,58
779,037	46,47
779,463	46,43
779,888	46,43
780,314	46,35
780,739	46,55
781,164	46,25
781,589	46,43
782,014	46,24
782,439	46,29
782,864	46,36
783,289	46,57
783,713	46,34
784,138	46,2
784,562	46,23
784,987	46,11
785,411	46,69
785,835	46,27
786,259	46,24
786,683	46,42
787,107	46,21
787,531	46,03
787,954	46,26
788,378	46,43
788,802	46,32
789,225	46,3
789,648	46,34
790,071	46,32
790,495	45,98
790,918	46,39
791,34	46,14
791,763	46,28
792,186	46,01
792,609	46,3
793,031	45,98
793,454	45,98
793,876	46,1
794,298	46,22
794,721	46,12
795,143	46,27
795,565	46,22
795,986	46,22
796,408	46,34
796,83	46,2
797,252	45,98
797,673	46,11
798,094	46,07
798,516	46,13
798,937	46,08
799,358	46,12
799,779	45,8
800,2	45,94
800,621	46,16
801,042	46,04
801,462	45,91
801,883	45,94
802,303	45,96
802,724	46,14
803,144	46,08
803,564	45,99
803,984	45,94
804,404	46,21
804,824	46,36
805,244	46,03
805,664	46,03
806,084	46,16
806,503	45,95
806,923	46,2
807,342	46,01
807,761	45,87
808,18	45,96
808,599	45,85
809,018	45,97
809,437	45,97
809,856	45,97
810,275	46,04
810,693	45,98
811,112	45,83
811,53	45,92
811,949	46
812,367	45,84
812,785	46,2
813,203	45,87
813,621	46,12
814,039	45,85
814,457	45,57
814,874	45,96
815,292	45,99
815,709	45,93
816,127	45,93
816,544	46,21
816,961	46,03
817,378	46,04
817,795	45,93
818,212	45,78
818,629	45,81
819,046	45,94
819,462	45,87
819,879	46,05
820,295	45,78
820,712	45,57
821,128	45,85
821,544	45,46
821,96	45,92
822,376	45,91
822,792	46,03
823,208	45,79
823,624	46,17
824,039	46,05
824,455	45,72
824,87	45,65
825,286	45,69
825,701	45,88
826,116	45,6
826,531	45,92
826,946	45,77
827,361	45,78
827,776	45,63
828,19	45,55
828,605	45,82
829,02	45,86
829,434	45,84
829,848	46
830,263	45,76
830,677	45,72
831,091	45,88
831,505	45,72
831,919	45,56
832,332	45,48
832,746	45,67
833,16	45,74
833,573	45,72
833,987	45,69
834,4	45,65
834,813	45,62
835,226	45,7
835,639	45,67
836,052	45,75
836,465	45,68
836,878	45,9
837,29	45,84
837,703	45,73
838,116	45,71
838,528	45,75
838,94	45,62
839,352	45,69
839,765	45,93
840,177	45,5
840,589	45,62
841	45,57
841,412	45,72
841,824	45,45
842,235	45,58
