Data from A_2__Relative__4__00004.txt Node

Date: Mon Jan 29 17:59:54 CET 2024
User: diatiterra
Spectrometer: HDX00911
Trigger mode: 0
Integration Time (sec): 6,000000E-3
Scans to average: 2
Nonlinearity correction enabled: false
Boxcar width: 0
Storing dark spectrum: false
XAxis mode: Wavelengths
Number of Pixels in Spectrum: 2068
>>>>>Begin Spectral Data<<<<<
194,468	43,14
195,025	36,28
195,581	39,36
196,138	26,15
196,694	29,31
197,251	27,56
197,807	26
198,363	26,18
198,919	22,78
199,474	18,93
200,03	21,69
200,586	27,89
201,141	24,34
201,696	16,26
202,251	26,2
202,806	25,19
203,361	22,81
203,916	27,4
204,471	28,87
205,025	20,71
205,58	16,49
206,134	26,3
206,688	19,2
207,242	26,87
207,796	24,75
208,35	20,58
208,904	18,64
209,457	23,47
210,011	26,57
210,564	24,31
211,117	19,72
211,67	26,76
212,223	17,12
212,776	23,6
213,329	21,99
213,881	15,71
214,434	26,9
214,986	19,87
215,538	21,25
216,09	21,97
216,642	30,74
217,194	27,15
217,746	25,59
218,297	22,15
218,849	19
219,4	27,27
219,951	32,36
220,502	18,47
221,053	21,63
221,604	22,82
222,155	17,7
222,705	23,75
223,256	22,3
223,806	24,49
224,356	29,35
224,906	18,52
225,456	18,97
226,006	22,82
226,556	24,82
227,106	13,64
227,655	14,98
228,204	23,68
228,754	21,03
229,303	22,37
229,852	27,78
230,401	25,81
230,949	32,68
231,498	25,37
232,047	20,2
232,595	27,3
233,143	32,2
233,691	28,4
234,239	22,01
234,787	19,23
235,335	23,13
235,883	22,58
236,43	30,37
236,978	20
237,525	21,64
238,072	23,62
238,619	16,78
239,166	24,92
239,713	27,88
240,26	28,46
240,806	21,28
241,353	29,33
241,899	24,92
242,445	33,57
242,991	29,62
243,537	22,77
244,083	24,36
244,629	23,99
245,174	25
245,72	22,07
246,265	24,38
246,81	25,91
247,355	21,69
247,9	31,49
248,445	31,03
248,99	21,45
249,534	23,42
250,079	32,46
250,623	24,41
251,168	24,16
251,712	26,6
252,256	24,92
252,8	29,86
253,343	27,71
253,887	27,21
254,43	32,34
254,974	24,48
255,517	28,52
256,06	19,86
256,603	29,81
257,146	24,92
257,689	25
258,232	26,44
258,774	23,99
259,317	27,84
259,859	23,62
260,401	30,68
260,943	23,13
261,485	21,28
262,027	23,79
262,569	14,66
263,11	23,47
263,652	29,04
264,193	25,71
264,734	23,02
265,275	23,29
265,816	24,46
266,357	23,74
266,898	21,84
267,438	14,51
267,979	31,27
268,519	25,63
269,059	24,47
269,6	29,12
270,14	19,47
270,68	26,05
271,219	23,16
271,759	26,87
272,298	19,27
272,838	22,09
273,377	19,26
273,916	22,02
274,455	22,99
274,994	21,58
275,533	23,21
276,072	16,54
276,61	26,96
277,149	14,86
277,687	28,83
278,225	21,58
278,763	28,26
279,301	28,3
279,839	21,01
280,377	21,53
280,914	14,65
281,452	28,46
281,989	30,38
282,526	24,37
283,064	21,18
283,601	29,17
284,137	17,15
284,674	27,17
285,211	17,27
285,747	22,37
286,284	22,46
286,82	19,5
287,356	24,74
287,892	24,21
288,428	27,46
288,964	25,99
289,5	28,23
290,035	24,46
290,571	24,25
291,106	22,91
291,641	27,2
292,176	25,56
292,711	23,45
293,246	19,13
293,781	20,82
294,315	16,91
294,85	24,82
295,384	29,63
295,918	27,87
296,453	22,97
296,987	25,52
297,52	22,6
298,054	20,22
298,588	29,53
299,121	20,88
299,655	23,16
300,188	25,48
300,721	28,97
301,254	33,45
301,787	27,24
302,32	31,44
302,853	27,87
303,385	21,98
303,918	27,37
304,45	30,5
304,982	22,71
305,514	22,14
306,046	22,46
306,578	22,86
307,11	26,02
307,641	25,09
308,173	19,7
308,704	27,2
309,236	27,34
309,767	23,33
310,298	24,74
310,829	27
311,359	27,76
311,89	31,67
312,421	23,91
312,951	17,82
313,481	21,29
314,012	24,91
314,542	20,89
315,072	22,18
315,601	23,13
316,131	23,36
316,661	26,67
317,19	23,49
317,72	24,91
318,249	24,66
318,778	26,62
319,307	21,96
319,836	28,86
320,365	28,99
320,893	25,18
321,422	19,4
321,95	18,15
322,479	23,53
323,007	22,46
323,535	29,43
324,063	36,57
324,591	21
325,118	17,83
325,646	25
326,173	26,07
326,701	22,55
327,228	24,92
327,755	24,73
328,282	24,15
328,809	18,89
329,336	23,53
329,862	24,62
330,389	21,5
330,915	17,02
331,441	18,64
331,968	19,24
332,494	22,41
333,02	20,07
333,545	16,97
334,071	23
334,597	18,92
335,122	19,06
335,648	20,88
336,173	18,81
336,698	22,26
337,223	20,82
337,748	14,74
338,272	17,82
338,797	23,62
339,322	21,93
339,846	17,19
340,37	15,75
340,894	24,32
341,419	21,48
341,942	10,74
342,466	13,65
342,99	14,77
343,514	16,56
344,037	16,39
344,56	15,36
345,084	16,4
345,607	15,81
346,13	15,08
346,653	13,84
347,175	18,71
347,698	16,37
348,221	11,34
348,743	18,66
349,265	15,77
349,787	19,43
350,309	13,77
350,831	10,45
351,353	23,02
351,875	14,33
352,397	15,43
352,918	14,69
353,439	11,92
353,961	14,37
354,482	21,35
355,003	13,67
355,524	19,9
356,044	16,09
356,565	14,71
357,086	6,62
357,606	16,87
358,126	15,57
358,646	10,45
359,167	15,72
359,687	17,45
360,206	15,66
360,726	9,41
361,246	13,25
361,765	14,69
362,285	16,35
362,804	10,44
363,323	10,32
363,842	16,9
364,361	16,02
364,88	16,67
365,398	10,6
365,917	15,81
366,435	14,81
366,954	10,42
367,472	15,14
367,99	13,14
368,508	15,62
369,026	11,43
369,544	9,27
370,061	15,99
370,579	13,13
371,096	11,68
371,613	13,03
372,131	14,08
372,648	14,44
373,165	16,46
373,681	11,38
374,198	11,48
374,715	13,37
375,231	11,76
375,747	17,02
376,264	10,86
376,78	15,47
377,296	10,6
377,812	9,79
378,327	8,3
378,843	13,15
379,359	10,87
379,874	12,3
380,389	13,62
380,905	11,27
381,42	10,57
381,935	11,73
382,449	13,98
382,964	14,62
383,479	8,94
383,993	10,46
384,508	11,01
385,022	10,74
385,536	10,18
386,05	9,49
386,564	10,39
387,078	8,38
387,592	10,73
388,105	9,54
388,619	11,8
389,132	10,46
389,645	10,24
390,158	10,5
390,671	11,15
391,184	8,42
391,697	7,7
392,21	9,41
392,722	8,44
393,235	9,9
393,747	9,07
394,259	10,39
394,771	8,09
395,283	7,32
395,795	9,01
396,307	7,75
396,818	9,61
397,33	6,88
397,841	8,5
398,353	6,92
398,864	8,24
399,375	7,49
399,886	6,48
400,397	7,88
400,907	7,6
401,418	5,88
401,928	6,61
402,439	6,45
402,949	7,18
403,459	5,92
403,969	6,28
404,479	6,45
404,989	4,98
405,498	6,27
406,008	5,13
406,517	5,21
407,027	4,98
407,536	4,58
408,045	4,78
408,554	4,2
409,063	3,98
409,572	3,84
410,08	4,13
410,589	3,99
411,097	3,07
411,606	4,04
412,114	3,83
412,622	4,55
413,13	3,69
413,638	3,34
414,145	2,8
414,653	3,04
415,16	2,91
415,668	2,82
416,175	3,43
416,682	2,85
417,189	3,11
417,696	2,91
418,203	2,95
418,71	2,63
419,216	2,51
419,723	2,86
420,229	2,69
420,735	2,4
421,242	2,69
421,748	2,82
422,254	2,72
422,759	2,42
423,265	2,5
423,771	2,26
424,276	2,64
424,781	2,15
425,287	2,38
425,792	2,36
426,297	2,66
426,802	2,43
427,306	2,48
427,811	2,15
428,316	2,57
428,82	2,25
429,324	2,22
429,829	2,54
430,333	2,29
430,837	2,25
431,34	1,98
431,844	2,01
432,348	2,06
432,851	2,13
433,355	2,06
433,858	1,85
434,361	1,96
434,864	2,04
435,367	2,01
435,87	1,96
436,373	2,03
436,876	1,68
437,378	1,83
437,88	2,12
438,383	1,82
438,885	2,12
439,387	1,96
439,889	1,84
440,391	2,29
440,892	1,96
441,394	1,98
441,896	2,17
442,397	1,94
442,898	2,26
443,399	2,16
443,9	2,02
444,401	2,1
444,902	2,04
445,403	2,06
445,903	1,93
446,404	2,11
446,904	2,04
447,405	2,09
447,905	2,03
448,405	2,32
448,905	2,02
449,404	2,24
449,904	2,19
450,404	1,93
450,903	2,1
451,403	2,15
451,902	2,19
452,401	2,39
452,9	2,15
453,399	2,2
453,898	2,2
454,396	2,11
454,895	2,36
455,393	2,03
455,892	2,08
456,39	2,41
456,888	2,1
457,386	2,03
457,884	2,1
458,382	2,1
458,879	2,24
459,377	2,01
459,874	2,14
460,372	2,05
460,869	2,25
461,366	2,14
461,863	2,13
462,36	2,27
462,857	2,17
463,353	2,3
463,85	2,14
464,346	2,33
464,843	2,11
465,339	2,13
465,835	2,26
466,331	2,15
466,827	2,18
467,323	2,09
467,818	2,09
468,314	2,44
468,809	2
469,305	2,05
469,8	2,08
470,295	2,16
470,79	2,26
471,285	2,01
471,78	2,14
472,274	2,17
472,769	2,16
473,263	1,95
473,758	2,3
474,252	2,08
474,746	2,54
475,24	2,1
475,734	2,18
476,228	2,27
476,721	2,17
477,215	2,16
477,708	2,24
478,202	2,24
478,695	2,25
479,188	2,11
479,681	2,18
480,174	2,26
480,667	2,43
481,159	2,16
481,652	2,26
482,144	2,12
482,637	2,24
483,129	2,38
483,621	2,28
484,113	2,32
484,605	2,36
485,097	2,23
485,588	2,31
486,08	2,33
486,571	2,6
487,063	2,32
487,554	2,39
488,045	2,37
488,536	2,47
489,027	2,48
489,518	2,44
490,008	2,58
490,499	2,49
490,989	2,57
491,48	2,57
491,97	2,73
492,46	2,66
492,95	2,83
493,44	2,68
493,93	2,73
494,419	2,69
494,909	2,82
495,398	2,55
495,888	2,83
496,377	2,98
496,866	3
497,355	3,13
497,844	2,94
498,333	3,12
498,821	3,1
499,31	3,23
499,798	3,43
500,287	3,43
500,775	3,36
501,263	3,35
501,751	3,61
502,239	3,77
502,727	3,82
503,215	3,77
503,702	3,83
504,19	4,1
504,677	4,06
505,164	4,09
505,651	4,24
506,139	4,48
506,625	4,61
507,112	4,66
507,599	4,65
508,086	5,01
508,572	5,24
509,058	5,08
509,545	5,37
510,031	5,46
510,517	5,59
511,003	5,86
511,489	6
511,974	6,11
512,46	6,27
512,946	6,42
513,431	6,5
513,916	6,61
514,401	7,03
514,887	7,18
515,371	7,25
515,856	7,55
516,341	7,72
516,826	8,06
517,31	8,1
517,795	8,54
518,279	8,36
518,763	8,72
519,247	8,95
519,731	9,1
520,215	9,26
520,699	9,55
521,182	9,44
521,666	9,92
522,149	10,12
522,633	10,26
523,116	10,97
523,599	11
524,082	11,04
524,565	11,16
525,048	11,24
525,53	11,52
526,013	11,62
526,495	11,94
526,978	12,02
527,46	12,42
527,942	12,36
528,424	12,44
528,906	12,91
529,388	12,72
529,87	13,11
530,351	12,96
530,833	13,26
531,314	13,38
531,795	13,71
532,277	13,59
532,758	13,32
533,238	13,67
533,719	14,01
534,2	13,99
534,681	13,97
535,161	14,14
535,642	14,07
536,122	14,04
536,602	14,2
537,082	14,38
537,562	14,63
538,042	14,19
538,522	14,23
539,001	14,54
539,481	14,49
539,96	14,56
540,44	14,73
540,919	14,68
541,398	14,61
541,877	14,62
542,356	14,7
542,835	14,62
543,313	14,57
543,792	14,76
544,27	14,87
544,749	14,64
545,227	14,91
545,705	14,62
546,183	15,08
546,661	15
547,139	14,95
547,616	15,04
548,094	15,11
548,571	15,22
549,049	15,19
549,526	15,24
550,003	15,17
550,48	15,09
550,957	15,37
551,434	15,02
551,911	15,39
552,387	15,02
552,864	15,32
553,34	15,23
553,817	15,29
554,293	15,12
554,769	15,04
555,245	15,32
555,721	15,38
556,197	15,35
556,672	15,05
557,148	15,09
557,623	14,95
558,099	15,14
558,574	15,21
559,049	15,1
559,524	15
559,999	15,2
560,474	15
560,948	14,73
561,423	14,88
561,897	14,88
562,372	14,76
562,846	14,75
563,32	14,61
563,794	14,43
564,268	14,15
564,742	14,32
565,216	14,2
565,69	14,34
566,163	14,19
566,636	14,17
567,11	13,78
567,583	13,68
568,056	13,79
568,529	13,52
569,002	13,57
569,475	13,34
569,947	13,31
570,42	13,44
570,892	12,91
571,365	12,88
571,837	12,86
572,309	12,75
572,781	12,64
573,253	12,48
573,725	12,29
574,197	12,4
574,668	12,13
575,14	12,15
575,611	11,79
576,082	11,8
576,554	11,69
577,025	11,76
577,496	11,53
577,967	11,55
578,437	11,43
578,908	10,97
579,379	11,05
579,849	11,21
580,319	10,95
580,79	10,88
581,26	10,92
581,73	10,81
582,2	10,58
582,669	10,76
583,139	10,73
583,609	10,39
584,078	10,5
584,548	10,41
585,017	10,28
585,486	10,23
585,955	10,09
586,424	10,23
586,893	10,18
587,362	10,09
587,83	10,03
588,299	9,75
588,767	9,89
589,236	9,91
589,704	9,74
590,172	9,8
590,64	9,68
591,108	9,64
591,576	9,63
592,043	9,56
592,511	9,64
592,978	9,63
593,446	9,43
593,913	9,39
594,38	9,59
594,847	9,38
595,314	9,46
595,781	9,33
596,248	9,3
596,715	9,22
597,181	9,25
597,647	9,18
598,114	9,18
598,58	9,19
599,046	9,15
599,512	9,13
599,978	9,18
600,444	9,19
600,91	9,1
601,375	9,05
601,841	9,1
602,306	9,09
602,771	9,04
603,236	9,06
603,702	8,89
604,167	8,85
604,631	8,75
605,096	8,76
605,561	8,78
606,025	8,53
606,49	8,57
606,954	8,54
607,418	8,74
607,882	8,54
608,347	8,36
608,81	8,31
609,274	8,32
609,738	8,23
610,202	8,26
610,665	8,17
611,128	8,15
611,592	8,18
612,055	7,99
612,518	7,82
612,981	7,78
613,444	7,78
613,907	7,71
614,369	7,58
614,832	7,54
615,294	7,58
615,757	7,55
616,219	7,49
616,681	7,26
617,143	7,32
617,605	7,25
618,067	7,18
618,529	7,07
618,99	7,15
619,452	7,16
619,913	7,12
620,375	6,95
620,836	6,8
621,297	6,86
621,758	6,92
622,219	6,93
622,68	6,77
623,14	6,84
623,601	6,8
624,061	6,82
624,522	6,76
624,982	6,72
625,442	6,7
625,902	6,6
626,362	6,65
626,822	6,69
627,282	6,54
627,742	6,61
628,201	6,67
628,661	6,53
629,12	6,59
629,579	6,51
630,038	6,6
630,497	6,56
630,956	6,48
631,415	6,61
631,874	6,5
632,332	6,54
632,791	6,41
633,249	6,36
633,708	6,39
634,166	6,36
634,624	6,37
635,082	6,18
635,54	6,23
635,998	6,16
636,455	6,12
636,913	6,1
637,37	5,93
637,828	6,07
638,285	5,94
638,742	5,92
639,199	5,74
639,656	5,74
640,113	5,59
640,57	5,52
641,027	5,45
641,483	5,44
641,94	5,32
642,396	5,24
642,852	5,1
643,309	5,03
643,765	4,94
644,221	4,84
644,676	4,84
645,132	4,79
645,588	4,72
646,043	4,66
646,499	4,57
646,954	4,44
647,409	4,41
647,864	4,35
648,319	4,24
648,774	4,23
649,229	4,15
649,684	4,08
650,139	4,06
650,593	4,05
651,047	3,99
651,502	4,12
651,956	3,84
652,41	3,94
652,864	3,93
653,318	3,94
653,772	3,79
654,225	3,84
654,679	3,76
655,133	3,77
655,586	3,72
656,039	3,7
656,492	3,63
656,946	3,56
657,399	3,57
657,851	3,54
658,304	3,48
658,757	3,46
659,209	3,42
659,662	3,33
660,114	3,28
660,567	3,25
661,019	3,19
661,471	3,22
661,923	3,11
662,375	3,14
662,826	3,09
663,278	3,06
663,73	3
664,181	2,99
664,632	2,92
665,084	2,92
665,535	2,86
665,986	2,85
666,437	2,86
666,888	2,8
667,338	2,86
667,789	2,82
668,24	2,8
668,69	2,85
669,14	2,81
669,591	2,79
670,041	2,79
670,491	2,82
670,941	2,9
671,391	2,9
671,84	2,9
672,29	2,91
672,74	3,01
673,189	3
673,638	2,97
674,088	3,11
674,537	3,17
674,986	3,15
675,435	3,25
675,883	3,38
676,332	3,35
676,781	3,49
677,229	3,48
677,678	3,48
678,126	3,62
678,574	3,64
679,022	3,79
679,47	3,8
679,918	3,96
680,366	3,99
680,814	4,07
681,261	4,06
681,709	4,26
682,156	4,33
682,604	4,37
683,051	4,47
683,498	4,57
683,945	4,63
684,392	4,83
684,839	4,83
685,286	4,93
685,732	5,06
686,179	5,14
686,625	5,23
687,071	5,27
687,518	5,46
687,964	5,63
688,41	5,76
688,856	5,97
689,301	6,21
689,747	6,27
690,193	6,48
690,638	6,77
691,084	7,01
691,529	7,22
691,974	7,62
692,419	7,76
692,864	8,1
693,309	8,51
693,754	8,73
694,199	9,21
694,643	9,45
695,088	9,81
695,532	10,13
695,977	10,51
696,421	10,91
696,865	11,12
697,309	11,76
697,753	12,03
698,197	12,32
698,64	12,76
699,084	12,98
699,527	13,39
699,971	13,7
700,414	14,14
700,857	14,27
701,3	14,69
701,743	15,22
702,186	15,48
702,629	15,92
703,072	15,97
703,515	16,37
703,957	16,8
704,399	16,99
704,842	17,23
705,284	17,81
705,726	17,92
706,168	18,09
706,61	18,31
707,052	18,76
707,494	18,93
707,935	19,15
708,377	19,39
708,818	19,68
709,26	20,05
709,701	20,18
710,142	20,61
710,583	20,66
711,024	20,84
711,465	20,95
711,905	21,42
712,346	21,29
712,787	21,87
713,227	22,27
713,667	22,27
714,108	22,48
714,548	22,67
714,988	22,95
715,428	22,88
715,868	23,18
716,307	23,3
716,747	23,7
717,186	23,82
717,626	23,97
718,065	24,1
718,504	24,27
718,944	24,6
719,383	24,82
719,822	24,98
720,261	24,83
720,699	25,2
721,138	25,32
721,576	25,49
722,015	25,57
722,453	25,59
722,892	25,98
723,33	26,01
723,768	26,08
724,206	26,32
724,644	26,52
725,081	26,38
725,519	26,69
725,957	26,51
726,394	26,97
726,832	26,7
727,269	27,04
727,706	27,36
728,143	27,25
728,58	27,2
729,017	27,25
729,454	27,43
729,89	27,32
730,327	27,55
730,764	27,61
731,2	27,66
731,636	27,54
732,072	27,7
732,509	27,9
732,945	28,03
733,38	27,93
733,816	28,13
734,252	27,93
734,688	28,06
735,123	28,11
735,559	28,14
735,994	28,3
736,429	28,27
736,864	28,24
737,299	28,17
737,734	28,5
738,169	28,44
738,604	28,49
739,038	28,33
739,473	28,59
739,907	28,4
740,342	28,52
740,776	28,47
741,21	28,63
741,644	28,51
742,078	28,73
742,512	28,63
742,946	28,37
743,379	28,55
743,813	28,45
744,246	28,75
744,68	28,68
745,113	28,47
745,546	28,71
745,979	28,47
746,412	28,38
746,845	28,49
747,278	28,47
747,711	28,56
748,143	28,44
748,576	28,55
749,008	28,48
749,441	28,45
749,873	28,26
750,305	28,12
750,737	28,25
751,169	28,35
751,601	28,33
752,032	28,21
752,464	28,32
752,896	28,21
753,327	28,4
753,758	28,08
754,19	28,17
754,621	28,2
755,052	28,24
755,483	27,91
755,914	28,15
756,344	28,09
756,775	28,09
757,206	28,29
757,636	28,07
758,066	28,06
758,497	28
758,927	27,79
759,357	28,04
759,787	27,9
760,217	27,85
760,647	27,85
761,076	27,91
761,506	27,89
761,935	27,94
762,365	27,78
762,794	27,68
763,223	27,78
763,653	27,78
764,082	27,62
764,51	27,58
764,939	27,52
765,368	27,54
765,797	27,62
766,225	27,6
766,654	27,61
767,082	27,9
767,51	27,68
767,938	27,73
768,367	27,44
768,795	27,34
769,222	27,62
769,65	27,62
770,078	27,47
770,505	27,63
770,933	27,5
771,36	27,23
771,788	27,31
772,215	27,53
772,642	27,52
773,069	27,2
773,496	27,4
773,923	27,48
774,349	27,39
774,776	27,43
775,203	27,29
775,629	27,52
776,055	27,1
776,482	27,45
776,908	27,12
777,334	27,29
777,76	27,41
778,186	27,12
778,611	27,28
779,037	27,32
779,463	27,06
779,888	27,25
780,314	27,18
780,739	27,14
781,164	27,1
781,589	27,16
782,014	27,44
782,439	27,11
782,864	26,97
783,289	26,97
783,713	26,99
784,138	27,17
784,562	27,08
784,987	27,16
785,411	26,99
785,835	27,12
786,259	26,99
786,683	27,05
787,107	27,06
787,531	26,9
787,954	27,09
788,378	26,89
788,802	27,12
789,225	26,93
789,648	27,1
790,071	27,04
790,495	27,07
790,918	26,97
791,34	27,04
791,763	27,02
792,186	27,08
792,609	26,98
793,031	27,02
793,454	27,01
793,876	26,97
794,298	27
794,721	27,02
795,143	26,99
795,565	26,88
795,986	27
796,408	27,05
796,83	27,07
797,252	26,63
797,673	26,94
798,094	27,12
798,516	26,96
798,937	26,87
799,358	26,85
799,779	26,83
800,2	26,8
800,621	26,77
801,042	26,94
801,462	26,95
801,883	27,09
802,303	26,76
802,724	26,79
803,144	26,98
803,564	26,97
803,984	26,82
804,404	26,9
804,824	26,87
805,244	26,63
805,664	26,87
806,084	26,93
806,503	26,52
806,923	26,7
807,342	26,83
807,761	26,67
808,18	26,87
808,599	26,66
809,018	26,8
809,437	26,64
809,856	26,66
810,275	26,9
810,693	26,87
811,112	26,9
811,53	26,85
811,949	26,87
812,367	26,75
812,785	26,79
813,203	26,59
813,621	26,78
814,039	26,79
814,457	26,84
814,874	26,71
815,292	26,84
815,709	26,86
816,127	26,59
816,544	26,97
816,961	26,77
817,378	26,87
817,795	26,66
818,212	27,02
818,629	26,7
819,046	26,91
819,462	26,78
819,879	26,87
820,295	26,75
820,712	26,68
821,128	26,73
821,544	26,71
821,96	26,94
822,376	26,73
822,792	26,7
823,208	26,49
823,624	26,57
824,039	26,68
824,455	26,89
824,87	26,87
825,286	26,7
825,701	26,63
826,116	26,69
826,531	26,73
826,946	26,67
827,361	26,77
827,776	26,83
828,19	26,56
828,605	26,72
829,02	26,59
829,434	26,54
829,848	26,76
830,263	26,55
830,677	26,19
831,091	26,8
831,505	26,64
831,919	26,84
832,332	26,48
832,746	26,69
833,16	26,57
833,573	26,54
833,987	26,59
834,4	26,57
834,813	26,85
835,226	26,46
835,639	26,53
836,052	26,66
836,465	26,68
836,878	26,4
837,29	26,69
837,703	26,53
838,116	26,51
838,528	26,35
838,94	26,5
839,352	26,71
839,765	26,53
840,177	26,72
840,589	26,56
841	26,44
841,412	26,61
841,824	26,47
842,235	26,83
842,647	26,46
843,058	26,47
843,47	26,55
843,881	26,47
844,292	26,37
844,703	26,47
845,114	26,5
845,525	26,83
845,935	26,59
846,346	26,39
846,757	26,46
847,167	26,5
847,577	26,58
847,988	26,39
848,398	26,7
848,808	26,16
