Data from A_6__Relative__6__00014.txt Node

Date: Mon Jan 29 18:02:58 CET 2024
User: diatiterra
Spectrometer: HDX00911
Trigger mode: 0
Integration Time (sec): 6,000000E-3
Scans to average: 2
Nonlinearity correction enabled: false
Boxcar width: 0
Storing dark spectrum: false
XAxis mode: Wavelengths
Number of Pixels in Spectrum: 2068
>>>>>Begin Spectral Data<<<<<
194,468	95,1
195,025	64,6
195,581	91,49
196,138	71,54
196,694	82,76
197,251	77,33
197,807	74
198,363	67,64
198,919	69,4
199,474	67,14
200,03	62,5
200,586	57,48
201,141	68,54
201,696	66,09
202,251	66,42
202,806	68,8
203,361	60,7
203,916	63,7
204,471	57,75
205,025	67,14
205,58	62,01
206,134	71,11
206,688	59,42
207,242	64,63
207,796	63,39
208,35	63,9
208,904	56,27
209,457	65,34
210,011	62,59
210,564	64,93
211,117	63,73
211,67	66,9
212,223	59,59
212,776	75,66
213,329	61,51
213,881	66,79
214,434	65,17
214,986	61,28
215,538	68,86
216,09	56,39
216,642	64,44
217,194	59,93
217,746	68,35
218,297	60,74
218,849	50,16
219,4	67,83
219,951	68,73
220,502	64,11
221,053	62,7
221,604	67,79
222,155	65,02
222,705	67,89
223,256	70,5
223,806	59,52
224,356	67,75
224,906	62,96
225,456	58,97
226,006	56,04
226,556	64,96
227,106	71,68
227,655	66,2
228,204	66,12
228,754	57,24
229,303	67,8
229,852	63,73
230,401	58,06
230,949	75,1
231,498	72,76
232,047	60,94
232,595	64,18
233,143	74,62
233,691	62,4
234,239	61,94
234,787	63,99
235,335	57,82
235,883	68,82
236,43	70,74
236,978	71,27
237,525	70,52
238,072	69
238,619	53,77
239,166	60,27
239,713	66,91
240,26	67,42
240,806	66,31
241,353	66,43
241,899	61,49
242,445	70,98
242,991	68,64
243,537	71,62
244,083	72,73
244,629	65,54
245,174	75,75
245,72	62,88
246,265	68,55
246,81	74,82
247,355	56,99
247,9	63,32
248,445	71,03
248,99	66,09
249,534	63,92
250,079	64,18
250,623	55,59
251,168	64,77
251,712	71,99
252,256	69,1
252,8	67,71
253,343	66,24
253,887	67,01
254,43	72,12
254,974	69,58
255,517	59,73
256,06	57,53
256,603	67,55
257,146	70,37
257,689	66,77
258,232	65,52
258,774	66,42
259,317	61,17
259,859	64,58
260,401	71,59
260,943	66,42
261,485	66,67
262,027	75,86
262,569	75,19
263,11	70,04
263,652	67,28
264,193	60,71
264,734	71,83
265,275	71,89
265,816	70,86
266,357	67,27
266,898	66,21
267,438	69,8
267,979	72
268,519	65,7
269,059	68,44
269,6	62,11
270,14	59,41
270,68	63,98
271,219	67,72
271,759	77,24
272,298	60
272,838	71,32
273,377	64,44
273,916	60,29
274,455	64,37
274,994	63,67
275,533	65,19
276,072	67,29
276,61	65,19
277,149	62,32
277,687	60,5
278,225	60,96
278,763	71,01
279,301	68,3
279,839	64,13
280,377	63,87
280,914	56,04
281,452	67,48
281,989	55,29
282,526	64,16
283,064	67,36
283,601	69,7
284,137	72,63
284,674	60,38
285,211	57,91
285,747	63,05
286,284	54,04
286,82	64,18
287,356	61,17
287,892	70,18
288,428	60,68
288,964	70,4
289,5	63,95
290,035	67,63
290,571	69,78
291,106	62,91
291,641	66,28
292,176	67,29
292,711	68,62
293,246	56,32
293,781	63,57
294,315	71,32
294,85	68,61
295,384	63,33
295,918	66,2
296,453	58,3
296,987	61,72
297,52	61,99
298,054	67,28
298,588	68,11
299,121	60,44
299,655	60,7
300,188	62,36
300,721	68,62
301,254	67,26
301,787	68,7
302,32	60,61
302,853	57,49
303,385	61,54
303,918	64,91
304,45	57,92
304,982	59,36
305,514	62,73
306,046	61,4
306,578	60
307,11	66,17
307,641	65,82
308,173	56,51
308,704	69,35
309,236	63,3
309,767	59,17
310,298	52,96
310,829	65,78
311,359	57,65
311,89	65,84
312,421	57,25
312,951	64,36
313,481	71,49
314,012	62,64
314,542	61,3
315,072	65,82
315,601	61,57
316,131	60,58
316,661	72,5
317,19	60,85
317,72	68,86
318,249	60,14
318,778	68,06
319,307	65,2
319,836	61,41
320,365	62,54
320,893	63,48
321,422	68,28
321,95	59,63
322,479	65,74
323,007	60,14
323,535	69,06
324,063	73,88
324,591	52
325,118	58,74
325,646	70,38
326,173	68,57
326,701	64
327,228	61,02
327,755	62,37
328,282	61,89
328,809	66,3
329,336	61,25
329,862	78,08
330,389	58,7
330,915	67,73
331,441	58,64
331,968	64,6
332,494	57,86
333,02	56,57
333,545	57,4
334,071	63,67
334,597	54,39
335,122	54,85
335,648	64,84
336,173	59,74
336,698	57,19
337,223	62,46
337,748	57,19
338,272	56,44
338,797	62,14
339,322	52,49
339,846	58,59
340,37	58,61
340,894	64,04
341,419	52,35
341,942	62,75
342,466	67,92
342,99	60,31
343,514	58,77
344,037	60,33
344,56	52,35
345,084	53,63
345,607	52,89
346,13	55,69
346,653	50,31
347,175	57,1
347,698	53,87
348,221	52,62
348,743	55,39
349,265	53,57
349,787	54,29
350,309	55,37
350,831	57,91
351,353	59,52
351,875	50,56
352,397	56,75
352,918	56,5
353,439	62,06
353,961	54,65
354,482	58,99
355,003	50,4
355,524	57,65
356,044	59,63
356,565	50,12
357,086	50,13
357,606	52,53
358,126	60,83
358,646	48,01
359,167	57,74
359,687	52,59
360,206	48,67
360,726	44,77
361,246	56,63
361,765	45,83
362,285	49,76
362,804	52
363,323	51,38
363,842	54,29
364,361	50,22
364,88	55,49
365,398	48,34
365,917	49,49
366,435	51,72
366,954	48,5
367,472	54,37
367,99	50,51
368,508	51,37
369,026	45,16
369,544	49,09
370,061	50,09
370,579	49,91
371,096	50,73
371,613	53,58
372,131	49,65
372,648	50,36
373,165	51,47
373,681	49,74
374,198	48,85
374,715	49,83
375,231	45,47
375,747	53,06
376,264	46,17
376,78	49,92
377,296	52,69
377,812	45,55
378,327	44
378,843	50,96
379,359	47,1
379,874	45,49
380,389	48,97
380,905	46,68
381,42	46,21
381,935	48,13
382,449	43,33
382,964	47,99
383,479	45,98
383,993	45,67
384,508	44,85
385,022	44,34
385,536	43,18
386,05	45,14
386,564	41,55
387,078	43,98
387,592	44,69
388,105	43,07
388,619	42,67
389,132	42,02
389,645	43,48
390,158	39,9
390,671	42,88
391,184	39,58
391,697	42,34
392,21	40,46
392,722	38,47
393,235	38,13
393,747	40,21
394,259	39,05
394,771	38,7
395,283	36,46
395,795	37,97
396,307	35,17
396,818	36,76
397,33	33,9
397,841	35,66
398,353	37,17
398,864	35,46
399,375	34,22
399,886	31,88
400,397	33,46
400,907	34,07
401,418	30,47
401,928	30,52
402,439	30,17
402,949	29,23
403,459	32,02
403,969	28,71
404,479	29,14
404,989	29,01
405,498	27,95
406,008	25,94
406,517	25,52
407,027	24,81
407,536	25,02
408,045	23,97
408,554	23,54
409,063	22,02
409,572	22,1
410,08	21,17
410,589	22,61
411,097	21,78
411,606	20,5
412,114	19,01
412,622	19,53
413,13	18,83
413,638	18,58
414,145	16,98
414,653	18,12
415,16	17,01
415,668	16,82
416,175	16,62
416,682	16,53
417,189	15,93
417,696	15,96
418,203	15,61
418,71	15,39
419,216	15,18
419,723	15,61
420,229	15,52
420,735	14,89
421,242	14,53
421,748	14,33
422,254	14,21
422,759	14,98
423,265	13,81
423,771	13,88
424,276	14,3
424,781	13,81
425,287	13,4
425,792	13,79
426,297	13,54
426,802	13,24
427,306	13,97
427,811	13,6
428,316	13,44
428,82	13,91
429,324	13,09
429,829	13,46
430,333	13,88
430,837	13,2
431,34	13,05
431,844	12,89
432,348	12,84
432,851	12,82
433,355	13,11
433,858	12,22
434,361	13,07
434,864	13,02
435,367	12,45
435,87	13
436,373	12,82
436,876	12,9
437,378	12,68
437,88	13,45
438,383	12,57
438,885	13,11
439,387	12,67
439,889	12,8
440,391	12,7
440,892	12,52
441,394	12,86
441,896	12,7
442,397	12,25
442,898	12,57
443,399	12,87
443,9	12,91
444,401	12,75
444,902	12,64
445,403	12,29
445,903	12,88
446,404	12,87
446,904	12,71
447,405	12,51
447,905	12,5
448,405	12,97
448,905	13,11
449,404	12,94
449,904	12,84
450,404	12,86
450,903	12,75
451,403	13,16
451,902	13,14
452,401	12,86
452,9	13,17
453,399	13,19
453,898	13,12
454,396	12,93
454,895	13,35
455,393	12,83
455,892	13,29
456,39	13,09
456,888	13
457,386	12,9
457,884	13,34
458,382	13,04
458,879	13,46
459,377	13,19
459,874	13,16
460,372	13,15
460,869	13,44
461,366	13,62
461,863	13,16
462,36	13,17
462,857	13,08
463,353	13,05
463,85	13,42
464,346	12,98
464,843	13,63
465,339	13,06
465,835	12,92
466,331	13,09
466,827	12,96
467,323	12,97
467,818	13,42
468,314	13,59
468,809	12,94
469,305	12,98
469,8	13,14
470,295	13,58
470,79	13,66
471,285	13,44
471,78	13,17
472,274	13,4
472,769	13,69
473,263	13,25
473,758	13,95
474,252	13,47
474,746	13,79
475,24	13,61
475,734	13,52
476,228	13,67
476,721	13,33
477,215	13,52
477,708	13,4
478,202	13,74
478,695	13,44
479,188	13,37
479,681	13,37
480,174	13,4
480,667	13,71
481,159	13,49
481,652	13,9
482,144	13,72
482,637	13,66
483,129	13,98
483,621	13,5
484,113	14,09
484,605	13,68
485,097	13,79
485,588	13,65
486,08	14,19
486,571	14,11
487,063	13,94
487,554	13,83
488,045	13,87
488,536	14,1
489,027	13,88
489,518	13,86
490,008	13,79
490,499	14,19
490,989	13,72
491,48	14,09
491,97	14,18
492,46	14,15
492,95	14,35
493,44	14,31
493,93	14,17
494,419	14,05
494,909	14,58
495,398	14,5
495,888	14,64
496,377	14,16
496,866	14,56
497,355	14,53
497,844	14,76
498,333	14,83
498,821	14,69
499,31	15,25
499,798	14,92
500,287	15,05
500,775	15,06
501,263	15,03
501,751	15,44
502,239	15,45
502,727	15,58
503,215	15,72
503,702	15,84
504,19	15,79
504,677	15,9
505,164	16,18
505,651	16,23
506,139	16,59
506,625	16,58
507,112	16,9
507,599	17,23
508,086	17,33
508,572	17,25
509,058	17,7
509,545	17,67
510,031	17,96
510,517	18,25
511,003	18,17
511,489	18,5
511,974	18,58
512,46	19,06
512,946	19,64
513,431	19,55
513,916	19,83
514,401	20,2
514,887	20,51
515,371	21,02
515,856	21,27
516,341	21,62
516,826	21,88
517,31	22,4
517,795	22,62
518,279	23,06
518,763	23,35
519,247	23,58
519,731	24,63
520,215	24,5
520,699	25,13
521,182	25,16
521,666	26,02
522,149	26,15
522,633	26,46
523,116	26,97
523,599	27,42
524,082	27,63
524,565	28,18
525,048	28,08
525,53	28,85
526,013	29,45
526,495	29,88
526,978	29,86
527,46	30,6
527,942	30,47
528,424	31,17
528,906	31,54
529,388	31,64
529,87	31,83
530,351	32,13
530,833	32,3
531,314	32,82
531,795	33,06
532,277	33,44
532,758	33,43
533,238	33,71
533,719	34,4
534,2	34,35
534,681	34,02
535,161	34,62
535,642	34,16
536,122	33,97
536,602	34,89
537,082	34,62
537,562	35,1
538,042	35,03
538,522	35,39
539,001	35,24
539,481	35,38
539,96	35,49
540,44	35,39
540,919	35,56
541,398	35,68
541,877	35,86
542,356	35,58
542,835	35,78
543,313	36,04
543,792	36,33
544,27	36,06
544,749	36,31
545,227	36,21
545,705	36,23
546,183	36,2
546,661	36,64
547,139	36,67
547,616	36,15
548,094	36,96
548,571	36,82
549,049	36,8
549,526	37,12
550,003	36,88
550,48	36,78
550,957	36,89
551,434	37,1
551,911	37,05
552,387	36,58
552,864	37,15
553,34	36,97
553,817	37,36
554,293	36,71
554,769	36,84
555,245	37,02
555,721	37,14
556,197	37,3
556,672	37,1
557,148	36,68
557,623	37,26
558,099	36,41
558,574	36,84
559,049	36,4
559,524	36,66
559,999	36,72
560,474	35,92
560,948	36,51
561,423	36,5
561,897	36,27
562,372	35,91
562,846	36,05
563,32	35,76
563,794	35,27
564,268	35,44
564,742	35,08
565,216	35,03
565,69	34,74
566,163	34,77
566,636	34,56
567,11	34,3
567,583	33,98
568,056	33,89
568,529	33,55
569,002	33,37
569,475	32,98
569,947	33,32
570,42	32,55
570,892	32,61
571,365	32,26
571,837	31,88
572,309	31,99
572,781	31,38
573,253	31,26
573,725	31,1
574,197	30,79
574,668	30,77
575,14	30,54
575,611	29,94
576,082	29,75
576,554	29,59
577,025	29,67
577,496	29,18
577,967	28,88
578,437	28,87
578,908	28,89
579,379	28,93
579,849	28,95
580,319	28,17
580,79	27,92
581,26	28,19
581,73	27,68
582,2	27,83
582,669	27,9
583,139	27,64
583,609	27,24
584,078	27,01
584,548	27,09
585,017	26,54
585,486	26,64
585,955	26,83
586,424	26,75
586,893	26,56
587,362	26,2
587,83	26,25
588,299	26,32
588,767	26,08
589,236	25,73
589,704	25,89
590,172	25,8
590,64	25,6
591,108	25,55
591,576	25,51
592,043	25,34
592,511	25,44
592,978	25,42
593,446	25,43
593,913	25,01
594,38	25,14
594,847	25,22
595,314	25
595,781	25,01
596,248	25,06
596,715	25,02
597,181	24,76
597,647	25,1
598,114	24,85
598,58	24,77
599,046	24,62
599,512	24,5
599,978	24,64
600,444	24,72
600,91	24,79
601,375	24,63
601,841	24,45
602,306	24,34
602,771	24,33
603,236	24,21
603,702	24,26
604,167	24,2
604,631	23,94
605,096	24,04
605,561	24,04
606,025	23,57
606,49	23,58
606,954	23,9
607,418	23,93
607,882	23,25
608,347	23,5
608,81	23,19
609,274	23,03
609,738	23,06
610,202	23,16
610,665	22,78
611,128	22,79
611,592	22,73
612,055	22,31
612,518	22,41
612,981	22,17
613,444	21,93
613,907	21,89
614,369	21,81
614,832	21,69
615,294	21,77
615,757	21,52
616,219	21,55
616,681	21,4
617,143	21,12
617,605	21,05
618,067	21,18
618,529	20,91
618,99	21,01
619,452	21,13
619,913	20,77
620,375	20,5
620,836	20,81
621,297	20,76
621,758	20,63
622,219	20,51
622,68	20,58
623,14	20,24
623,601	20,17
624,061	20,28
624,522	20,25
624,982	20,19
625,442	20,16
625,902	20,2
626,362	20,18
626,822	20,06
627,282	20,18
627,742	20,02
628,201	19,67
628,661	19,96
629,12	19,77
629,579	19,67
630,038	19,94
630,497	19,74
630,956	19,82
631,415	19,87
631,874	19,81
632,332	19,66
632,791	19,67
633,249	19,68
633,708	19,57
634,166	19,41
634,624	19,44
635,082	19,46
635,54	19,13
635,998	19,37
636,455	19,26
636,913	18,82
637,37	18,75
637,828	18,81
638,285	18,65
638,742	18,6
639,199	18,41
639,656	18,4
640,113	18,25
640,57	18,08
641,027	17,95
641,483	17,84
641,94	17,68
642,396	17,71
642,852	17,51
643,309	17,69
643,765	17,38
644,221	17,26
644,676	17,08
645,132	16,93
645,588	16,88
646,043	16,78
646,499	16,57
646,954	16,45
647,409	16,26
647,864	16,3
648,319	16,18
648,774	15,96
649,229	15,97
649,684	15,97
650,139	15,81
650,593	15,7
651,047	15,68
651,502	15,71
651,956	15,64
652,41	15,46
652,864	15,68
653,318	15,58
653,772	15,31
654,225	15,34
654,679	15,33
655,133	15,27
655,586	15,35
656,039	15,14
656,492	15,1
656,946	15,09
657,399	15,11
657,851	14,77
658,304	14,66
658,757	14,63
659,209	14,64
659,662	14,62
660,114	14,57
660,567	14,55
661,019	14,5
661,471	14,19
661,923	14,21
662,375	14,2
662,826	14,21
663,278	14,04
663,73	14,03
664,181	14,09
664,632	14,01
665,084	13,88
665,535	14,02
665,986	13,96
666,437	13,93
666,888	13,88
667,338	13,86
667,789	14,05
668,24	13,85
668,69	13,89
669,14	13,83
669,591	13,81
670,041	13,96
670,491	13,93
670,941	13,95
671,391	13,89
671,84	13,91
672,29	14,17
672,74	14,12
673,189	14,21
673,638	14,28
674,088	14,31
674,537	14,21
674,986	14,26
675,435	14,28
675,883	14,51
676,332	14,48
676,781	14,47
677,229	14,65
677,678	14,7
678,126	14,72
678,574	14,84
679,022	15
679,47	15,29
679,918	15,19
680,366	15,23
680,814	15,26
681,261	15,59
681,709	15,44
682,156	15,55
682,604	15,64
683,051	15,69
683,498	15,67
683,945	15,82
684,392	16,18
684,839	15,96
685,286	16,21
685,732	16,21
686,179	16,32
686,625	16,45
687,071	16,59
687,518	16,81
687,964	16,88
688,41	17,14
688,856	17,3
689,301	17,52
689,747	17,85
690,193	18,03
690,638	18,31
691,084	18,81
691,529	19,17
691,974	19,64
692,419	19,89
692,864	20,39
693,309	20,87
693,754	21,47
694,199	22,21
694,643	22,5
695,088	23,25
695,532	23,79
695,977	24,72
696,421	25,34
696,865	26,07
697,309	26,83
697,753	27,91
698,197	28,33
698,64	29,32
699,084	29,57
699,527	30,87
699,971	31,54
700,414	32,32
700,857	33,32
701,3	34,04
701,743	34,55
702,186	35,5
702,629	36,38
703,072	37,19
703,515	38,07
703,957	38,76
704,399	39,41
704,842	40,12
705,284	41,16
705,726	41,87
706,168	42,64
706,61	43,36
707,052	44,41
707,494	44,78
707,935	45,54
708,377	46,37
708,818	47,17
709,26	47,74
709,701	48,55
710,142	49,14
710,583	49,71
711,024	50,51
711,465	51,6
711,905	52,03
712,346	52,64
712,787	53,27
713,227	54,03
713,667	54,44
714,108	55,69
714,548	55,97
714,988	56,73
715,428	57,29
715,868	57,73
716,307	58,66
716,747	59,46
717,186	60,06
717,626	60,43
718,065	60,78
718,504	61
718,944	62
719,383	62,57
719,822	63,36
720,261	64,05
720,699	64,39
721,138	64,71
721,576	65,58
722,015	65,72
722,453	65,96
722,892	67,39
723,33	67,12
723,768	67,73
724,206	68,23
724,644	68,46
725,081	69,04
725,519	69,28
725,957	69,77
726,394	70,09
726,832	70,89
727,269	70,76
727,706	71,41
728,143	72,35
728,58	72,23
729,017	72,31
729,454	72,52
729,89	72,2
730,327	72,99
730,764	73,33
731,2	73,79
731,636	73,91
732,072	73,94
732,509	74,51
732,945	74,91
733,38	75,5
733,816	74,98
734,252	75,1
734,688	75,56
735,123	75,71
735,559	76,12
735,994	76,43
736,429	76,44
736,864	76,18
737,299	76,66
737,734	76,79
738,169	77,05
738,604	77,22
739,038	76,85
739,473	77,28
739,907	77,43
740,342	77,33
740,776	77,77
741,21	77,44
741,644	77,88
742,078	77,42
742,512	78,32
742,946	77,37
743,379	77,89
743,813	77,83
744,246	78,05
744,68	77,61
745,113	78,02
745,546	78,29
745,979	78,01
746,412	78,19
746,845	78,32
747,278	77,86
747,711	78,15
748,143	78,09
748,576	78,18
749,008	78,09
749,441	78,56
749,873	78,19
750,305	78,11
750,737	77,89
751,169	77,95
751,601	78,56
752,032	77,82
752,464	78,15
752,896	78,18
753,327	78,42
753,758	78,3
754,19	78,09
754,621	77,82
755,052	77,86
755,483	77,5
755,914	78,33
756,344	77,81
756,775	78,11
757,206	78,01
757,636	77,71
758,066	77,99
758,497	77,63
758,927	77,67
759,357	77,96
759,787	77,68
760,217	77,71
760,647	77,33
761,076	78,01
761,506	77,67
761,935	77,72
762,365	77,58
762,794	77,24
763,223	77,38
763,653	77,87
764,082	77,29
764,51	77,42
764,939	77,11
765,368	77,1
765,797	77,12
766,225	77,21
766,654	77,33
767,082	77,54
767,51	77,09
767,938	77
768,367	76,52
768,795	76,58
769,222	77,12
769,65	76,7
770,078	77,11
770,505	76,62
770,933	77,08
771,36	76,39
771,788	76,73
772,215	76,77
772,642	76,74
773,069	76,77
773,496	76,91
773,923	76,71
774,349	76,48
774,776	76,45
775,203	76,24
775,629	76,62
776,055	76,44
776,482	76,84
776,908	76,24
777,334	76,46
777,76	76,55
778,186	76,39
778,611	76,21
779,037	76,5
779,463	76,15
779,888	76,42
780,314	76,53
780,739	76,15
781,164	75,84
781,589	76,45
782,014	76,37
782,439	76,57
782,864	76,42
783,289	76,16
783,713	76,01
784,138	76,32
784,562	76,41
784,987	76,22
785,411	75,82
785,835	76,21
786,259	76,04
786,683	76,14
787,107	76,17
787,531	75,74
787,954	76,19
788,378	76,3
788,802	75,89
789,225	75,64
789,648	76,08
790,071	76,11
790,495	76,32
790,918	75,57
791,34	75,8
791,763	76,08
792,186	76,11
792,609	75,97
793,031	75,7
793,454	75,95
793,876	75,91
794,298	75,96
794,721	75,51
795,143	75,92
795,565	75,47
795,986	75,95
796,408	76,09
796,83	75,76
797,252	75,76
797,673	75,98
798,094	75,95
798,516	75,68
798,937	75,09
799,358	75,77
799,779	75,89
800,2	75,35
800,621	75,59
801,042	76,24
801,462	75,82
801,883	75,74
802,303	75,71
802,724	75,39
803,144	75,78
803,564	75,52
803,984	75,44
804,404	75,36
804,824	75,77
805,244	75,61
805,664	75,77
806,084	75,32
806,503	75,7
806,923	75,45
807,342	75,37
807,761	75,35
808,18	75,3
808,599	75,43
809,018	75,87
809,437	74,95
809,856	75,19
810,275	75,58
810,693	75,37
811,112	75,41
811,53	75,53
811,949	75,56
812,367	75,15
812,785	75,29
813,203	75,41
813,621	75,36
814,039	75,14
814,457	75,88
814,874	75,26
815,292	75,44
815,709	75,71
816,127	74,83
816,544	75,7
816,961	75,39
817,378	76
817,795	75,37
818,212	75,57
818,629	75,53
819,046	75,36
819,462	75,47
819,879	75,61
820,295	75,33
820,712	75,59
821,128	75,55
821,544	75,32
821,96	75,3
822,376	75,02
822,792	75,78
823,208	75,16
823,624	75,09
824,039	74,91
824,455	75,42
824,87	75,34
825,286	75,11
825,701	75,12
826,116	75,15
826,531	75,15
826,946	75,28
827,361	75,09
827,776	75,63
828,19	75,48
828,605	74,9
829,02	75,46
829,434	75,11
829,848	75
830,263	75,31
830,677	74,89
831,091	75,5
831,505	75,33
831,919	75,49
832,332	74,92
832,746	74,85
833,16	74,92
833,573	74,99
833,987	74,67
834,4	74,56
