Data from B_1__Relative__3__00020.txt Node

Date: Mon Jan 29 18:06:05 CET 2024
User: diatiterra
Spectrometer: HDX00911
Trigger mode: 0
Integration Time (sec): 6,000000E-3
Scans to average: 2
Nonlinearity correction enabled: false
Boxcar width: 0
Storing dark spectrum: false
XAxis mode: Wavelengths
Number of Pixels in Spectrum: 2068
>>>>>Begin Spectral Data<<<<<
194,468	50
195,025	32,74
195,581	57,45
196,138	50,77
196,694	45,4
197,251	43,56
197,807	50
198,363	42,55
198,919	40,21
199,474	39,64
200,03	34,19
200,586	40,48
201,141	40,07
201,696	33,56
202,251	41,33
202,806	42,48
203,361	45,26
203,916	43,15
204,471	39,08
205,025	40,36
205,58	36,2
206,134	41,48
206,688	40,94
207,242	45,24
207,796	47,46
208,35	32,49
208,904	40,68
209,457	41,88
210,011	37,06
210,564	46,18
211,117	33,8
211,67	42,61
212,223	41,44
212,776	44,57
213,329	37,11
213,881	36,07
214,434	34,83
214,986	40,4
215,538	47,99
216,09	40
216,642	41,48
217,194	41,72
217,746	41,75
218,297	40,94
218,849	37,38
219,4	42,66
219,951	39,27
220,502	35,19
221,053	41,69
221,604	47,65
222,155	41,98
222,705	41,47
223,256	46,4
223,806	41,84
224,356	42,75
224,906	42,22
225,456	43,1
226,006	32,55
226,556	49,27
227,106	44,76
227,655	40,77
228,204	42,11
228,754	43,79
229,303	38,98
229,852	40,2
230,401	37,63
230,949	45,91
231,498	45,9
232,047	39,73
232,595	40,43
233,143	50
233,691	45,2
234,239	42,54
234,787	34,62
235,335	41,16
235,883	41,58
236,43	42,59
236,978	45,09
237,525	39,55
238,072	41,7
238,619	35,62
239,166	39,39
239,713	42,38
240,26	42,7
240,806	37,59
241,353	44,88
241,899	39,81
242,445	47,55
242,991	42,86
243,537	47,19
244,083	40,36
244,629	36,15
245,174	42,16
245,72	39,46
246,265	42,4
246,81	44,89
247,355	35,29
247,9	40,83
248,445	47,24
248,99	42,91
249,534	36,08
250,079	38,43
250,623	35,93
251,168	45,3
251,712	43,26
252,256	40,86
252,8	54,86
253,343	45,22
253,887	39,46
254,43	46,84
254,974	44,41
255,517	47,65
256,06	44,18
256,603	44,91
257,146	46,8
257,689	34,49
258,232	37,93
258,774	39,11
259,317	39,19
259,859	39,11
260,401	46,97
260,943	45,15
261,485	43,26
262,027	47,93
262,569	50,75
263,11	45,49
263,652	42,65
264,193	45,71
264,734	42,86
265,275	49,4
265,816	43,88
266,357	48,92
266,898	35,49
267,438	47,45
267,979	44,73
268,519	32,85
269,059	40,78
269,6	44,21
270,14	37,95
270,68	39,85
271,219	44,56
271,759	42,91
272,298	37,82
272,838	50,39
273,377	41,85
273,916	46,21
274,455	44,44
274,994	41,37
275,533	40,27
276,072	38,35
276,61	43,69
277,149	33,33
277,687	48,04
278,225	36,3
278,763	38,41
279,301	41,51
279,839	44,93
280,377	46,72
280,914	41,39
281,452	54,07
281,989	46,42
282,526	45,52
283,064	46,88
283,601	46,97
284,137	43,07
284,674	47,55
285,211	37,05
285,747	40,68
286,284	37,89
286,82	42,2
287,356	35,05
287,892	45,26
288,428	39,66
288,964	53,07
289,5	50,68
290,035	40,29
290,571	42,54
291,106	47,64
291,641	42,15
292,176	50,38
292,711	47,59
293,246	39,35
293,781	36,06
294,315	45,59
294,85	41,97
295,384	52,96
295,918	36,24
296,453	47
296,987	45,17
297,52	36,64
298,054	40,44
298,588	50
299,121	38,46
299,655	44,91
300,188	43,35
300,721	40,69
301,254	43,77
301,787	41,06
302,32	50
302,853	41,81
303,385	50,55
303,918	44,56
304,45	41,31
304,982	41,43
305,514	53,14
306,046	40,35
306,578	48,93
307,11	38,29
307,641	48
308,173	40,15
308,704	40,23
309,236	40,82
309,767	42,08
310,298	38,33
310,829	41,83
311,359	45,2
311,89	42,35
312,421	46,38
312,951	38,18
313,481	44,58
314,012	39,93
314,542	41,78
315,072	35,64
315,601	43,42
316,131	43,07
316,661	41,67
317,19	39,15
317,72	40,66
318,249	34,46
318,778	37,64
319,307	32,09
319,836	43,29
320,365	35,83
320,893	35,11
321,422	36,57
321,95	34,07
322,479	47,75
323,007	36,96
323,535	42,64
324,063	38,06
324,591	29,33
325,118	35,66
325,646	37,31
326,173	47,86
326,701	33,45
327,228	41,85
327,755	39,78
328,282	41,89
328,809	34,44
329,336	38,06
329,862	49,62
330,389	29,35
330,915	36,88
331,441	41,69
331,968	32,3
332,494	38,13
333,02	37,59
333,545	35,38
334,071	40,67
334,597	40,2
335,122	36,45
335,648	35,16
336,173	33,66
336,698	34,93
337,223	39,59
337,748	35,09
338,272	36,63
338,797	41,1
339,322	28,57
339,846	32,42
340,37	30,77
340,894	39,04
341,419	34,9
341,942	31,88
342,466	34,13
342,99	29,23
343,514	28,9
344,037	31,8
344,56	33,23
345,084	30,6
345,607	38,3
346,13	38,77
346,653	30,5
347,175	33,55
347,698	32,74
348,221	38,37
348,743	33,53
349,265	28,57
349,787	30
350,309	35,81
350,831	40
351,353	33,07
351,875	30,9
352,397	30,58
352,918	27,4
353,439	35,77
353,961	34,08
354,482	36,52
355,003	33,78
355,524	36,99
356,044	36,94
356,565	33,42
357,086	33,59
357,606	34,7
358,126	29,2
358,646	29,6
359,167	33,66
359,687	32,55
360,206	29,88
360,726	24,69
361,246	30,36
361,765	28,29
362,285	30,81
362,804	28,44
363,323	26,61
363,842	30,24
364,361	29,44
364,88	33,12
365,398	29,58
365,917	30,39
366,435	28,76
366,954	27,45
367,472	27,51
367,99	29,57
368,508	28,91
369,026	26,16
369,544	28,91
370,061	28,82
370,579	25,14
371,096	25,91
371,613	27,16
372,131	30,63
372,648	29,96
373,165	28,6
373,681	25,39
374,198	26,07
374,715	27,95
375,231	25,12
375,747	30,58
376,264	27
376,78	27,91
377,296	25,95
377,812	25,07
378,327	23,41
378,843	27,62
379,359	24,35
379,874	28,55
380,389	27,79
380,905	26,13
381,42	26,76
381,935	24,4
382,449	23,76
382,964	25,33
383,479	26,69
383,993	22,12
384,508	24,12
385,022	23,69
385,536	23,04
386,05	25,72
386,564	22,56
387,078	23,87
387,592	24,69
388,105	22,12
388,619	22,91
389,132	22,53
389,645	23,28
390,158	23,01
390,671	22,94
391,184	21,01
391,697	21,7
392,21	22,63
392,722	21,19
393,235	22,01
393,747	21,81
394,259	20,85
394,771	19,88
395,283	19,51
395,795	20,57
396,307	18,82
396,818	19,59
397,33	18,21
397,841	20,03
398,353	17,46
398,864	18,84
399,375	17,91
399,886	19,25
400,397	17,52
400,907	18,99
401,418	15,09
401,928	16,03
402,439	17,03
402,949	17,32
403,459	16,81
403,969	16,21
404,479	14,95
404,989	13,27
405,498	14,63
406,008	14,51
406,517	14,27
407,027	12,76
407,536	12,3
408,045	12,84
408,554	12,59
409,063	11,76
409,572	11,27
410,08	11,18
410,589	10,15
411,097	10,17
411,606	10,28
412,114	9,35
412,622	9,75
413,13	9,62
413,638	9,4
414,145	9,2
414,653	8,75
415,16	8,95
415,668	8,05
416,175	7,97
416,682	8,2
417,189	7,94
417,696	8,07
418,203	8,27
418,71	7,46
419,216	7,52
419,723	7,56
420,229	7,37
420,735	7,49
421,242	7,52
421,748	7,61
422,254	7,49
422,759	7,39
423,265	6,92
423,771	6,71
424,276	7,08
424,781	6,82
425,287	7,24
425,792	7,09
426,297	6,89
426,802	6,25
427,306	6,48
427,811	6,32
428,316	7,06
428,82	6,96
429,324	6,26
429,829	6,68
430,333	6,39
430,837	6,42
431,34	6,35
431,844	6,54
432,348	6,32
432,851	6,26
433,355	6,12
433,858	5,85
434,361	6,13
434,864	6,33
435,367	6,75
435,87	6,45
436,373	6,22
436,876	6,01
437,378	5,95
437,88	5,96
438,383	5,95
438,885	6,36
439,387	6,04
439,889	6,03
440,391	6,22
440,892	6,05
441,394	5,58
441,896	5,96
442,397	5,95
442,898	5,94
443,399	6,26
443,9	6,25
444,401	6,08
444,902	6,06
445,403	6,13
445,903	5,99
446,404	6,02
446,904	5,96
447,405	6,13
447,905	5,95
448,405	6,23
448,905	6,45
449,404	6,21
449,904	5,94
450,404	6,08
450,903	6,41
451,403	6,11
451,902	6,5
452,401	6,14
452,9	6,24
453,399	6,29
453,898	6,28
454,396	6,15
454,895	6,41
455,393	6,19
455,892	6,25
456,39	6,25
456,888	5,91
457,386	6,33
457,884	6,33
458,382	6,74
458,879	6,35
459,377	6,18
459,874	6,72
460,372	6,34
460,869	6,47
461,366	6,23
461,863	6,49
462,36	6,16
462,857	6,22
463,353	6,28
463,85	6,15
464,346	6,72
464,843	6,31
465,339	6,41
465,835	6,23
466,331	6,06
466,827	6,03
467,323	6,03
467,818	6,4
468,314	6,33
468,809	6,19
469,305	6,11
469,8	6,17
470,295	6,19
470,79	6,24
471,285	6,48
471,78	5,99
472,274	6,23
472,769	6,13
473,263	6
473,758	6,43
474,252	6,17
474,746	6,12
475,24	6,09
475,734	6,39
476,228	6,27
476,721	6,34
477,215	6,18
477,708	6,25
478,202	6,38
478,695	6,3
479,188	6,06
479,681	6,12
480,174	6,33
480,667	6,32
481,159	6,51
481,652	6,56
482,144	6,44
482,637	6,37
483,129	6,46
483,621	6,33
484,113	6,52
484,605	6,42
485,097	6,41
485,588	6,45
486,08	6,61
486,571	6,65
487,063	6,66
487,554	6,53
488,045	6,56
488,536	6,64
489,027	6,61
489,518	6,77
490,008	6,64
490,499	6,7
490,989	6,45
491,48	6,8
491,97	6,78
492,46	6,65
492,95	6,9
493,44	6,61
493,93	6,72
494,419	6,88
494,909	6,94
495,398	6,96
495,888	6,86
496,377	7,18
496,866	7,15
497,355	7,12
497,844	7,34
498,333	7,18
498,821	7,58
499,31	7,51
499,798	7,65
500,287	7,48
500,775	7,69
501,263	7,38
501,751	7,85
502,239	7,97
502,727	7,87
503,215	8,02
503,702	8,15
504,19	8,25
504,677	8,38
505,164	8,46
505,651	8,37
506,139	8,76
506,625	8,81
507,112	9,22
507,599	8,96
508,086	9,32
508,572	9,36
509,058	9,45
509,545	9,74
510,031	9,87
510,517	10,29
511,003	10,24
511,489	10,56
511,974	10,87
512,46	11
512,946	11,53
513,431	11,37
513,916	11,61
514,401	11,65
514,887	12,3
515,371	12,63
515,856	12,7
516,341	12,92
516,826	13,47
517,31	13,64
517,795	13,96
518,279	14,14
518,763	14,61
519,247	14,94
519,731	15,07
520,215	15,18
520,699	15,64
521,182	15,79
521,666	16,31
522,149	16,37
522,633	16,71
523,116	17,16
523,599	17,73
524,082	17,62
524,565	18,15
525,048	18,33
525,53	18,66
526,013	18,95
526,495	19,19
526,978	19,13
527,46	19,96
527,942	20,46
528,424	20,11
528,906	20,39
529,388	20,55
529,87	20,55
530,351	21,22
530,833	21,48
531,314	21,32
531,795	21,91
532,277	21,95
532,758	21,85
533,238	21,9
533,719	22,41
534,2	22,43
534,681	22,23
535,161	22,68
535,642	22,62
536,122	22,68
536,602	22,78
537,082	23,21
537,562	22,85
538,042	22,49
538,522	23,13
539,001	23,2
539,481	22,91
539,96	23,08
540,44	23,56
540,919	23,37
541,398	23,4
541,877	23,5
542,356	23,22
542,835	23,56
543,313	23,76
543,792	23,83
544,27	23,68
544,749	23,86
545,227	23,73
545,705	23,96
546,183	23,92
546,661	24,26
547,139	23,97
547,616	23,87
548,094	24,49
548,571	24,51
549,049	24,11
549,526	24,07
550,003	24,35
550,48	24,07
550,957	24,34
551,434	24,36
551,911	24,34
552,387	24
552,864	24,38
553,34	24,32
553,817	24,52
554,293	24,34
554,769	24,33
555,245	24,26
555,721	24,51
556,197	24,36
556,672	24,21
557,148	24,29
557,623	24,29
558,099	24,08
558,574	24,17
559,049	24,16
559,524	24,1
559,999	24,04
560,474	23,77
560,948	23,62
561,423	23,96
561,897	23,76
562,372	23,76
562,846	23,45
563,32	23,41
563,794	23,46
564,268	23,18
564,742	22,69
565,216	22,92
565,69	22,52
566,163	22,84
566,636	22,61
567,11	22,39
567,583	21,96
568,056	22,32
568,529	21,82
569,002	21,88
569,475	21,41
569,947	21,38
570,42	20,98
570,892	21,01
571,365	20,67
571,837	20,56
572,309	20,67
572,781	20,3
573,253	20,08
573,725	19,85
574,197	19,98
574,668	19,59
575,14	19,51
575,611	19,28
576,082	19,16
576,554	18,84
577,025	18,83
577,496	18,64
577,967	18,35
578,437	18,41
578,908	18,11
579,379	17,87
579,849	18,01
580,319	17,72
580,79	17,71
581,26	17,72
581,73	17,29
582,2	17,45
582,669	17,33
583,139	17,37
583,609	16,85
584,078	16,86
584,548	16,74
585,017	16,77
585,486	16,53
585,955	16,67
586,424	16,44
586,893	16,41
587,362	16,34
587,83	16,32
588,299	16,26
588,767	16,11
589,236	16,07
589,704	16,07
590,172	15,79
590,64	15,79
591,108	15,67
591,576	15,85
592,043	15,52
592,511	15,7
592,978	15,5
593,446	15,6
593,913	15,37
594,38	15,25
594,847	15,3
595,314	15,29
595,781	15,23
596,248	15,2
596,715	14,97
597,181	15,05
597,647	14,9
598,114	14,93
598,58	15,13
599,046	14,92
599,512	14,95
599,978	14,97
600,444	14,83
600,91	14,8
601,375	14,7
601,841	14,77
602,306	14,59
602,771	14,65
603,236	14,51
603,702	14,66
604,167	14,42
604,631	14,29
605,096	14,37
605,561	14,29
606,025	14,24
606,49	14,1
606,954	14,07
607,418	14,04
607,882	13,96
608,347	13,99
608,81	13,77
609,274	13,76
609,738	13,54
610,202	13,65
610,665	13,53
611,128	13,39
611,592	13,29
612,055	13,13
612,518	13,2
612,981	13,02
613,444	12,78
613,907	12,86
614,369	12,76
614,832	12,71
615,294	12,56
615,757	12,59
616,219	12,52
616,681	12,36
617,143	12,28
617,605	12,13
618,067	12,15
618,529	12,02
618,99	11,98
619,452	11,94
619,913	11,69
620,375	11,88
620,836	11,72
621,297	11,8
621,758	11,73
622,219	11,6
622,68	11,5
623,14	11,48
623,601	11,65
624,061	11,39
624,522	11,35
624,982	11,55
625,442	11,42
625,902	11,37
626,362	11,36
626,822	11,37
627,282	11,16
627,742	11,28
628,201	11,38
628,661	11,24
629,12	11,19
629,579	11,24
630,038	11,12
630,497	11,27
630,956	11,03
631,415	11,2
631,874	11,03
632,332	10,94
632,791	10,89
633,249	10,86
633,708	10,96
634,166	11,05
634,624	10,85
635,082	10,88
635,54	10,68
635,998	10,76
636,455	10,51
636,913	10,63
637,37	10,53
637,828	10,3
638,285	10,23
638,742	10,1
639,199	10,15
639,656	10
640,113	9,95
640,57	9,74
641,027	9,68
641,483	9,59
641,94	9,52
642,396	9,53
642,852	9,48
643,309	9,23
643,765	8,98
644,221	9,03
644,676	8,83
645,132	8,79
645,588	8,74
646,043	8,6
646,499	8,43
646,954	8,44
647,409	8,37
647,864	8,29
648,319	8,16
648,774	8,12
649,229	8,11
649,684	8
650,139	7,87
650,593	7,84
651,047	7,87
651,502	7,92
651,956	7,74
652,41	7,7
652,864	7,66
653,318	7,66
653,772	7,56
654,225	7,64
654,679	7,64
655,133	7,61
655,586	7,56
656,039	7,49
656,492	7,47
656,946	7,36
657,399	7,28
657,851	7,31
658,304	7,1
658,757	7,1
659,209	7,09
659,662	7,05
660,114	6,89
660,567	6,85
661,019	6,88
661,471	6,82
661,923	6,72
662,375	6,79
662,826	6,71
663,278	6,6
663,73	6,55
664,181	6,59
664,632	6,58
665,084	6,45
665,535	6,56
665,986	6,52
666,437	6,48
666,888	6,53
667,338	6,41
667,789	6,49
668,24	6,49
668,69	6,5
669,14	6,43
669,591	6,55
670,041	6,64
670,491	6,5
670,941	6,59
671,391	6,62
671,84	6,72
672,29	6,65
672,74	6,71
673,189	6,73
673,638	6,8
674,088	6,95
674,537	6,89
674,986	7
675,435	7,02
675,883	7,1
676,332	7,27
676,781	7,26
677,229	7,25
677,678	7,36
678,126	7,55
678,574	7,61
679,022	7,73
679,47	7,66
679,918	7,92
680,366	7,84
680,814	7,89
681,261	8,11
681,709	8,15
682,156	8,27
682,604	8,47
683,051	8,5
683,498	8,49
683,945	8,68
684,392	8,7
684,839	8,85
685,286	8,88
685,732	9,05
686,179	9,13
686,625	9,3
687,071	9,41
687,518	9,5
687,964	9,72
688,41	9,91
688,856	10
689,301	10,24
689,747	10,59
690,193	10,67
690,638	10,92
691,084	11,38
691,529	11,71
691,974	12,11
692,419	12,4
692,864	12,74
693,309	13,26
693,754	13,64
694,199	14,18
694,643	14,67
695,088	15
695,532	15,59
695,977	16,23
696,421	16,59
696,865	17,3
697,309	17,9
697,753	18,19
698,197	18,8
698,64	19,32
699,084	19,94
699,527	20,53
699,971	21
700,414	21,48
700,857	22,2
701,3	22,47
701,743	23,12
702,186	23,79
702,629	24,26
703,072	24,49
703,515	25,15
703,957	25,87
704,399	26,1
704,842	26,62
705,284	27,18
705,726	27,81
706,168	28,01
706,61	28,46
707,052	29,06
707,494	29,47
707,935	29,77
708,377	30,31
708,818	30,67
709,26	31,05
709,701	31,46
710,142	31,84
710,583	32,25
711,024	32,66
711,465	32,94
711,905	33,64
712,346	33,67
712,787	34,27
713,227	34,61
713,667	34,81
714,108	35,16
714,548	35,82
714,988	36,43
715,428	36,41
715,868	36,77
716,307	37,01
716,747	37,53
717,186	37,76
717,626	38,05
718,065	38,28
718,504	38,46
718,944	39,04
719,383	39,21
719,822	39,74
720,261	40,02
720,699	39,9
721,138	40,23
721,576	40,69
722,015	40,76
722,453	40,99
722,892	41,5
723,33	41,59
723,768	41,91
724,206	42
724,644	42,17
725,081	42,28
725,519	42,49
725,957	42,73
726,394	43
726,832	43,03
727,269	43,35
727,706	43,59
728,143	43,92
728,58	43,81
729,017	44,16
729,454	44,15
729,89	43,88
730,327	44,34
730,764	44,55
731,2	44,8
731,636	44,41
732,072	44,44
732,509	45,07
732,945	45,16
733,38	45,09
733,816	44,94
734,252	45,23
734,688	45,36
735,123	45,45
735,559	45,55
735,994	45,66
736,429	45,67
736,864	45,65
737,299	45,81
737,734	45,71
738,169	45,76
738,604	45,99
739,038	45,99
739,473	46,3
739,907	46,15
740,342	46,15
740,776	46,26
741,21	46,09
741,644	45,99
742,078	46,28
742,512	46,31
742,946	46,14
743,379	46,26
743,813	46,13
744,246	46,31
744,68	46,46
745,113	46,13
745,546	46,35
745,979	46,04
746,412	46,25
746,845	46,05
747,278	45,97
747,711	46,1
748,143	45,98
748,576	46,28
749,008	46,21
749,441	46,11
749,873	46,1
750,305	46,04
750,737	45,83
751,169	46,19
751,601	46,37
752,032	45,81
752,464	45,96
752,896	45,88
753,327	46,09
753,758	45,85
754,19	45,92
754,621	45,89
755,052	45,61
755,483	45,54
755,914	45,84
756,344	46,02
756,775	45,81
757,206	45,53
757,636	45,43
758,066	45,66
758,497	45,86
758,927	45,44
759,357	45,53
759,787	45,63
760,217	45,16
760,647	45,39
761,076	45,47
761,506	45,56
761,935	45,35
762,365	45,36
762,794	45,15
763,223	45,11
763,653	45,32
764,082	45,32
764,51	45,07
764,939	44,75
765,368	45,32
765,797	44,86
766,225	45,23
766,654	44,91
767,082	45,15
767,51	44,92
767,938	44,89
768,367	44,94
768,795	44,65
769,222	44,82
769,65	44,87
770,078	44,93
770,505	44,98
770,933	44,63
771,36	44,37
771,788	44,69
772,215	44,84
772,642	44,94
773,069	44,63
773,496	44,73
773,923	44,62
774,349	44,75
774,776	44,39
775,203	44,3
775,629	44,79
776,055	44,4
776,482	44,62
776,908	44,34
777,334	44,4
777,76	44,49
778,186	44,59
778,611	44,22
779,037	44,5
779,463	44,16
779,888	44,31
780,314	44,32
780,739	44,14
781,164	44,33
781,589	44,33
782,014	44,28
782,439	44,15
782,864	44,23
783,289	44,3
783,713	44,06
784,138	44,31
784,562	44,11
784,987	44,28
785,411	43,92
785,835	44,07
786,259	43,98
786,683	44,1
787,107	44,24
787,531	44,1
787,954	44
788,378	44,26
788,802	44,09
789,225	43,72
789,648	44,2
790,071	43,95
790,495	44,32
790,918	43,82
791,34	43,96
791,763	44,43
792,186	44,13
792,609	44,05
793,031	44,14
793,454	44,11
793,876	43,89
794,298	43,71
794,721	43,88
795,143	44,19
795,565	43,96
795,986	43,89
796,408	44,16
796,83	44,32
797,252	43,75
797,673	44,1
798,094	44
798,516	44,09
798,937	43,78
799,358	43,85
799,779	43,94
800,2	43,76
800,621	43,64
801,042	44,15
801,462	43,93
801,883	43,85
802,303	43,73
802,724	44,04
803,144	43,86
803,564	43,78
803,984	43,88
804,404	43,72
804,824	43,84
805,244	43,76
805,664	43,74
806,084	43,85
806,503	43,81
806,923	43,8
807,342	43,85
807,761	43,56
808,18	43,91
808,599	43,71
809,018	43,59
809,437	43,75
809,856	43,67
810,275	43,61
810,693	43,75
811,112	43,95
811,53	43,69
811,949	43,65
812,367	43,53
812,785	43,73
813,203	43,42
813,621	43,67
814,039	43,61
814,457	43,58
814,874	43,65
815,292	43,66
815,709	43,87
816,127	43,25
816,544	43,88
816,961	43,33
817,378	43,86
817,795	43,49
818,212	43,58
818,629	43,54
819,046	43,75
819,462	43,57
819,879	43,7
820,295	43,52
820,712	43,61
821,128	43,63
821,544	43,6
821,96	43,6
822,376	43,76
822,792	43,54
823,208	43,41
823,624	43,38
824,039	43,69
824,455	43,59
824,87	43,76
825,286	43,68
825,701	43,63
826,116	43,48
826,531	43,48
826,946	43,4
827,361	43,49
827,776	43,96
828,19	43,25
828,605	43,61
829,02	43,38
829,434	43,47
829,848	43,42
830,263	43,48
830,677	43,47
831,091	43,8
831,505	43,41
831,919	43,58
832,332	43,53
832,746	43,45
833,16	43,32
833,573	43,27
833,987	43,17
834,4	43,3
834,813	43,43
835,226	43,33
835,639	43,19
836,052	43,36
836,465	43,58
836,878	43,55
837,29	43,33
837,703	43,36
838,116	43,58
838,528	42,97
838,94	43,15
839,352	43,19
839,765	43,07
840,177	43,37
840,589	43,38
841	43,19
841,412	43,29
841,824	43,31
842,235	43,69
842,647	43,42
843,058	43,34
