Data from C_2__Relative__2__00034.txt Node

Date: Mon Jan 29 18:11:06 CET 2024
User: diatiterra
Spectrometer: HDX00911
Trigger mode: 0
Integration Time (sec): 6,000000E-3
Scans to average: 2
Nonlinearity correction enabled: false
Boxcar width: 0
Storing dark spectrum: false
XAxis mode: Wavelengths
Number of Pixels in Spectrum: 2068
>>>>>Begin Spectral Data<<<<<
194,468	53,92
195,025	32,74
195,581	51,06
196,138	46,15
196,694	36,21
197,251	29,33
197,807	32,8
198,363	30,91
198,919	38,08
199,474	32,5
200,03	20,59
200,586	27,55
201,141	32,96
201,696	18,69
202,251	26,57
202,806	31,58
203,361	32,98
203,916	35,27
204,471	34,86
205,025	27,5
205,58	24,73
206,134	31,48
206,688	28,26
207,242	33,67
207,796	34,92
208,35	24,55
208,904	22,71
209,457	29,6
210,011	32,87
210,564	27,78
211,117	25,35
211,67	27,11
212,223	31,16
212,776	28,46
213,329	19,59
213,881	28,21
214,434	23,79
214,986	26,94
215,538	26,37
216,09	23,28
216,642	25,19
217,194	27,15
217,746	29,29
218,297	31,21
218,849	27,73
219,4	36,01
219,951	35,64
220,502	29,97
221,053	26,33
221,604	34,56
222,155	32,92
222,705	31,1
223,256	31,65
223,806	30,95
224,356	32,97
224,906	33,7
225,456	28,28
226,006	22,82
226,556	30,29
227,106	34,27
227,655	30,31
228,204	33,55
228,754	31,72
229,303	26,44
229,852	36,93
230,401	26,16
230,949	42,02
231,498	30,22
232,047	31,99
232,595	33,69
233,143	31,82
233,691	34
234,239	25,75
234,787	32,87
235,335	36,73
235,883	32,97
236,43	32,22
236,978	35,27
237,525	27,61
238,072	30,26
238,619	25,68
239,166	30,3
239,713	37,17
240,26	33,33
240,806	28,37
241,353	34,28
241,899	34,3
242,445	38,46
242,991	33,45
243,537	34,65
244,083	37,09
244,629	36,49
245,174	37,31
245,72	31,44
246,265	31,45
246,81	35,4
247,355	32,35
247,9	30,8
248,445	35,52
248,99	25,26
249,534	40,51
250,079	37,69
250,623	30,51
251,168	28,86
251,712	39,01
252,256	33,55
252,8	37,5
253,343	38,85
253,887	32,65
254,43	37,17
254,974	32,52
255,517	36,58
256,06	25,34
256,603	34,34
257,146	35,02
257,689	26,9
258,232	32,95
258,774	34,69
259,317	29,67
259,859	21,03
260,401	29,17
260,943	32,46
261,485	28,01
262,027	34,48
262,569	34,59
263,11	27,8
263,652	35,29
264,193	32,86
264,734	40,08
265,275	32,53
265,816	28,78
266,357	36,33
266,898	34,13
267,438	35,29
267,979	34,91
268,519	31,77
269,059	35,11
269,6	31,23
270,14	24,09
270,68	31,42
271,219	27,02
271,759	27,61
272,298	27,27
272,838	27,91
273,377	30
273,916	26,71
274,455	35,25
274,994	28,06
275,533	34,47
276,072	27,07
276,61	29,01
277,149	25,72
277,687	32,38
278,225	25,34
278,763	30,8
279,301	29,06
279,839	30,43
280,377	29,2
280,914	24,18
281,452	31,71
281,989	32,08
282,526	28,67
283,064	32,99
283,601	32,2
284,137	29,56
284,674	39,25
285,211	26,26
285,747	34,24
286,284	28,77
286,82	30,85
287,356	29,9
287,892	31,23
288,428	26,78
288,964	27,44
289,5	35,03
290,035	30,22
290,571	28,73
291,106	25,45
291,641	34,87
292,176	31,95
292,711	33,1
293,246	27,8
293,781	30,11
294,315	28,31
294,85	34,67
295,384	35,56
295,918	32,75
296,453	32,16
296,987	32,76
297,52	29,45
298,054	26,47
298,588	27,95
299,121	26,01
299,655	23,51
300,188	31,18
300,721	38,62
301,254	32,74
301,787	25,2
302,32	36,74
302,853	26,13
303,385	37
303,918	34,04
304,45	30,5
304,982	28,29
305,514	31,37
306,046	22,11
306,578	28,93
307,11	26,39
307,641	26,55
308,173	28,25
308,704	40,23
309,236	30,71
309,767	25
310,298	36,24
310,829	39,92
311,359	33,1
311,89	22,42
312,421	32,97
312,951	35,27
313,481	34,14
314,012	28,57
314,542	35,96
315,072	32
315,601	38,08
316,131	27,37
316,661	30
317,19	32,03
317,72	28,57
318,249	34,12
318,778	26,62
319,307	31,42
319,836	37,25
320,365	34,53
320,893	32,62
321,422	27,61
321,95	31,48
322,479	35,99
323,007	28,62
323,535	37,36
324,063	38,06
324,591	22,67
325,118	32,17
325,646	30,77
326,173	41,79
326,701	35,64
327,228	34,82
327,755	27,6
328,282	30,94
328,809	33,7
329,336	29,07
329,862	39,23
330,389	30,03
330,915	28,72
331,441	34,92
331,968	36,43
332,494	26,09
333,02	25,55
333,545	34,3
334,071	34,33
334,597	30,74
335,122	26,09
335,648	37,73
336,173	33,33
336,698	35,62
337,223	34,47
337,748	27,02
338,272	25,41
338,797	28,8
339,322	25,91
339,846	21,48
340,37	17,95
340,894	26,71
341,419	32,89
341,942	25,84
342,466	27,3
342,99	28,92
343,514	21,1
344,037	29,51
344,56	25,08
345,084	29,34
345,607	32,52
346,13	28
346,653	19,81
347,175	32,9
347,698	19,94
348,221	23,55
348,743	30,03
349,265	23,21
349,787	21,14
350,309	21,49
350,831	28,36
351,353	25,93
351,875	22,47
352,397	22,31
352,918	27,68
353,439	26,29
353,961	25,07
354,482	25,56
355,003	23,59
355,524	25,77
356,044	22,69
356,565	24,69
357,086	19,59
357,606	20,24
358,126	22,14
358,646	24,63
359,167	24,32
359,687	21,7
360,206	20,96
360,726	17,78
361,246	25,06
361,765	22,59
362,285	19,67
362,804	25,11
363,323	19,04
363,842	21,19
364,361	21,43
364,88	25,32
365,398	20,97
365,917	23,41
366,435	21,24
366,954	19,44
367,472	23,67
367,99	19,71
368,508	22,46
369,026	21,51
369,544	20,55
370,061	20,21
370,579	20,64
371,096	23,18
371,613	22,57
372,131	19,37
372,648	23,29
373,165	22,18
373,681	19,44
374,198	22,3
374,715	21,88
375,231	17,81
375,747	19,83
376,264	21,88
376,78	21,85
377,296	17,25
377,812	17,36
378,327	17,63
378,843	20,83
379,359	18,84
379,874	21,31
380,389	23,11
380,905	19,63
381,42	19,06
381,935	20,8
382,449	19,06
382,964	20,95
383,479	18,52
383,993	19,23
384,508	19,32
385,022	20,65
385,536	19,35
386,05	17,55
386,564	18,99
387,078	14,66
387,592	18,12
388,105	18,09
388,619	18,68
389,132	18,63
389,645	18,62
390,158	17,15
390,671	17,41
391,184	17,01
391,697	16,1
392,21	17,01
392,722	17,37
393,235	13,58
393,747	16,08
394,259	15,78
394,771	13,7
395,283	14,09
395,795	14,98
396,307	14,1
396,818	15,51
397,33	14,51
397,841	14,42
398,353	14
398,864	14,11
399,375	15,26
399,886	13,89
400,397	14,3
400,907	12,68
401,418	12,5
401,928	12,82
402,439	14,13
402,949	12,08
403,459	12,33
403,969	13,81
404,479	12,08
404,989	12,49
405,498	11,57
406,008	10,97
406,517	9,9
407,027	11,52
407,536	11,11
408,045	10,47
408,554	10,51
409,063	9,5
409,572	9,94
410,08	9,63
410,589	9,56
411,097	9,21
411,606	9,67
412,114	9,66
412,622	9,3
413,13	9,02
413,638	9,07
414,145	8,48
414,653	8,41
415,16	8,26
415,668	8,46
416,175	8,58
416,682	8,7
417,189	8,72
417,696	8,47
418,203	8,27
418,71	8,74
419,216	7,72
419,723	8,32
420,229	8,15
420,735	7,92
421,242	8,12
421,748	8,7
422,254	8,31
422,759	8
423,265	8,08
423,771	8,05
424,276	7,87
424,781	8,13
425,287	7,44
425,792	7,45
426,297	8,25
426,802	7,53
427,306	7,51
427,811	7,64
428,316	7,81
428,82	7,89
429,324	7,71
429,829	8,06
430,333	7,22
430,837	7,84
431,34	7,35
431,844	7,73
432,348	7,26
432,851	7,67
433,355	7,36
433,858	6,64
434,361	7,53
434,864	7,41
435,367	7,53
435,87	7,04
436,373	7,33
436,876	7,17
437,378	7,13
437,88	7,95
438,383	7,2
438,885	7,37
439,387	7,25
439,889	7,17
440,391	7,35
440,892	7,18
441,394	6,83
441,896	7,38
442,397	7,08
442,898	7,39
443,399	7,79
443,9	7,45
444,401	7,4
444,902	7,15
445,403	7,44
445,903	7,38
446,404	7,47
446,904	7,39
447,405	6,89
447,905	7,49
448,405	7,4
448,905	7,8
449,404	7,63
449,904	6,99
450,404	7,16
450,903	7,29
451,403	7,7
451,902	7,73
452,401	7,6
452,9	7,49
453,399	7,45
453,898	7,45
454,396	7,41
454,895	7,34
455,393	7,38
455,892	7,7
456,39	7,31
456,888	7,5
457,386	7,54
457,884	7,72
458,382	7,36
458,879	7,38
459,377	7,52
459,874	7,42
460,372	7,24
460,869	7,64
461,366	7,43
461,863	7,33
462,36	7,37
462,857	7,58
463,353	7,4
463,85	7,3
464,346	7,3
464,843	7,53
465,339	7,7
465,835	7,51
466,331	7,55
466,827	7,37
467,323	7,36
467,818	7,54
468,314	7,6
468,809	7,55
469,305	7,65
469,8	7,42
470,295	7,52
470,79	7,58
471,285	7,67
471,78	7,47
472,274	7,42
472,769	7,6
473,263	7,5
473,758	7,68
474,252	7,53
474,746	7,3
475,24	7,5
475,734	7,63
476,228	7,69
476,721	7,48
477,215	7,6
477,708	7,77
478,202	7,5
478,695	7,4
479,188	7,46
479,681	7,26
480,174	7,7
480,667	7,55
481,159	7,45
481,652	7,92
482,144	7,24
482,637	7,54
483,129	7,72
483,621	7,62
484,113	7,72
484,605	7,57
485,097	7,72
485,588	7,74
486,08	7,83
486,571	7,66
487,063	7,66
487,554	7,54
488,045	7,68
488,536	7,62
489,027	8
489,518	7,6
490,008	7,89
490,499	7,66
490,989	7,76
491,48	7,87
491,97	7,88
492,46	8,02
492,95	8,29
493,44	8,06
493,93	8,2
494,419	8,43
494,909	8,33
495,398	8,38
495,888	8,38
496,377	8,22
496,866	8,51
497,355	8,39
497,844	8,71
498,333	8,69
498,821	8,78
499,31	8,88
499,798	8,71
500,287	9,05
500,775	8,64
501,263	9,17
501,751	9,58
502,239	9,32
502,727	9,55
503,215	9,13
503,702	9,72
504,19	9,56
504,677	9,46
505,164	9,74
505,651	9,95
506,139	10,13
506,625	10,11
507,112	10,33
507,599	10,52
508,086	10,54
508,572	10,65
509,058	10,88
509,545	10,96
510,031	11,31
510,517	11,41
511,003	11,23
511,489	11,5
511,974	11,41
512,46	12,16
512,946	12,44
513,431	12,1
513,916	12,48
514,401	12,48
514,887	12,95
515,371	12,94
515,856	13,11
516,341	13,3
516,826	13,62
517,31	13,97
517,795	14,05
518,279	14,22
518,763	14,29
519,247	14,51
519,731	14,78
520,215	15,12
520,699	15,39
521,182	15,26
521,666	15,47
522,149	15,72
522,633	15,86
523,116	16,27
523,599	16,43
524,082	16,39
524,565	16,69
525,048	16,54
525,53	17,12
526,013	17,14
526,495	17,66
526,978	17,25
527,46	17,88
527,942	17,67
528,424	17,89
528,906	18
529,388	17,6
529,87	18,05
530,351	18,24
530,833	18,8
531,314	18,42
531,795	18,64
532,277	18,5
532,758	18,72
533,238	18,83
533,719	19,09
534,2	19,01
534,681	18,88
535,161	19,42
535,642	19,53
536,122	19,58
536,602	19,44
537,082	19,4
537,562	19,81
538,042	19,47
538,522	19,69
539,001	19,71
539,481	19,44
539,96	19,84
540,44	19,5
540,919	19,81
541,398	19,86
541,877	19,68
542,356	19,71
542,835	19,86
543,313	19,73
543,792	19,92
544,27	19,83
544,749	19,89
545,227	19,83
545,705	20,11
546,183	20,33
546,661	19,85
547,139	20,05
547,616	19,98
548,094	20,25
548,571	20,1
549,049	20,14
549,526	20,33
550,003	20,31
550,48	20,17
550,957	20,21
551,434	20,26
551,911	20,29
552,387	20,21
552,864	20,2
553,34	20,43
553,817	20,34
554,293	20,19
554,769	20,36
555,245	20,19
555,721	20,31
556,197	20,26
556,672	20,39
557,148	20,15
557,623	20,3
558,099	19,75
558,574	20,45
559,049	20,16
559,524	20,03
559,999	20,2
560,474	19,95
560,948	20,04
561,423	20,37
561,897	20,27
562,372	19,94
562,846	19,88
563,32	19,72
563,794	19,58
564,268	19,66
564,742	19,61
565,216	19,31
565,69	19,58
566,163	19,25
566,636	19,39
567,11	19,46
567,583	19,36
568,056	19,25
568,529	19,04
569,002	18,78
569,475	18,97
569,947	18,88
570,42	18,51
570,892	18,41
571,365	18,52
571,837	18,14
572,309	18,27
572,781	18,25
573,253	17,98
573,725	17,92
574,197	17,78
574,668	17,79
575,14	17,61
575,611	17,51
576,082	17,5
576,554	17,63
577,025	17,34
577,496	17,3
577,967	17,18
578,437	17,16
578,908	17,05
579,379	16,88
579,849	17,03
580,319	16,72
580,79	16,54
581,26	16,71
581,73	16,53
582,2	16,45
582,669	16,62
583,139	16,5
583,609	16,23
584,078	16,42
584,548	15,94
585,017	16,04
585,486	16,05
585,955	16,11
586,424	15,9
586,893	15,65
587,362	15,78
587,83	15,89
588,299	15,69
588,767	15,78
589,236	15,45
589,704	15,72
590,172	15,51
590,64	15,25
591,108	15,45
591,576	15,45
592,043	15,28
592,511	15,27
592,978	15,23
593,446	15,18
593,913	15,06
594,38	15,08
594,847	15,31
595,314	15,07
595,781	14,98
596,248	15,06
596,715	15,02
597,181	15,13
597,647	14,96
598,114	14,82
598,58	14,9
599,046	14,97
599,512	15,01
599,978	15,03
600,444	14,83
600,91	14,87
601,375	14,81
601,841	14,73
602,306	14,59
602,771	14,7
603,236	14,58
603,702	14,53
604,167	14,44
604,631	14,72
605,096	14,42
605,561	14,41
606,025	14,44
606,49	14,47
606,954	14,48
607,418	14,3
607,882	14,26
608,347	14,18
608,81	14,25
609,274	14,09
609,738	14,14
610,202	14,09
610,665	14,1
611,128	13,94
611,592	13,89
612,055	13,8
612,518	13,81
612,981	13,83
613,444	13,6
613,907	13,64
614,369	13,31
614,832	13,61
615,294	13,43
615,757	13,2
616,219	13,36
616,681	13,34
617,143	13,09
617,605	13,13
618,067	13,28
618,529	13,03
618,99	13,11
619,452	12,89
619,913	13,06
620,375	12,71
620,836	12,93
621,297	12,96
621,758	12,77
622,219	12,67
622,68	12,72
623,14	12,68
623,601	12,63
624,061	12,7
624,522	12,67
624,982	12,42
625,442	12,57
625,902	12,46
626,362	12,41
626,822	12,59
627,282	12,71
627,742	12,45
628,201	12,57
628,661	12,43
629,12	12,45
629,579	12,35
630,038	12,41
630,497	12,4
630,956	12,42
631,415	12,43
631,874	12,4
632,332	12,33
632,791	12,3
633,249	12,32
633,708	12,13
634,166	12,27
634,624	12,12
635,082	12,17
635,54	12,02
635,998	12,1
636,455	12
636,913	11,92
637,37	11,79
637,828	11,76
638,285	11,93
638,742	11,53
639,199	11,49
639,656	11,55
640,113	11,48
640,57	11,41
641,027	11,33
641,483	11,12
641,94	10,93
642,396	10,98
642,852	10,89
643,309	10,69
643,765	10,61
644,221	10,54
644,676	10,53
645,132	10,56
645,588	10,48
646,043	10,51
646,499	10,21
646,954	10,18
647,409	10,05
647,864	9,92
648,319	9,94
648,774	9,75
649,229	9,79
649,684	10,06
650,139	9,71
650,593	9,66
651,047	9,69
651,502	9,63
651,956	9,65
652,41	9,46
652,864	9,45
653,318	9,46
653,772	9,48
654,225	9,55
654,679	9,39
655,133	9,51
655,586	9,34
656,039	9,32
656,492	9,41
656,946	9,21
657,399	9,1
657,851	9,18
658,304	9,01
658,757	8,99
659,209	8,95
659,662	8,87
660,114	8,76
660,567	8,77
661,019	8,66
661,471	8,65
661,923	8,6
662,375	8,57
662,826	8,44
663,278	8,31
663,73	8,38
664,181	8,28
664,632	8,26
665,084	8,18
665,535	8,22
665,986	8,19
666,437	8,18
666,888	8,06
667,338	8,09
667,789	8,08
668,24	8,03
668,69	8,03
669,14	7,97
669,591	7,97
670,041	7,94
670,491	7,85
670,941	7,9
671,391	8,05
671,84	7,99
672,29	8,03
672,74	8,06
673,189	8
673,638	8,1
674,088	8,16
674,537	8,07
674,986	8,15
675,435	8,17
675,883	8,26
676,332	8,31
676,781	8,48
677,229	8,34
677,678	8,42
678,126	8,62
678,574	8,53
679,022	8,58
679,47	8,64
679,918	8,69
680,366	8,75
680,814	8,91
681,261	9,01
681,709	9,04
682,156	9,16
682,604	9,28
683,051	9,3
683,498	9,32
683,945	9,44
684,392	9,68
684,839	9,71
685,286	9,92
685,732	9,89
686,179	10,11
686,625	10,22
687,071	10,45
687,518	10,52
687,964	10,88
688,41	11,03
688,856	11,26
689,301	11,27
689,747	11,55
690,193	11,77
690,638	12,12
691,084	12,26
691,529	12,73
691,974	12,93
692,419	13,2
692,864	13,44
693,309	13,78
693,754	14,12
694,199	14,52
694,643	14,85
695,088	15,07
695,532	15,32
695,977	15,8
696,421	16,13
696,865	16,47
697,309	16,81
697,753	17,16
698,197	17,5
698,64	17,74
699,084	17,96
699,527	18,37
699,971	18,82
700,414	19,06
700,857	19,3
701,3	19,56
701,743	19,94
702,186	20,15
702,629	20,59
703,072	20,61
703,515	20,95
703,957	21,3
704,399	21,52
704,842	21,58
705,284	21,95
705,726	22,25
706,168	22,43
706,61	22,83
707,052	22,93
707,494	23,17
707,935	23,44
708,377	23,62
708,818	23,72
709,26	23,97
709,701	24,01
710,142	24,32
710,583	24,41
711,024	24,4
711,465	24,76
711,905	25,01
712,346	25,28
712,787	25,3
713,227	25,42
713,667	25,78
714,108	25,85
714,548	25,88
714,988	26,22
715,428	26,2
715,868	26,61
716,307	26,67
716,747	27,04
717,186	26,73
717,626	27,24
718,065	27,17
718,504	27,28
718,944	27,49
719,383	27,62
719,822	27,7
720,261	27,92
720,699	27,95
721,138	27,96
721,576	28,29
722,015	28,29
722,453	28,51
722,892	28,67
723,33	28,63
723,768	28,92
724,206	28,89
724,644	29,05
725,081	29,09
725,519	29,23
725,957	29,12
726,394	29,42
726,832	29,25
727,269	29,43
727,706	29,57
728,143	29,71
728,58	29,55
729,017	29,57
729,454	29,78
729,89	29,63
730,327	29,92
730,764	29,74
731,2	30,2
731,636	29,79
732,072	29,89
732,509	30,1
732,945	30,35
733,38	30,19
733,816	30,21
734,252	30,32
734,688	30,4
735,123	30,17
735,559	30,31
735,994	30,4
736,429	30,38
736,864	30,49
737,299	30,26
737,734	30,52
738,169	30,27
738,604	30,69
739,038	30,42
739,473	30,57
739,907	30,66
740,342	30,69
740,776	30,53
741,21	30,51
741,644	30,61
742,078	30,41
742,512	30,6
742,946	30,48
743,379	30,46
743,813	30,49
744,246	30,41
744,68	30,66
745,113	30,38
745,546	30,82
745,979	30,4
746,412	30,65
746,845	30,45
747,278	30,45
747,711	30,38
748,143	30,5
748,576	30,53
749,008	30,16
749,441	30,39
749,873	30,1
750,305	30,43
750,737	30,23
751,169	30,2
751,601	30,25
752,032	30,16
752,464	30,16
752,896	30,17
753,327	30,24
753,758	30,19
754,19	30,46
754,621	29,98
755,052	30,13
755,483	30,11
755,914	29,86
756,344	30,02
756,775	30,11
757,206	30,19
757,636	30,05
758,066	30,07
758,497	29,95
758,927	29,97
759,357	29,97
759,787	30,03
760,217	29,78
760,647	29,83
761,076	29,84
761,506	29,97
761,935	29,75
762,365	29,85
762,794	29,78
763,223	29,82
763,653	29,67
764,082	29,81
764,51	29,84
764,939	29,61
765,368	29,64
765,797	29,51
766,225	29,52
766,654	29,69
767,082	29,88
767,51	29,84
767,938	29,71
768,367	29,54
768,795	29,32
769,222	29,66
769,65	29,54
770,078	29,58
770,505	29,33
770,933	29,42
771,36	29,33
771,788	29,47
772,215	29,42
772,642	29,55
773,069	29,43
773,496	29,35
773,923	29,41
774,349	29,45
774,776	29,52
775,203	29,23
775,629	29,38
776,055	29,27
776,482	29,24
776,908	29,37
777,334	29,5
777,76	29,08
778,186	29,04
778,611	29,31
779,037	29,3
779,463	29,25
779,888	29,31
780,314	29,25
780,739	29,32
781,164	29,12
781,589	29,36
782,014	29,39
782,439	28,99
782,864	29,26
783,289	29,26
783,713	29,07
784,138	29,12
784,562	29,25
784,987	29,13
785,411	28,94
785,835	29,13
786,259	29,1
786,683	29,17
787,107	29,21
787,531	28,98
787,954	29,09
788,378	28,81
788,802	28,99
789,225	28,99
789,648	29,03
790,071	29,06
790,495	29,19
790,918	28,95
791,34	29,05
791,763	29,18
792,186	29,09
792,609	28,94
793,031	28,73
793,454	28,96
793,876	29,06
794,298	28,79
794,721	28,89
795,143	28,99
795,565	29
795,986	29,03
796,408	28,95
796,83	29,04
797,252	29,01
797,673	28,96
798,094	28,88
798,516	29,21
798,937	28,65
799,358	29,01
799,779	28,86
800,2	28,78
800,621	28,71
801,042	29,08
801,462	29,09
801,883	29,2
802,303	28,82
802,724	28,75
803,144	28,92
803,564	28,94
803,984	28,87
804,404	28,93
804,824	28,96
805,244	28,72
805,664	29,08
806,084	28,96
806,503	28,85
806,923	28,91
807,342	28,93
807,761	28,61
808,18	28,71
808,599	28,8
809,018	28,91
809,437	28,91
809,856	28,83
810,275	28,88
810,693	28,7
811,112	28,88
811,53	28,97
811,949	28,73
812,367	28,63
812,785	28,81
813,203	28,72
813,621	28,79
814,039	28,82
814,457	29,06
814,874	28,72
815,292	28,89
815,709	28,69
816,127	28,76
816,544	28,82
816,961	28,77
817,378	28,92
817,795	28,7
818,212	28,74
818,629	28,87
819,046	29
819,462	28,66
819,879	28,75
820,295	28,75
820,712	28,91
821,128	28,86
821,544	28,7
821,96	28,87
822,376	28,8
822,792	28,64
823,208	28,47
823,624	28,63
824,039	28,82
824,455	28,85
824,87	28,81
825,286	28,67
825,701	28,84
826,116	28,88
826,531	28,78
826,946	28,61
827,361	28,87
827,776	28,67
828,19	28,61
828,605	28,75
829,02	28,76
829,434	28,53
829,848	28,68
830,263	28,79
830,677	28,67
831,091	28,71
831,505	28,68
831,919	28,58
832,332	28,57
832,746	28,69
833,16	28,57
833,573	28,76
833,987	28,56
834,4	28,48
834,813	28,65
835,226	28,49
835,639	28,6
836,052	28,6
836,465	28,54
836,878	28,43
837,29	28,64
837,703	28,56
838,116	28,62
838,528	28,53
838,94	28,51
839,352	28,64
839,765	28,58
840,177	28,59
840,589	28,5
841	28,61
841,412	28,61
841,824	28,51
842,235	28,61
