Data from C_2__Relative__3__00035.txt Node

Date: Mon Jan 29 18:11:14 CET 2024
User: diatiterra
Spectrometer: HDX00911
Trigger mode: 0
Integration Time (sec): 6,000000E-3
Scans to average: 2
Nonlinearity correction enabled: false
Boxcar width: 0
Storing dark spectrum: false
XAxis mode: Wavelengths
Number of Pixels in Spectrum: 2068
>>>>>Begin Spectral Data<<<<<
194,468	47,06
195,025	29,2
195,581	59,57
196,138	39,23
196,694	44,25
197,251	36
197,807	34,8
198,363	28
198,919	37,72
199,474	32,86
200,03	24,63
200,586	30,95
201,141	29,59
201,696	27,68
202,251	36,53
202,806	35,34
203,361	28,77
203,916	32,19
204,471	28,17
205,025	23,21
205,58	26,52
206,134	31,85
206,688	25,72
207,242	29,59
207,796	30,51
208,35	27,44
208,904	27,8
209,457	25,27
210,011	26,22
210,564	27,78
211,117	28,87
211,67	25,35
212,223	28,08
212,776	35,58
213,329	17,53
213,881	26,79
214,434	30
214,986	28,62
215,538	30,4
216,09	27,87
216,642	36,3
217,194	32,78
217,746	27,95
218,297	31,54
218,849	29,28
219,4	37,41
219,951	40,73
220,502	33,8
221,053	27,59
221,604	35,57
222,155	39,09
222,705	34,45
223,256	37,05
223,806	36,05
224,356	36,23
224,906	32,22
225,456	30
226,006	30,2
226,556	35,04
227,106	33,22
227,655	32,4
228,204	31,91
228,754	30,34
229,303	35,59
229,852	33,66
230,401	30,47
230,949	38,13
231,498	37,69
232,047	36,03
232,595	36,52
233,143	40,53
233,691	39,6
234,239	31,34
234,787	30,77
235,335	35,71
235,883	34,41
236,43	41,85
236,978	37,45
237,525	35,07
238,072	31,73
238,619	27,4
239,166	32,32
239,713	36,06
240,26	36,7
240,806	32,27
241,353	34,98
241,899	33,01
242,445	38,81
242,991	34,84
243,537	39,6
244,083	34,18
244,629	30,41
245,174	36,94
245,72	33,11
246,265	39,22
246,81	42,7
247,355	32,72
247,9	32,18
248,445	40
248,99	29,07
249,534	35,13
250,079	40,67
250,623	31,86
251,168	37,92
251,712	33,33
252,256	38,87
252,8	41,67
253,343	34,71
253,887	38,44
254,43	47,96
254,974	34,97
255,517	40,94
256,06	33,22
256,603	35,85
257,146	40,07
257,689	34,49
258,232	36,4
258,774	33,95
259,317	38,83
259,859	37,64
260,401	40,15
260,943	38,43
261,485	42,2
262,027	35,86
262,569	46,24
263,11	36,1
263,652	36,4
264,193	36,07
264,734	37,3
265,275	38,15
265,816	45,68
266,357	36,33
266,898	36,18
267,438	32,16
267,979	35,64
268,519	31,05
269,059	38,3
269,6	37,89
270,14	33,33
270,68	34,87
271,219	34,04
271,759	30,6
272,298	37,09
272,838	25,97
273,377	33,33
273,916	39,35
274,455	31,42
274,994	33,45
275,533	30,03
276,072	28,2
276,61	41,98
277,149	28,99
277,687	30,96
278,225	33,9
278,763	35,87
279,301	39,62
279,839	34,06
280,377	34,67
280,914	24,18
281,452	36,99
281,989	41,64
282,526	31,54
283,064	35,76
283,601	42,42
284,137	31,39
284,674	37,74
285,211	30,22
285,747	38,98
286,284	31,23
286,82	35,11
287,356	40,55
287,892	30,88
288,428	33,56
288,964	34,3
289,5	37,76
290,035	34,89
290,571	33,58
291,106	34,18
291,641	29,5
292,176	43,98
292,711	34,14
293,246	27,08
293,781	32,71
294,315	31,99
294,85	37,23
295,384	32,59
295,918	28,57
296,453	26,15
296,987	37,59
297,52	34,93
298,054	37,13
298,588	33,86
299,121	28,57
299,655	29,47
300,188	35,36
300,721	39,31
301,254	35,94
301,787	31,71
302,32	39,02
302,853	27,18
303,385	36,63
303,918	35,79
304,45	32,43
304,982	35,46
305,514	35,06
306,046	32,28
306,578	37,5
307,11	31,6
307,641	32,73
308,173	32,34
308,704	37,16
309,236	29,96
309,767	36,25
310,298	30,66
310,829	40,3
311,359	32,74
311,89	39,15
312,421	39,13
312,951	32,36
313,481	39,36
314,012	28,94
314,542	37,33
315,072	33,09
315,601	30,96
316,131	30,66
316,661	36,67
317,19	27,4
317,72	35,53
318,249	37,84
318,778	39,16
319,307	32,09
319,836	35,23
320,365	36,16
320,893	40,78
321,422	34,33
321,95	35,93
322,479	31,83
323,007	39,13
323,535	40
324,063	36,19
324,591	24
325,118	33,92
325,646	38,85
326,173	36,07
326,701	34,55
327,228	30,99
327,755	36,92
328,282	40,38
328,809	30,74
329,336	33,56
329,862	40,38
330,389	31,06
330,915	35,82
331,441	32,54
331,968	29,21
332,494	25,75
333,02	32,48
333,545	32,13
334,071	35,67
334,597	32,77
335,122	22,07
335,648	29,67
336,173	33,33
336,698	33,56
337,223	34,81
337,748	30,18
338,272	32,01
338,797	35,6
339,322	26,25
339,846	25,78
340,37	30,4
340,894	34,93
341,419	33,56
341,942	30,87
342,466	30,03
342,99	24
343,514	25,32
344,037	35,74
344,56	26,65
345,084	25,87
345,607	23,71
346,13	32,62
346,653	28,3
347,175	32,26
347,698	18,15
348,221	27,91
348,743	28,28
349,265	23,81
349,787	28,86
350,309	30,3
350,831	26,57
351,353	29,89
351,875	25,84
352,397	28,37
352,918	31,36
353,439	30,89
353,961	26,2
354,482	30,06
355,003	27,08
355,524	26,02
356,044	26,91
356,565	27,68
357,086	25,19
357,606	27,23
358,126	29,93
358,646	25,62
359,167	27,27
359,687	26,18
360,206	24,34
360,726	22,59
361,246	32,05
361,765	24,12
362,285	24,41
362,804	22,22
363,323	24,08
363,842	27,62
364,361	24,03
364,88	26,79
365,398	21,63
365,917	27,72
366,435	24,68
366,954	22,24
367,472	26,87
367,99	25,46
368,508	24,8
369,026	21,71
369,544	24,91
370,061	24,96
370,579	22,51
371,096	23,91
371,613	25,32
372,131	23,94
372,648	27,08
373,165	25,3
373,681	23,12
374,198	24,75
374,715	23,61
375,231	20,83
375,747	26,28
376,264	25,4
376,78	24,4
377,296	22,78
377,812	23
378,327	22,67
378,843	27,62
379,359	22,9
379,874	22,13
380,389	23,8
380,905	20,56
381,42	20,1
381,935	22
382,449	22,62
382,964	22,41
383,479	20,82
383,993	21,51
384,508	22,83
385,022	20,07
385,536	20,25
386,05	17,66
386,564	19,94
387,078	18,85
387,592	18,33
388,105	18,78
388,619	21,24
389,132	19,01
389,645	21,6
390,158	19,6
390,671	20,22
391,184	17,53
391,697	19,77
392,21	18,08
392,722	17,37
393,235	18,09
393,747	16,42
394,259	16,51
394,771	16,42
395,283	17,28
395,795	15,53
396,307	16,27
396,818	14,83
397,33	13,92
397,841	16,24
398,353	14,97
398,864	15,11
399,375	14,42
399,886	15,74
400,397	14,24
400,907	15,66
401,418	12,79
401,928	12,7
402,439	12,85
402,949	12,14
403,459	13,22
403,969	13,48
404,479	11,54
404,989	10,6
405,498	11,42
406,008	10,41
406,517	10,09
407,027	9,56
407,536	9,67
408,045	9,68
408,554	8,71
409,063	9,8
409,572	9,5
410,08	8,99
410,589	9,07
411,097	8,35
411,606	8,09
412,114	8,09
412,622	7,78
413,13	7,87
413,638	7,2
414,145	6,94
414,653	6,67
415,16	7,27
415,668	6,54
416,175	6,76
416,682	6,71
417,189	6,15
417,696	6,48
418,203	6,6
418,71	6,28
419,216	5,92
419,723	6,26
420,229	5,78
420,735	5,65
421,242	6,58
421,748	6,1
422,254	5,98
422,759	5,45
423,265	5,43
423,771	5,31
424,276	5,72
424,781	5,92
425,287	5,65
425,792	5,51
426,297	5,91
426,802	5,09
427,306	5,49
427,811	5,15
428,316	5,56
428,82	5,39
429,324	5,38
429,829	5,4
430,333	5,01
430,837	5,01
431,34	5,09
431,844	4,77
432,348	4,78
432,851	4,91
433,355	4,96
433,858	4,53
434,361	5,08
434,864	4,94
435,367	4,97
435,87	5,07
436,373	5,33
436,876	4,44
437,378	4,71
437,88	4,9
438,383	4,8
438,885	4,54
439,387	4,79
439,889	4,77
440,391	5,22
440,892	4,5
441,394	4,82
441,896	5,19
442,397	4,52
442,898	4,73
443,399	4,84
443,9	5,03
444,401	4,97
444,902	4,72
445,403	4,82
445,903	4,51
446,404	4,8
446,904	4,99
447,405	5,14
447,905	4,82
448,405	4,71
448,905	4,83
449,404	5,48
449,904	5,43
450,404	4,97
450,903	4,95
451,403	5,17
451,902	5,17
452,401	5,21
452,9	5,03
453,399	5,18
453,898	5,52
454,396	5,13
454,895	5,45
455,393	5,02
455,892	5,3
456,39	5,4
456,888	5,49
457,386	5,13
457,884	5,45
458,382	5,43
458,879	5,62
459,377	5,27
459,874	5,55
460,372	5,07
460,869	5,32
461,366	5,43
461,863	5,69
462,36	5,42
462,857	5,32
463,353	5,46
463,85	5,46
464,346	5,38
464,843	5,5
465,339	5,21
465,835	5,44
466,331	5,18
466,827	5,15
467,323	5,41
467,818	5,24
468,314	5,6
468,809	5,28
469,305	5,39
469,8	5,56
470,295	5,44
470,79	5,37
471,285	5,18
471,78	5,28
472,274	5,15
472,769	5,18
473,263	5,07
473,758	5,63
474,252	5,24
474,746	5,4
475,24	5,42
475,734	5,34
476,228	5,56
476,721	5,43
477,215	5,4
477,708	5,53
478,202	5,56
478,695	5,49
479,188	5,41
479,681	5,53
480,174	5,39
480,667	5,39
481,159	5,43
481,652	5,46
482,144	5,32
482,637	5,62
483,129	5,62
483,621	5,5
484,113	5,83
484,605	5,55
485,097	5,62
485,588	5,69
486,08	5,63
486,571	5,61
487,063	5,56
487,554	5,67
488,045	6,06
488,536	5,84
489,027	5,77
489,518	6,03
490,008	5,92
490,499	6,17
490,989	6,28
491,48	6,06
491,97	6,12
492,46	6,02
492,95	6,07
493,44	6,39
493,93	6,29
494,419	6,44
494,909	6,34
495,398	6,39
495,888	6,32
496,377	6,61
496,866	6,61
497,355	6,86
497,844	6,79
498,333	6,88
498,821	6,95
499,31	7,14
499,798	7,24
500,287	7,25
500,775	7,66
501,263	7,15
501,751	7,64
502,239	7,82
502,727	8,05
503,215	8,01
503,702	8,22
504,19	8,35
504,677	8,46
505,164	8,55
505,651	8,89
506,139	8,85
506,625	9,19
507,112	9,28
507,599	9,42
508,086	9,72
508,572	9,73
509,058	9,87
509,545	10,04
510,031	10,16
510,517	10,41
511,003	10,81
511,489	10,98
511,974	11,55
512,46	11,52
512,946	11,75
513,431	11,63
513,916	11,92
514,401	12,47
514,887	12,42
515,371	12,74
515,856	13,25
516,341	13,22
516,826	13,66
517,31	13,85
517,795	14,31
518,279	14,11
518,763	14,52
519,247	15,03
519,731	15,26
520,215	15,21
520,699	15,48
521,182	16,16
521,666	16,17
522,149	16,39
522,633	16,72
523,116	17,08
523,599	17,29
524,082	17,52
524,565	17,87
525,048	17,6
525,53	17,91
526,013	18,44
526,495	18,52
526,978	18,61
527,46	19,07
527,942	19,11
528,424	19,59
528,906	19,41
529,388	19,74
529,87	19,45
530,351	19,52
530,833	19,96
531,314	20,22
531,795	20,47
532,277	20,34
532,758	20,45
533,238	20,92
533,719	20,67
534,2	21,09
534,681	21,06
535,161	21,41
535,642	21,01
536,122	21,05
536,602	21,26
537,082	20,96
537,562	21,4
538,042	21,37
538,522	21,73
539,001	21,62
539,481	21,6
539,96	21,55
540,44	21,54
540,919	21,98
541,398	22,03
541,877	21,75
542,356	21,76
542,835	21,89
543,313	21,98
543,792	22,08
544,27	22,23
544,749	21,87
545,227	21,83
545,705	22,14
546,183	21,9
546,661	22,16
547,139	22,07
547,616	21,99
548,094	22,54
548,571	22,35
549,049	22,47
549,526	22,32
550,003	22,58
550,48	22,27
550,957	22,54
551,434	22,02
551,911	22,55
552,387	22,07
552,864	22,38
553,34	22,59
553,817	22,72
554,293	22,45
554,769	22,4
555,245	22,6
555,721	22,51
556,197	22,54
556,672	22,19
557,148	22,27
557,623	22,73
558,099	22,42
558,574	22,34
559,049	22,24
559,524	22,54
559,999	22,59
560,474	22,23
560,948	22,16
561,423	21,98
561,897	22,28
562,372	21,84
562,846	21,93
563,32	21,92
563,794	21,83
564,268	21,58
564,742	21,63
565,216	21,63
565,69	21,32
566,163	21,34
566,636	21,35
567,11	20,99
567,583	20,87
568,056	20,99
568,529	21
569,002	20,51
569,475	20,48
569,947	20,52
570,42	20,19
570,892	20,12
571,365	19,95
571,837	19,84
572,309	20,03
572,781	19,6
573,253	19,7
573,725	19,44
574,197	19,18
574,668	19,37
575,14	18,98
575,611	19
576,082	18,82
576,554	18,78
577,025	18,38
577,496	18,13
577,967	18,43
578,437	18,16
578,908	17,97
579,379	18,11
579,849	18,04
580,319	17,82
580,79	17,7
581,26	17,68
581,73	17,5
582,2	17,33
582,669	17,45
583,139	17,29
583,609	17,22
584,078	17,12
584,548	16,93
585,017	17,07
585,486	16,71
585,955	16,74
586,424	16,79
586,893	16,77
587,362	16,52
587,83	16,55
588,299	16,41
588,767	16,44
589,236	16,48
589,704	16,34
590,172	16,11
590,64	15,99
591,108	15,95
591,576	16
592,043	15,96
592,511	15,75
592,978	15,81
593,446	15,85
593,913	15,76
594,38	15,83
594,847	15,55
595,314	15,64
595,781	15,49
596,248	15,6
596,715	15,46
597,181	15,23
597,647	15,44
598,114	15,47
598,58	15,55
599,046	15,43
599,512	15,35
599,978	15,15
600,444	15,29
600,91	15,39
601,375	15,27
601,841	15,21
602,306	15,22
602,771	15,21
603,236	15,06
603,702	15,14
604,167	14,95
604,631	14,73
605,096	15,04
605,561	14,87
606,025	14,75
606,49	14,8
606,954	14,68
607,418	14,51
607,882	14,58
608,347	14,54
608,81	14,44
609,274	14,54
609,738	14,35
610,202	14,12
610,665	14,28
611,128	14,09
611,592	14,01
612,055	13,76
612,518	13,72
612,981	13,69
613,444	13,72
613,907	13,57
614,369	13,6
614,832	13,43
615,294	13,43
615,757	13,34
616,219	13,22
616,681	13,25
617,143	13,15
617,605	13,01
618,067	12,92
618,529	12,81
618,99	12,98
619,452	12,77
619,913	12,87
620,375	12,56
620,836	12,69
621,297	12,52
621,758	12,57
622,219	12,47
622,68	12,55
623,14	12,42
623,601	12,38
624,061	12,34
624,522	12,24
624,982	12,41
625,442	12,31
625,902	12,3
626,362	12,16
626,822	12,26
627,282	12,21
627,742	12,06
628,201	12,22
628,661	12,02
629,12	12,09
629,579	11,96
630,038	12,09
630,497	12,15
630,956	12,15
631,415	12,03
631,874	11,82
632,332	11,93
632,791	11,93
633,249	11,72
633,708	11,76
634,166	11,58
634,624	11,75
635,082	11,54
635,54	11,69
635,998	11,52
636,455	11,46
636,913	11,43
637,37	11,35
637,828	11,14
638,285	11
638,742	10,95
639,199	10,85
639,656	10,68
640,113	10,74
640,57	10,45
641,027	10,42
641,483	10,33
641,94	10,21
642,396	10,17
642,852	9,9
643,309	9,99
643,765	9,6
644,221	9,49
644,676	9,53
645,132	9,42
645,588	9,24
646,043	9,12
646,499	9
646,954	8,89
647,409	8,77
647,864	8,78
648,319	8,7
648,774	8,47
649,229	8,53
649,684	8,53
650,139	8,17
650,593	8,32
651,047	8,21
651,502	8,2
651,956	8,29
652,41	8,12
652,864	8,13
653,318	8,08
653,772	7,91
654,225	8,17
654,679	7,93
655,133	7,87
655,586	7,93
656,039	7,73
656,492	7,82
656,946	7,71
657,399	7,46
657,851	7,51
658,304	7,42
658,757	7,46
659,209	7,34
659,662	7,12
660,114	7,18
660,567	6,99
661,019	7,02
661,471	6,93
661,923	6,74
662,375	6,68
662,826	6,66
663,278	6,56
663,73	6,47
664,181	6,34
664,632	6,27
665,084	6,26
665,535	6,1
665,986	6,09
666,437	5,98
666,888	5,93
667,338	5,94
667,789	5,95
668,24	5,87
668,69	5,87
669,14	5,84
669,591	5,8
670,041	5,65
670,491	5,76
670,941	5,73
671,391	5,78
671,84	5,7
672,29	5,71
672,74	5,72
673,189	5,77
673,638	5,68
674,088	5,76
674,537	5,6
674,986	5,75
675,435	5,68
675,883	5,86
676,332	5,9
676,781	5,92
677,229	5,96
677,678	5,94
678,126	6,12
678,574	6,13
679,022	6,16
679,47	6,19
679,918	6,29
680,366	6,38
680,814	6,37
681,261	6,39
681,709	6,49
682,156	6,77
682,604	6,74
683,051	6,85
683,498	6,95
683,945	7,1
684,392	7,25
684,839	7,32
685,286	7,52
685,732	7,69
686,179	7,92
686,625	8,15
687,071	8,34
687,518	8,42
687,964	8,72
688,41	9,15
688,856	9,37
689,301	9,73
689,747	10,11
690,193	10,37
690,638	10,71
691,084	11,01
691,529	11,43
691,974	11,93
692,419	12,3
692,864	12,64
693,309	13,13
693,754	13,5
694,199	14
694,643	14,41
695,088	14,87
695,532	15,29
695,977	15,71
696,421	16,12
696,865	16,66
697,309	17,15
697,753	17,56
698,197	17,93
698,64	18,46
699,084	18,74
699,527	19,25
699,971	19,59
700,414	20,13
700,857	20,42
701,3	20,69
701,743	21,19
702,186	21,45
702,629	22,09
703,072	22,14
703,515	22,51
703,957	22,92
704,399	23,33
704,842	23,39
705,284	23,85
705,726	24,1
706,168	24,53
706,61	24,71
707,052	24,97
707,494	25,49
707,935	25,52
708,377	25,8
708,818	25,92
709,26	26,32
709,701	26,41
710,142	26,9
710,583	27,02
711,024	27,21
711,465	27,52
711,905	27,61
712,346	27,76
712,787	28,25
713,227	28,51
713,667	28,73
714,108	28,81
714,548	28,97
714,988	29,38
715,428	29,37
715,868	29,48
716,307	29,78
716,747	30,13
717,186	30,03
717,626	30,33
718,065	30,36
718,504	30,51
718,944	30,72
719,383	30,96
719,822	30,89
720,261	31,3
720,699	31,36
721,138	31,57
721,576	31,61
722,015	31,85
722,453	31,8
722,892	31,96
723,33	32,12
723,768	32,31
724,206	32,52
724,644	32,69
725,081	32,75
725,519	32,82
725,957	32,68
726,394	32,97
726,832	33,21
727,269	33,13
727,706	33,3
728,143	33,35
728,58	33,42
729,017	33,32
729,454	33,5
729,89	33,33
730,327	33,51
730,764	33,56
731,2	33,68
731,636	33,84
732,072	33,77
732,509	34,01
732,945	33,98
733,38	33,91
733,816	33,93
734,252	34,01
734,688	34,33
735,123	34,11
735,559	34,13
735,994	34,23
736,429	34,22
736,864	34,25
737,299	34,21
737,734	34,25
738,169	34,38
738,604	34,31
739,038	34,4
739,473	34,35
739,907	34,51
740,342	34,36
740,776	34,29
741,21	34,28
741,644	34,4
742,078	34,34
742,512	34,51
742,946	34,47
743,379	34,46
743,813	34,29
744,246	34,5
744,68	34,52
745,113	34,34
745,546	34,24
745,979	34,4
746,412	34,34
746,845	34,2
747,278	34,24
747,711	34,37
748,143	34,24
748,576	34,4
749,008	34,19
749,441	34,22
749,873	34,17
750,305	34,3
750,737	34,06
751,169	34,01
751,601	34,28
752,032	34,1
752,464	34,18
752,896	34,05
753,327	34,14
753,758	34,01
754,19	34,07
754,621	33,98
755,052	33,8
755,483	34,01
755,914	34,04
756,344	34,07
756,775	34
757,206	33,97
757,636	33,68
758,066	34,16
758,497	33,97
758,927	33,58
759,357	33,97
759,787	33,87
760,217	33,85
760,647	33,53
761,076	34,04
761,506	33,73
761,935	33,66
762,365	33,68
762,794	33,66
763,223	33,44
763,653	33,84
764,082	33,48
764,51	33,52
764,939	33,21
765,368	33,76
765,797	33,39
766,225	33,44
766,654	33,51
767,082	33,52
767,51	33,53
767,938	33,44
768,367	33,27
768,795	33,27
769,222	33,51
769,65	33,24
770,078	33,12
770,505	33,5
770,933	33,16
771,36	33,28
771,788	33,47
772,215	33,25
772,642	33,31
773,069	33,35
773,496	33,32
773,923	33,28
774,349	33,19
774,776	33,12
775,203	33,09
775,629	33,43
776,055	33,13
776,482	33,38
776,908	33,2
777,334	33,23
777,76	33,09
778,186	33
778,611	32,9
779,037	32,81
779,463	33,07
779,888	32,91
780,314	33,23
780,739	33,1
781,164	32,78
781,589	33,14
782,014	33,15
782,439	33,18
782,864	33,12
783,289	33,19
783,713	32,97
784,138	32,91
784,562	33,21
784,987	32,74
785,411	33,01
785,835	33,01
786,259	32,97
786,683	32,99
787,107	32,94
787,531	32,76
787,954	32,98
788,378	32,94
788,802	32,81
789,225	32,68
789,648	32,95
790,071	32,99
790,495	32,86
790,918	32,71
791,34	32,94
791,763	32,83
792,186	32,91
792,609	32,94
793,031	32,87
793,454	32,79
793,876	32,88
794,298	32,86
794,721	32,59
795,143	32,74
795,565	32,57
795,986	32,98
796,408	32,8
796,83	32,8
797,252	32,86
797,673	32,68
798,094	32,85
798,516	32,94
798,937	32,75
799,358	32,56
799,779	32,77
800,2	32,73
800,621	32,74
801,042	32,76
801,462	32,86
801,883	32,7
802,303	32,76
802,724	32,55
803,144	32,74
803,564	32,71
803,984	32,82
804,404	32,59
804,824	32,69
805,244	32,67
805,664	32,88
806,084	32,76
806,503	32,75
806,923	32,72
807,342	32,58
807,761	32,56
808,18	32,7
808,599	32,59
809,018	32,51
809,437	32,76
809,856	32,6
810,275	32,5
810,693	32,79
811,112	32,66
811,53	32,66
811,949	32,48
812,367	32,62
812,785	32,53
813,203	32,45
813,621	32,53
814,039	32,74
814,457	32,62
814,874	32,56
815,292	32,7
815,709	32,63
816,127	32,32
816,544	32,76
816,961	32,72
817,378	32,66
817,795	32,36
818,212	32,72
818,629	32,52
819,046	32,56
819,462	32,43
819,879	32,63
820,295	32,56
820,712	32,72
821,128	32,64
821,544	32,66
821,96	32,48
822,376	32,61
822,792	32,39
823,208	32,33
823,624	32,56
824,039	32,64
824,455	32,72
824,87	32,33
825,286	32,68
825,701	32,58
826,116	32,61
826,531	32,28
826,946	32,28
827,361	32,55
827,776	32,64
828,19	32,4
828,605	32,36
829,02	32,64
829,434	32,41
829,848	32,5
830,263	32,42
830,677	32,27
831,091	32,51
831,505	32,51
831,919	32,35
832,332	32,28
832,746	32,31
833,16	32,32
833,573	32,41
833,987	32,3
834,4	32,42
834,813	32,47
835,226	32,46
835,639	32,25
836,052	32,25
836,465	32,66
836,878	32,44
837,29	32,32
837,703	32,27
838,116	32,43
838,528	32,17
838,94	32,39
839,352	32,43
839,765	32,32
840,177	32,33
840,589	32,47
841	32,45
841,412	32,4
841,824	32,32
842,235	32,47
842,647	32,06
843,058	32,41
