Data from C_6__Relative__7__00056.txt Node

Date: Mon Jan 29 18:13:52 CET 2024
User: diatiterra
Spectrometer: HDX00911
Trigger mode: 0
Integration Time (sec): 6,000000E-3
Scans to average: 2
Nonlinearity correction enabled: false
Boxcar width: 0
Storing dark spectrum: false
XAxis mode: Wavelengths
Number of Pixels in Spectrum: 2068
>>>>>Begin Spectral Data<<<<<
194,468	58,82
195,025	47,79
195,581	61,7
196,138	50
196,694	55,75
197,251	47,56
197,807	46,8
198,363	40,73
198,919	46,26
199,474	36,43
200,03	34,19
200,586	36,73
201,141	45,32
201,696	28,72
202,251	46,86
202,806	48,5
203,361	37,54
203,916	44,52
204,471	39,79
205,025	35,36
205,58	37,28
206,134	39,26
206,688	37,68
207,242	38,78
207,796	38,98
208,35	42,24
208,904	35,93
209,457	42,96
210,011	38,11
210,564	32,64
211,117	34,86
211,67	44,72
212,223	36,99
212,776	48,31
213,329	41,24
213,881	39,64
214,434	42,41
214,986	37,37
215,538	41,03
216,09	38,69
216,642	41,85
217,194	40,07
217,746	42,09
218,297	37,58
218,849	35,51
219,4	43,01
219,951	48,36
220,502	33,8
221,053	38,87
221,604	43,96
222,155	40,74
222,705	40,13
223,256	41,73
223,806	47,96
224,356	43,84
224,906	40,37
225,456	40
226,006	36,91
226,556	45,62
227,106	40,56
227,655	36,24
228,204	41,45
228,754	41,72
229,303	40,68
229,852	39,87
230,401	35,84
230,949	53,31
231,498	41,42
232,047	36,03
232,595	41,84
233,143	43,94
233,691	39,6
234,239	36,57
234,787	33,22
235,335	39,46
235,883	38,35
236,43	34,44
236,978	38,91
237,525	42,16
238,072	41,7
238,619	31,85
239,166	39,73
239,713	40,52
240,26	36,33
240,806	44,68
241,353	44,17
241,899	38,19
242,445	44,06
242,991	37,63
243,537	40,59
244,083	42,55
244,629	36,82
245,174	40,67
245,72	38,13
246,265	38,87
246,81	41,24
247,355	41,91
247,9	37,37
248,445	45,17
248,99	37,02
249,534	37,03
250,079	35,82
250,623	38,64
251,168	36,91
251,712	42,55
252,256	38,21
252,8	42,01
253,343	41,08
253,887	45,24
254,43	51,67
254,974	42,66
255,517	45,64
256,06	32,53
256,603	35,85
257,146	40,74
257,689	35,44
258,232	43,68
258,774	33,95
259,317	42,86
259,859	31
260,401	44,7
260,943	39,18
261,485	43,97
262,027	42,76
262,569	45,49
263,11	42,96
263,652	39,71
264,193	40,36
264,734	42,46
265,275	40,96
265,816	39,93
266,357	41,73
266,898	32,76
267,438	38,04
267,979	38,55
268,519	41,16
269,059	43,26
269,6	42,81
270,14	39,27
270,68	37,16
271,219	38,6
271,759	43,28
272,298	32,36
272,838	37,98
273,377	45,19
273,916	34,66
274,455	38,7
274,994	40,29
275,533	38,23
276,072	37,97
276,61	37,54
277,149	31,88
277,687	41,99
278,225	44,18
278,763	40,58
279,301	40,75
279,839	39,13
280,377	44,53
280,914	31,5
281,452	41,46
281,989	44,71
282,526	41,58
283,064	52,08
283,601	41,67
284,137	41,61
284,674	45,66
285,211	37,41
285,747	36,61
286,284	42,81
286,82	38,65
287,356	40,21
287,892	43,51
288,428	37,97
288,964	44,04
289,5	42,52
290,035	43,53
290,571	47,76
291,106	40
291,641	37,55
292,176	43,23
292,711	48,97
293,246	41,52
293,781	40,89
294,315	43,38
294,85	40,88
295,384	45,93
295,918	46,69
296,453	43,82
296,987	43,45
297,52	44,52
298,054	39,71
298,588	42,13
299,121	41,76
299,655	37,19
300,188	41,06
300,721	46,55
301,254	44,48
301,787	37,4
302,32	45,83
302,853	37,28
303,385	39,93
303,918	48,07
304,45	37,45
304,982	39,84
305,514	43,17
306,046	35,79
306,578	39,29
307,11	42,38
307,641	39,64
308,173	37,92
308,704	45,59
309,236	38,95
309,767	32,92
310,298	35,89
310,829	42,21
311,359	38,43
311,89	36,3
312,421	30,8
312,951	42,91
313,481	40,16
314,012	43,22
314,542	38,01
315,072	38,91
315,601	42,7
316,131	37,96
316,661	37,92
317,19	39,5
317,72	40,66
318,249	33,11
318,778	36,88
319,307	33,11
319,836	42,62
320,365	35,18
320,893	40,07
321,422	41,79
321,95	36,3
322,479	38,06
323,007	41,67
323,535	40,38
324,063	39,18
324,591	30,33
325,118	35,31
325,646	40,38
326,173	47,5
326,701	33,45
327,228	42,49
327,755	31,9
328,282	37,36
328,809	37,41
329,336	34,26
329,862	40,77
330,389	39,93
330,915	38,65
331,441	29,15
331,968	36,77
332,494	32,78
333,02	45,26
333,545	36,1
334,071	34
334,597	40,54
335,122	36,79
335,648	37
336,173	37,62
336,698	33,56
337,223	43,69
337,748	29,82
338,272	37,62
338,797	40,13
339,322	33,89
339,846	26,17
340,37	34,07
340,894	39,04
341,419	40,94
341,942	39,93
342,466	41,3
342,99	31,69
343,514	34,74
344,037	37,38
344,56	34,8
345,084	33,44
345,607	37,08
346,13	37,54
346,653	32,7
347,175	35,81
347,698	31,85
348,221	32,85
348,743	37,32
349,265	38,1
349,787	35,71
350,309	34,71
350,831	36,42
351,353	38,36
351,875	36,24
352,397	33,88
352,918	35,31
353,439	33,88
353,961	39,15
354,482	38,48
355,003	34,85
355,524	34,18
356,044	32,98
356,565	35,41
357,086	31,55
357,606	34,7
358,126	33,33
358,646	35,07
359,167	37,1
359,687	29,72
360,206	35,9
360,726	27,62
361,246	37,11
361,765	30,7
362,285	32,94
362,804	37,78
363,323	33,49
363,842	36,67
364,361	32,9
364,88	33,33
365,398	37,31
365,917	34,09
366,435	33,69
366,954	33,67
367,472	35,18
367,99	32,03
368,508	38,09
369,026	29,26
369,544	33,64
370,061	33,92
370,579	35,08
371,096	36,5
371,613	34,86
372,131	36,44
372,648	35,74
373,165	36,22
373,681	38,88
374,198	30,98
374,715	34,38
375,231	31,32
375,747	34,71
376,264	33,23
376,78	33,65
377,296	34,02
377,812	31,6
378,327	30,07
378,843	36,19
379,359	28,7
379,874	30,46
380,389	32,87
380,905	30,5
381,42	31,07
381,935	31,73
382,449	31,26
382,964	35,57
383,479	33,59
383,993	33,65
384,508	31,5
385,022	29,17
385,536	29,53
386,05	30,46
386,564	30,85
387,078	27,64
387,592	31,87
388,105	27,53
388,619	30,68
389,132	28,33
389,645	32,22
390,158	26,51
390,671	28,56
391,184	26,48
391,697	27,38
392,21	25,93
392,722	26,46
393,235	27,41
393,747	27,97
394,259	26,73
394,771	25,66
395,283	25,48
395,795	25,93
396,307	24,17
396,818	25,34
397,33	24,5
397,841	24,66
398,353	24,98
398,864	23,5
399,375	21,76
399,886	22,82
400,397	22,56
400,907	23,03
401,418	20,16
401,928	20,34
402,439	21,98
402,949	20,82
403,459	19,86
403,969	19,6
404,479	19,01
404,989	19,83
405,498	17,45
406,008	16,89
406,517	17,15
407,027	16,5
407,536	16,45
408,045	15,58
408,554	15,59
409,063	15,24
409,572	14,23
410,08	14,2
410,589	14,32
411,097	12,97
411,606	13,49
412,114	13,83
412,622	12,5
413,13	12,14
413,638	11,37
414,145	11,44
414,653	11,32
415,16	10,92
415,668	10,91
416,175	10,26
416,682	10,59
417,189	10,39
417,696	10,32
418,203	10,1
418,71	9,61
419,216	9,26
419,723	9,56
420,229	8,61
420,735	9,64
421,242	9,62
421,748	8,97
422,254	8,9
422,759	8,57
423,265	8,74
423,771	8,22
424,276	8,88
424,781	8,88
425,287	8,95
425,792	8,78
426,297	8,59
426,802	8,35
427,306	8,64
427,811	8,76
428,316	8,65
428,82	8,68
429,324	8,61
429,829	8,45
430,333	8,54
430,837	8,2
431,34	8,39
431,844	8,21
432,348	7,92
432,851	8,1
433,355	8,08
433,858	7,78
434,361	7,79
434,864	7,99
435,367	7,66
435,87	7,54
436,373	7,55
436,876	7,55
437,378	7,84
437,88	8,1
438,383	8,39
438,885	7,91
439,387	8,02
439,889	7,31
440,391	8,17
440,892	7,67
441,394	7,74
441,896	7,74
442,397	7,52
442,898	7,74
443,399	8,03
443,9	8,16
444,401	7,75
444,902	7,97
445,403	7,66
445,903	7,96
446,404	8,24
446,904	8,24
447,405	7,95
447,905	7,88
448,405	8,09
448,905	7,99
449,404	8,34
449,904	8,16
450,404	7,95
450,903	8,03
451,403	8,39
451,902	8,14
452,401	8,48
452,9	8,03
453,399	8,73
453,898	8,47
454,396	8,06
454,895	8,11
455,393	8,35
455,892	8,3
456,39	8,79
456,888	8,72
457,386	8,25
457,884	8,8
458,382	8,47
458,879	8,52
459,377	8,55
459,874	8,58
460,372	8,65
460,869	8,46
461,366	8,15
461,863	8,76
462,36	8,84
462,857	8,56
463,353	8,57
463,85	8,77
464,346	8,74
464,843	8,73
465,339	8,44
465,835	8,7
466,331	8,71
466,827	8,53
467,323	8,58
467,818	8,89
468,314	8,84
468,809	8,62
469,305	9,03
469,8	8,79
470,295	8,85
470,79	9,05
471,285	8,29
471,78	8,33
472,274	8,77
472,769	8,46
473,263	8,64
473,758	8,79
474,252	8,74
474,746	8,43
475,24	8,89
475,734	8,62
476,228	8,91
476,721	8,62
477,215	8,77
477,708	9,01
478,202	8,74
478,695	8,72
479,188	8,79
479,681	8,61
480,174	8,59
480,667	8,85
481,159	8,78
481,652	8,9
482,144	8,83
482,637	9,09
483,129	8,94
483,621	8,84
484,113	9,02
484,605	9,04
485,097	9,22
485,588	8,91
486,08	9,33
486,571	9,17
487,063	9,34
487,554	9,08
488,045	9,14
488,536	9,51
489,027	9,16
489,518	9,35
490,008	9,47
490,499	9,03
490,989	9,25
491,48	9,85
491,97	9,46
492,46	9,24
492,95	9,93
493,44	9,95
493,93	10,01
494,419	10,05
494,909	10,04
495,398	10,2
495,888	9,97
496,377	10,15
496,866	10,47
497,355	10,5
497,844	10,4
498,333	10,81
498,821	10,79
499,31	11,21
499,798	10,95
500,287	11,13
500,775	11,49
501,263	11,43
501,751	11,86
502,239	11,99
502,727	12,15
503,215	12,15
503,702	12,38
504,19	12,5
504,677	12,62
505,164	12,86
505,651	12,87
506,139	13,41
506,625	13,36
507,112	13,24
507,599	13,75
508,086	13,7
508,572	14,15
509,058	14,2
509,545	14,79
510,031	14,8
510,517	15,41
511,003	15,44
511,489	15,46
511,974	15,91
512,46	16,18
512,946	16,62
513,431	16,59
513,916	16,9
514,401	17,38
514,887	17,59
515,371	17,49
515,856	18,16
516,341	18,97
516,826	18,95
517,31	19,03
517,795	19,58
518,279	19,57
518,763	19,96
519,247	20,11
519,731	20,85
520,215	20,92
520,699	21,36
521,182	21,26
521,666	22
522,149	22,1
522,633	22,62
523,116	23
523,599	22,98
524,082	23,45
524,565	23,66
525,048	23,46
525,53	23,84
526,013	24,72
526,495	24,79
526,978	24,83
527,46	25,7
527,942	25,6
528,424	25,46
528,906	25,72
529,388	26,18
529,87	26,23
530,351	26,11
530,833	26,61
531,314	26,48
531,795	26,74
532,277	26,88
532,758	26,8
533,238	27,22
533,719	27,35
534,2	27,32
534,681	27,05
535,161	27,54
535,642	27,73
536,122	27,38
536,602	28,06
537,082	27,91
537,562	28,57
538,042	27,94
538,522	28,12
539,001	27,68
539,481	27,8
539,96	28,37
540,44	28,3
540,919	28,39
541,398	27,99
541,877	28,6
542,356	28,3
542,835	28,37
543,313	28,5
543,792	28,63
544,27	28,44
544,749	28,78
545,227	28,47
545,705	28,52
546,183	28,84
546,661	28,7
547,139	28,27
547,616	28,46
548,094	28,63
548,571	28,66
549,049	28,92
549,526	28,91
550,003	28,7
550,48	29,08
550,957	28,75
551,434	28,71
551,911	29,21
552,387	29,06
552,864	28,84
553,34	28,96
553,817	28,93
554,293	28,96
554,769	29,11
555,245	29,1
555,721	28,86
556,197	29,02
556,672	28,93
557,148	28,88
557,623	29,01
558,099	28,81
558,574	28,93
559,049	29,03
559,524	28,46
559,999	28,99
560,474	28,43
560,948	28,89
561,423	28,72
561,897	28,93
562,372	28,76
562,846	28,63
563,32	27,87
563,794	28,47
564,268	27,87
564,742	27,96
565,216	27,99
565,69	27,58
566,163	28,01
566,636	27,56
567,11	27,38
567,583	27,13
568,056	27,84
568,529	26,92
569,002	26,95
569,475	26,96
569,947	26,63
570,42	26,65
570,892	26,46
571,365	26,29
571,837	26,27
572,309	26,09
572,781	25,72
573,253	25,75
573,725	25,67
574,197	25,88
574,668	25,15
575,14	25,05
575,611	24,59
576,082	24,8
576,554	24,61
577,025	24,49
577,496	24,13
577,967	24,3
578,437	24,2
578,908	23,9
579,379	23,91
579,849	23,89
580,319	23,59
580,79	23,37
581,26	23,66
581,73	23,45
582,2	23,46
582,669	23,2
583,139	23,18
583,609	22,65
584,078	22,59
584,548	22,46
585,017	22,28
585,486	22,49
585,955	22,47
586,424	22,14
586,893	22,05
587,362	22,04
587,83	21,86
588,299	21,88
588,767	21,94
589,236	21,68
589,704	22,11
590,172	21,53
590,64	21,46
591,108	21,36
591,576	21,52
592,043	21,18
592,511	21,22
592,978	21,29
593,446	21,21
593,913	21,17
594,38	20,99
594,847	20,81
595,314	20,96
595,781	20,94
596,248	20,78
596,715	20,96
597,181	20,86
597,647	20,77
598,114	20,66
598,58	20,81
599,046	20,73
599,512	20,78
599,978	20,94
600,444	20,62
600,91	20,72
601,375	20,48
601,841	20,54
602,306	20,55
602,771	20,54
603,236	20,43
603,702	20,35
604,167	20,17
604,631	19,97
605,096	20,36
605,561	20,02
606,025	19,79
606,49	19,87
606,954	19,86
607,418	19,8
607,882	19,66
608,347	19,57
608,81	19,48
609,274	19,42
609,738	19,29
610,202	19,4
610,665	19,27
611,128	19,18
611,592	18,96
612,055	18,94
612,518	18,86
612,981	18,55
613,444	18,52
613,907	18,62
614,369	18,49
614,832	18,48
615,294	18,2
615,757	17,92
616,219	17,99
616,681	17,94
617,143	17,82
617,605	17,66
618,067	17,77
618,529	17,67
618,99	17,4
619,452	17,64
619,913	17,38
620,375	17,32
620,836	17,39
621,297	17,33
621,758	17,14
622,219	16,99
622,68	16,89
623,14	17,07
623,601	16,84
624,061	16,94
624,522	16,75
624,982	16,74
625,442	16,76
625,902	16,87
626,362	16,74
626,822	16,72
627,282	16,64
627,742	16,66
628,201	16,73
628,661	16,46
629,12	16,6
629,579	16,66
630,038	16,54
630,497	16,4
630,956	16,61
631,415	16,5
631,874	16,37
632,332	16,51
632,791	16,39
633,249	16,21
633,708	16,3
634,166	16,16
634,624	16,1
635,082	16,06
635,54	16,06
635,998	15,8
636,455	15,85
636,913	15,65
637,37	15,55
637,828	15,38
638,285	15,35
638,742	15,34
639,199	15,32
639,656	15,15
640,113	14,81
640,57	14,77
641,027	14,69
641,483	14,57
641,94	14,37
642,396	14,47
642,852	14,15
643,309	14,03
643,765	13,72
644,221	13,87
644,676	13,54
645,132	13,45
645,588	13,31
646,043	13,39
646,499	12,92
646,954	13,09
647,409	12,75
647,864	12,86
648,319	12,64
648,774	12,35
649,229	12,41
649,684	12,26
650,139	12,14
650,593	12,14
651,047	12,14
651,502	12,11
651,956	11,87
652,41	12,03
652,864	11,89
653,318	11,95
653,772	11,85
654,225	11,74
654,679	11,64
655,133	11,68
655,586	11,62
656,039	11,46
656,492	11,37
656,946	11,38
657,399	11,16
657,851	11,08
658,304	11,06
658,757	10,93
659,209	10,97
659,662	10,87
660,114	10,71
660,567	10,6
661,019	10,55
661,471	10,3
661,923	10,25
662,375	10,16
662,826	10,21
663,278	9,96
663,73	9,93
664,181	9,84
664,632	9,77
665,084	9,76
665,535	9,59
665,986	9,62
666,437	9,54
666,888	9,55
667,338	9,48
667,789	9,25
668,24	9,46
668,69	9,38
669,14	9,28
669,591	9,22
670,041	9,31
670,491	9,31
670,941	9,43
671,391	9,39
671,84	9,39
672,29	9,47
672,74	9,49
673,189	9,59
673,638	9,53
674,088	9,63
674,537	9,66
674,986	9,77
675,435	9,87
675,883	9,97
676,332	10,03
676,781	10,09
677,229	10,07
677,678	10,21
678,126	10,38
678,574	10,44
679,022	10,53
679,47	10,72
679,918	10,92
680,366	10,94
680,814	11,08
681,261	11,14
681,709	11,35
682,156	11,42
682,604	11,51
683,051	11,75
683,498	11,6
683,945	11,83
684,392	12,27
684,839	12,33
685,286	12,54
685,732	12,8
686,179	12,94
686,625	12,98
687,071	13,14
687,518	13,61
687,964	13,79
688,41	14,07
688,856	14,39
689,301	14,65
689,747	15,18
690,193	15,37
690,638	15,69
691,084	16,23
691,529	16,56
691,974	17,09
692,419	17,59
692,864	18,07
693,309	18,43
693,754	18,8
694,199	19,49
694,643	19,8
695,088	20,62
695,532	20,96
695,977	21,54
696,421	21,99
696,865	22,72
697,309	22,96
697,753	23,39
698,197	24
698,64	24,5
699,084	24,82
699,527	25,2
699,971	25,89
700,414	26,39
700,857	26,8
701,3	27,17
701,743	27,35
702,186	27,91
702,629	28,47
703,072	28,7
703,515	29,23
703,957	29,48
704,399	29,84
704,842	30,01
705,284	30,61
705,726	30,96
706,168	31,28
706,61	31,37
707,052	31,97
707,494	32,21
707,935	32,51
708,377	32,61
708,818	33,01
709,26	33,16
709,701	33,43
710,142	33,56
710,583	34
711,024	34,18
711,465	34,55
711,905	34,84
712,346	34,93
712,787	35,14
713,227	35,44
713,667	35,52
714,108	35,68
714,548	35,96
714,988	36,28
715,428	36,28
715,868	36,36
716,307	36,9
716,747	37,18
717,186	37,31
717,626	37,34
718,065	37,63
718,504	37,29
718,944	37,86
719,383	38
719,822	38,29
720,261	38,44
720,699	38,53
721,138	38,56
721,576	39,06
722,015	38,99
722,453	39,03
722,892	39,54
723,33	39,35
723,768	39,49
724,206	39,54
724,644	39,65
725,081	39,7
725,519	39,85
725,957	39,72
726,394	40,35
726,832	39,93
727,269	40,42
727,706	40,57
728,143	40,47
728,58	40,55
729,017	40,49
729,454	40,5
729,89	40,87
730,327	40,78
730,764	40,65
731,2	40,91
731,636	40,79
732,072	40,64
732,509	40,9
732,945	41,09
733,38	41,18
733,816	40,87
734,252	41,16
734,688	41,33
735,123	41,22
735,559	41,46
735,994	41,42
736,429	41,03
736,864	41,05
737,299	41,33
737,734	41,49
738,169	41,25
738,604	41,16
739,038	41,28
739,473	41,33
739,907	41,48
740,342	41,69
740,776	41,2
741,21	41,13
741,644	41,07
742,078	41,36
742,512	41,84
742,946	41,19
743,379	41,34
743,813	41,16
744,246	41,36
744,68	41,09
745,113	41,31
745,546	41,34
745,979	41,28
746,412	41,21
746,845	41,13
747,278	40,74
747,711	41,17
748,143	41,11
748,576	41,07
749,008	40,86
749,441	41,09
749,873	40,85
750,305	41,09
750,737	40,79
751,169	40,87
751,601	40,73
752,032	40,61
752,464	40,64
752,896	40,86
753,327	40,82
753,758	40,9
754,19	40,44
754,621	40,47
755,052	40,52
755,483	40,63
755,914	40,43
756,344	40,4
756,775	40,3
757,206	40,53
757,636	40,08
758,066	40,33
758,497	40,18
758,927	40,32
759,357	40,23
759,787	40,2
760,217	39,94
760,647	39,85
761,076	39,94
761,506	39,9
761,935	40,29
762,365	40,05
762,794	39,8
763,223	39,82
763,653	40,13
764,082	39,9
764,51	39,86
764,939	39,51
765,368	39,86
765,797	39,55
766,225	39,79
766,654	39,61
767,082	39,9
767,51	39,38
767,938	39,68
768,367	39,22
768,795	39,35
769,222	39,5
769,65	39,38
770,078	39,44
770,505	39,44
770,933	39,6
771,36	39,29
771,788	39,2
772,215	39,41
772,642	39,38
773,069	39,39
773,496	39,11
773,923	39,29
774,349	39,24
774,776	39,19
775,203	38,93
775,629	39,22
776,055	39,01
776,482	39,36
776,908	38,96
777,334	38,97
777,76	39,05
778,186	39,04
778,611	38,9
779,037	38,99
779,463	39
779,888	39,12
780,314	39,08
780,739	38,84
781,164	38,87
781,589	39,03
782,014	38,87
782,439	38,91
782,864	38,93
783,289	38,78
783,713	38,77
784,138	38,97
784,562	38,74
784,987	38,87
785,411	38,44
785,835	38,76
786,259	38,46
786,683	38,52
787,107	38,77
787,531	38,68
787,954	38,75
788,378	38,58
788,802	38,67
789,225	38,74
789,648	38,64
790,071	38,56
790,495	38,69
790,918	38,45
791,34	38,53
791,763	38,51
792,186	38,58
792,609	38,5
793,031	38,5
793,454	38,57
793,876	38,43
794,298	38,33
794,721	38,64
795,143	38,57
795,565	38,44
795,986	38,34
796,408	38,7
796,83	38,45
797,252	38,35
797,673	38,45
798,094	38,55
798,516	38,56
798,937	38,3
799,358	38,34
799,779	38,47
800,2	38,38
800,621	38,39
801,042	38,31
801,462	38,37
801,883	38,37
802,303	38,15
802,724	38,58
803,144	38,55
803,564	38,4
803,984	38,09
804,404	38,29
804,824	38,47
805,244	38,19
805,664	38,35
806,084	38,48
806,503	38,44
806,923	38,27
807,342	38,36
807,761	38,1
808,18	38,37
808,599	38,03
809,018	38,34
809,437	38,28
809,856	38,3
810,275	38,21
810,693	38,21
811,112	38,25
811,53	38,48
811,949	38,2
812,367	38,03
812,785	38,09
813,203	38,13
813,621	38,09
814,039	38,12
814,457	38,07
814,874	38,3
815,292	38,27
815,709	38,33
816,127	37,81
816,544	38,26
816,961	38,1
817,378	38,25
817,795	38,21
818,212	38,11
818,629	37,93
819,046	38,26
819,462	38,03
819,879	38,11
820,295	38,08
820,712	38,36
821,128	38,29
821,544	38,13
821,96	38,05
822,376	37,97
822,792	38,35
823,208	38,02
823,624	38,06
824,039	38,07
824,455	37,97
824,87	38,01
825,286	38,21
825,701	38,07
826,116	38,17
826,531	37,94
826,946	38,12
827,361	38,07
827,776	38,16
828,19	37,97
828,605	38,07
829,02	37,86
829,434	38,16
829,848	38,08
830,263	38,1
830,677	38,03
831,091	38,01
831,505	37,91
831,919	38,11
832,332	37,79
832,746	38,16
833,16	37,82
833,573	37,75
833,987	37,91
834,4	38,24
834,813	37,8
835,226	37,91
835,639	37,63
836,052	37,88
836,465	37,86
836,878	38,09
837,29	37,86
837,703	37,68
838,116	37,85
838,528	37,88
838,94	37,27
