Data from E_4__Relative__3__00104.txt Node

Date: Mon Jan 29 18:19:45 CET 2024
User: diatiterra
Spectrometer: HDX00911
Trigger mode: 0
Integration Time (sec): 6,000000E-3
Scans to average: 2
Nonlinearity correction enabled: false
Boxcar width: 0
Storing dark spectrum: false
XAxis mode: Wavelengths
Number of Pixels in Spectrum: 2068
>>>>>Begin Spectral Data<<<<<
194,468	53,92
195,025	44,25
195,581	62,77
196,138	43,85
196,694	39,66
197,251	36
197,807	33,6
198,363	37,09
198,919	37,72
199,474	32,86
200,03	28,68
200,586	36,05
201,141	35,21
201,696	35,29
202,251	39,11
202,806	38,35
203,361	31,58
203,916	38,7
204,471	27,82
205,025	38,93
205,58	35,84
206,134	36,67
206,688	33,7
207,242	31,63
207,796	34,92
208,35	33,21
208,904	31,19
209,457	36,1
210,011	37,41
210,564	33,68
211,117	33,8
211,67	35,92
212,223	39,04
212,776	32,21
213,329	29,9
213,881	35
214,434	36,55
214,986	26,26
215,538	34,8
216,09	32,79
216,642	34,44
217,194	33,11
217,746	30,64
218,297	30,54
218,849	32,71
219,4	37,41
219,951	39,64
220,502	34,84
221,053	33,23
221,604	33,56
222,155	41,56
222,705	34,78
223,256	35,97
223,806	34,35
224,356	41,67
224,906	33,33
225,456	30,69
226,006	31,88
226,556	38,69
227,106	30,77
227,655	30,66
228,204	30,26
228,754	31,03
229,303	30,17
229,852	35,95
230,401	26,52
230,949	37,74
231,498	34,33
232,047	33
232,595	32,62
233,143	38,26
233,691	42
234,239	27,61
234,787	31,82
235,335	38,1
235,883	34,05
236,43	41,85
236,978	32
237,525	30,22
238,072	35,06
238,619	26,37
239,166	30,98
239,713	34,94
240,26	31,46
240,806	32,62
241,353	32,16
241,899	33,01
242,445	38,81
242,991	35,19
243,537	32,01
244,083	33,45
244,629	34,46
245,174	38,43
245,72	34,45
246,265	36,04
246,81	42,7
247,355	28,31
247,9	32,87
248,445	41,72
248,99	32,53
249,534	31,96
250,079	39,93
250,623	25,42
251,168	30,54
251,712	37,59
252,256	34,55
252,8	42,01
253,343	35,35
253,887	35,71
254,43	32,34
254,974	34,27
255,517	39,26
256,06	33,9
256,603	38,87
257,146	32,66
257,689	32,59
258,232	35,63
258,774	31
259,317	34,8
259,859	29,89
260,401	36,74
260,943	32,84
261,485	35,11
262,027	31,38
262,569	45,49
263,11	31,41
263,652	33,82
264,193	38,21
264,734	34,13
265,275	38,15
265,816	30,22
266,357	34,89
266,898	30,03
267,438	30,59
267,979	33,09
268,519	38,63
269,059	37,23
269,6	38,25
270,14	32,67
270,68	30,27
271,219	37,19
271,759	34,7
272,298	29,45
272,838	31,78
273,377	41,48
273,916	28,88
274,455	29,12
274,994	28,78
275,533	33,45
276,072	30,45
276,61	32,76
277,149	28,62
277,687	37,37
278,225	32,19
278,763	38,77
279,301	33,21
279,839	32,61
280,377	38,32
280,914	28,94
281,452	38,21
281,989	38,91
282,526	30,82
283,064	39,58
283,601	37,12
284,137	29,56
284,674	42,26
285,211	33,45
285,747	37,97
286,284	37,89
286,82	32,98
287,356	30,24
287,892	35,09
288,428	29,83
288,964	34,3
289,5	34,69
290,035	32,73
290,571	32,84
291,106	29,82
291,641	34,48
292,176	40,98
292,711	42,07
293,246	33,21
293,781	29
294,315	33,82
294,85	38,69
295,384	38,89
295,918	33,45
296,453	34,63
296,987	40,34
297,52	34,25
298,054	31,62
298,588	39,37
299,121	31,87
299,655	34,39
300,188	36,12
300,721	39,31
301,254	33,81
301,787	31,71
302,32	38,64
302,853	30,66
303,385	37
303,918	31,93
304,45	37,45
304,982	33,07
305,514	34,32
306,046	27,37
306,578	29,64
307,11	37,92
307,641	34,55
308,173	30,86
308,704	39,46
309,236	36,33
309,767	36,25
310,298	29,97
310,829	34,6
311,359	32,38
311,89	34,52
312,421	36,23
312,951	34,18
313,481	37,35
314,012	35,53
314,542	35,62
315,072	40
315,601	33,81
316,131	35,4
316,661	43,75
317,19	28,47
317,72	35,9
318,249	30,41
318,778	31,56
319,307	32,77
319,836	38,59
320,365	34,53
320,893	32,62
321,422	37,31
321,95	28,52
322,479	40,14
323,007	34,78
323,535	36,98
324,063	42,91
324,591	27,67
325,118	30,77
325,646	40
326,173	42,14
326,701	31,27
327,228	40,58
327,755	33,33
328,282	32,08
328,809	30,37
329,336	33,91
329,862	37,31
330,389	35,84
330,915	34,75
331,441	34,92
331,968	38,14
332,494	28,76
333,02	32,85
333,545	25,63
334,071	33
334,597	30,74
335,122	30,43
335,648	35,9
336,173	28,38
336,698	25,68
337,223	36,86
337,748	28,07
338,272	29,04
338,797	33,33
339,322	26,91
339,846	32,42
340,37	30,04
340,894	33,56
341,419	33,56
341,942	35,91
342,466	28,67
342,99	28,31
343,514	22,73
344,037	25,25
344,56	30,41
345,084	26,18
345,607	27,66
346,13	28,62
346,653	26,1
347,175	32,58
347,698	24,7
348,221	24,71
348,743	27,41
349,265	27,08
349,787	25,71
350,309	29,2
350,831	26,27
351,353	29,89
351,875	24,44
352,397	26,17
352,918	23,45
353,439	28,46
353,961	23,66
354,482	26,97
355,003	25,47
355,524	28,06
356,044	22,43
356,565	28,18
357,086	20,36
357,606	23,13
358,126	28,47
358,646	24,88
359,167	26,54
359,687	23,11
360,206	19,28
360,726	21,97
361,246	23,61
361,765	20,39
362,285	20,62
362,804	25,56
363,323	15,83
363,842	25,95
364,361	21,43
364,88	27,64
365,398	22,52
365,917	21,77
366,435	19,53
366,954	23,25
367,472	18,98
367,99	18,48
368,508	20,12
369,026	16,67
369,544	15,45
370,061	21,79
370,579	17,64
371,096	18,43
371,613	17,43
372,131	21,3
372,648	22,92
373,165	22,7
373,681	16,46
374,198	17,54
374,715	17,53
375,231	17,17
375,747	20,17
376,264	17,25
376,78	17,86
377,296	21,04
377,812	15,13
378,327	17,19
378,843	17,28
379,359	17,83
379,874	18,72
380,389	17,33
380,905	17,11
381,42	15,8
381,935	16,67
382,449	19,7
382,964	18,03
383,479	15,07
383,993	13,7
384,508	16,74
385,022	14,82
385,536	16,67
386,05	15,23
386,564	17,73
387,078	13,51
387,592	15,31
388,105	14,75
388,619	15,44
389,132	14,45
389,645	16,39
390,158	13,65
390,671	15,5
391,184	14,32
391,697	13,91
392,21	14,7
392,722	14,04
393,235	13,26
393,747	12,4
394,259	12,24
394,771	12,62
395,283	12,02
395,795	13,59
396,307	12,16
396,818	13,24
397,33	12,29
397,841	11,68
398,353	10,84
398,864	11,6
399,375	12,32
399,886	10,12
400,397	9,01
400,907	9,35
401,418	9,16
401,928	10,23
402,439	10,87
402,949	10,97
403,459	9,73
403,969	10,26
404,479	8,56
404,989	8,92
405,498	9,14
406,008	9,43
406,517	8,14
407,027	7,96
407,536	7,89
408,045	7,6
408,554	7,23
409,063	6,78
409,572	7,5
410,08	7,08
410,589	6,3
411,097	6,4
411,606	5,92
412,114	6,53
412,622	6,01
413,13	6,07
413,638	5,51
414,145	4,55
414,653	4,8
415,16	4,64
415,668	4,59
416,175	4,49
416,682	4,93
417,189	4,52
417,696	4,41
418,203	4,89
418,71	4,36
419,216	4,29
419,723	4,51
420,229	4,32
420,735	4,55
421,242	4,11
421,748	4,14
422,254	3,61
422,759	3,97
423,265	3,98
423,771	4,15
424,276	4,07
424,781	3,8
425,287	4,12
425,792	3,91
426,297	3,86
426,802	3,59
427,306	3,72
427,811	3,49
428,316	4
428,82	3,34
429,324	3,86
429,829	3,92
430,333	3,41
430,837	3,36
431,34	3,43
431,844	3,54
432,348	3,48
432,851	3,66
433,355	3,34
433,858	3,29
434,361	3,11
434,864	3,34
435,367	3,58
435,87	3,44
436,373	3,34
436,876	3,14
437,378	3,2
437,88	3,23
438,383	3,45
438,885	3,49
439,387	3
439,889	3,19
440,391	3,38
440,892	3,31
441,394	3,04
441,896	3,11
442,397	3,14
442,898	3,08
443,399	3,47
443,9	3,2
444,401	3,35
444,902	3,26
445,403	3,17
445,903	3,38
446,404	3,41
446,904	3,41
447,405	3,46
447,905	3,36
448,405	3,39
448,905	3,31
449,404	3,55
449,904	3,24
450,404	3,38
450,903	3,26
451,403	3,33
451,902	3,58
452,401	3,52
452,9	3,47
453,399	3,46
453,898	3,65
454,396	3,25
454,895	3,57
455,393	3,34
455,892	3,33
456,39	3,5
456,888	3,36
457,386	3,59
457,884	3,6
458,382	3,54
458,879	3,56
459,377	3,19
459,874	3,55
460,372	3,32
460,869	3,61
461,366	3,59
461,863	3,51
462,36	3,67
462,857	3,59
463,353	3,65
463,85	3,57
464,346	3,73
464,843	3,42
465,339	3,65
465,835	3,32
466,331	3,51
466,827	3,43
467,323	3,41
467,818	3,65
468,314	3,47
468,809	3,37
469,305	3,46
469,8	3,47
470,295	3,54
470,79	3,72
471,285	3,53
471,78	3,43
472,274	3,38
472,769	3,38
473,263	3,33
473,758	3,26
474,252	3,48
474,746	3,47
475,24	3,52
475,734	3,47
476,228	3,47
476,721	3,28
477,215	3,44
477,708	3,54
478,202	3,61
478,695	3,4
479,188	3,53
479,681	3,32
480,174	3,68
480,667	3,37
481,159	3,48
481,652	3,64
482,144	3,53
482,637	3,42
483,129	3,59
483,621	3,59
484,113	3,93
484,605	3,62
485,097	3,66
485,588	3,62
486,08	3,65
486,571	3,66
487,063	3,65
487,554	3,7
488,045	3,74
488,536	3,86
489,027	3,7
489,518	3,7
490,008	3,8
490,499	3,72
490,989	3,56
491,48	3,87
491,97	3,81
492,46	3,92
492,95	3,8
493,44	3,93
493,93	4,04
494,419	4,05
494,909	4,07
495,398	4,1
495,888	4,07
496,377	4,23
496,866	4,36
497,355	4,33
497,844	4,43
498,333	4,29
498,821	4,29
499,31	4,54
499,798	4,63
500,287	4,64
500,775	4,7
501,263	4,83
501,751	4,93
502,239	5
502,727	5,05
503,215	5,33
503,702	5,42
504,19	5,35
504,677	5,44
505,164	5,66
505,651	5,86
506,139	6,09
506,625	5,99
507,112	6,14
507,599	6,61
508,086	6,33
508,572	6,61
509,058	6,61
509,545	6,95
510,031	7,41
510,517	7,3
511,003	7,24
511,489	7,62
511,974	7,76
512,46	8
512,946	8,34
513,431	8,13
513,916	8,65
514,401	8,55
514,887	9,14
515,371	9,19
515,856	9,44
516,341	9,79
516,826	10,09
517,31	9,93
517,795	10,38
518,279	10,7
518,763	10,89
519,247	11,11
519,731	11,58
520,215	11,88
520,699	12,06
521,182	12,02
521,666	12,22
522,149	12,52
522,633	13,02
523,116	13,08
523,599	13,55
524,082	13,38
524,565	13,68
525,048	13,9
525,53	14,25
526,013	14,22
526,495	14,91
526,978	15,06
527,46	15,42
527,942	15,32
528,424	15,36
528,906	15,34
529,388	15,62
529,87	15,99
530,351	15,93
530,833	16,29
531,314	16,49
531,795	16,52
532,277	16,59
532,758	16,86
533,238	17,06
533,719	17,06
534,2	17,19
534,681	17,17
535,161	17,63
535,642	17,43
536,122	17,54
536,602	17,5
537,082	17,69
537,562	17,77
538,042	17,32
538,522	17,82
539,001	17,94
539,481	17,73
539,96	17,62
540,44	17,54
540,919	17,86
541,398	18,1
541,877	18,02
542,356	17,97
542,835	18,1
543,313	18,03
543,792	18,18
544,27	17,91
544,749	18,23
545,227	18,18
545,705	18,25
546,183	18,32
546,661	18,39
547,139	18,47
547,616	18,15
548,094	18,75
548,571	18,5
549,049	18,65
549,526	18,58
550,003	18,34
550,48	18,63
550,957	18,71
551,434	18,68
551,911	18,84
552,387	18,39
552,864	18,86
553,34	18,57
553,817	18,75
554,293	18,6
554,769	18,63
555,245	18,67
555,721	18,64
556,197	18,75
556,672	18,4
557,148	18,58
557,623	18,93
558,099	18,63
558,574	18,63
559,049	18,52
559,524	18,74
559,999	18,35
560,474	18,05
560,948	18,12
561,423	17,87
561,897	18,21
562,372	18,24
562,846	17,92
563,32	18,14
563,794	18,06
564,268	17,79
564,742	17,57
565,216	17,72
565,69	17,4
566,163	17,15
566,636	17,11
567,11	17,13
567,583	16,92
568,056	16,93
568,529	16,72
569,002	16,63
569,475	16,45
569,947	16,55
570,42	16,15
570,892	16,28
571,365	16,04
571,837	15,85
572,309	16,09
572,781	15,37
573,253	15,38
573,725	15,31
574,197	15,41
574,668	15,06
575,14	15,13
575,611	14,86
576,082	14,6
576,554	14,5
577,025	14,51
577,496	14,35
577,967	14,25
578,437	14,18
578,908	13,97
579,379	13,82
579,849	14,01
580,319	13,94
580,79	13,74
581,26	13,5
581,73	13,53
582,2	13,48
582,669	13,49
583,139	13,51
583,609	12,99
584,078	13,06
584,548	12,86
585,017	12,76
585,486	12,62
585,955	12,76
586,424	12,62
586,893	12,77
587,362	12,44
587,83	12,46
588,299	12,41
588,767	12,54
589,236	12,24
589,704	12,25
590,172	12,21
590,64	12,13
591,108	12,06
591,576	12
592,043	11,95
592,511	12
592,978	11,91
593,446	11,84
593,913	11,84
594,38	11,89
594,847	11,82
595,314	11,62
595,781	11,46
596,248	11,72
596,715	11,58
597,181	11,55
597,647	11,62
598,114	11,62
598,58	11,52
599,046	11,51
599,512	11,46
599,978	11,44
600,444	11,5
600,91	11,36
601,375	11,3
601,841	11,33
602,306	11,27
602,771	11,35
603,236	11,35
603,702	11,22
604,167	11,04
604,631	11,03
605,096	10,95
605,561	10,98
606,025	10,89
606,49	10,69
606,954	10,99
607,418	10,79
607,882	10,61
608,347	10,64
608,81	10,68
609,274	10,5
609,738	10,39
610,202	10,37
610,665	10,43
611,128	10,32
611,592	10,15
612,055	9,95
612,518	10
612,981	9,82
613,444	9,89
613,907	9,74
614,369	9,52
614,832	9,82
615,294	9,57
615,757	9,36
616,219	9,39
616,681	9,31
617,143	9,24
617,605	9,3
618,067	9,28
618,529	9,08
618,99	9,13
619,452	8,96
619,913	8,99
620,375	8,93
620,836	8,69
621,297	8,83
621,758	8,77
622,219	8,65
622,68	8,72
623,14	8,67
623,601	8,56
624,061	8,61
624,522	8,67
624,982	8,58
625,442	8,46
625,902	8,42
626,362	8,45
626,822	8,43
627,282	8,62
627,742	8,49
628,201	8,31
628,661	8,45
629,12	8,49
629,579	8,32
630,038	8,45
630,497	8,31
630,956	8,42
631,415	8,4
631,874	8,31
632,332	8,29
632,791	8,27
633,249	8,22
633,708	8,28
634,166	8,09
634,624	8,18
635,082	8,09
635,54	8
635,998	8
636,455	7,9
636,913	7,9
637,37	7,78
637,828	7,65
638,285	7,66
638,742	7,56
639,199	7,48
639,656	7,44
640,113	7,31
640,57	7,21
641,027	7
641,483	6,97
641,94	6,85
642,396	6,71
642,852	6,78
643,309	6,71
643,765	6,57
644,221	6,44
644,676	6,48
645,132	6,23
645,588	6,2
646,043	6,22
646,499	5,97
646,954	6,02
647,409	5,78
647,864	5,76
648,319	5,7
648,774	5,67
649,229	5,55
649,684	5,51
650,139	5,34
650,593	5,45
651,047	5,35
651,502	5,38
651,956	5,2
652,41	5,25
652,864	5,21
653,318	5,29
653,772	5,16
654,225	5,19
654,679	5,16
655,133	5,1
655,586	5,06
656,039	4,94
656,492	4,94
656,946	4,93
657,399	4,77
657,851	4,84
658,304	4,76
658,757	4,73
659,209	4,59
659,662	4,6
660,114	4,52
660,567	4,43
661,019	4,46
661,471	4,35
661,923	4,29
662,375	4,27
662,826	4,25
663,278	4,16
663,73	4,11
664,181	4,1
664,632	4,05
665,084	4,01
665,535	3,94
665,986	3,97
666,437	3,99
666,888	3,92
667,338	3,9
667,789	3,98
668,24	3,94
668,69	3,88
669,14	3,96
669,591	3,9
670,041	3,92
670,491	3,93
670,941	3,93
671,391	4,01
671,84	4,04
672,29	4,05
672,74	4,04
673,189	4,1
673,638	4,21
674,088	4,23
674,537	4,26
674,986	4,31
675,435	4,37
675,883	4,41
676,332	4,46
676,781	4,54
677,229	4,63
677,678	4,66
678,126	4,78
678,574	4,9
679,022	4,93
679,47	4,97
679,918	5,02
680,366	5,19
680,814	5,24
681,261	5,4
681,709	5,5
682,156	5,52
682,604	5,65
683,051	5,74
683,498	5,69
683,945	5,9
684,392	5,95
684,839	6,07
685,286	6,2
685,732	6,45
686,179	6,53
686,625	6,6
687,071	6,73
687,518	6,95
687,964	7,09
688,41	7,19
688,856	7,48
689,301	7,59
689,747	7,88
690,193	8,15
690,638	8,31
691,084	8,61
691,529	8,93
691,974	9,27
692,419	9,5
692,864	9,91
693,309	10,43
693,754	10,76
694,199	11,13
694,643	11,5
695,088	11,96
695,532	12,31
695,977	12,76
696,421	13,18
696,865	13,6
697,309	14,1
697,753	14,51
698,197	14,93
698,64	15,4
699,084	15,73
699,527	16,26
699,971	16,66
700,414	17,13
700,857	17,32
701,3	17,83
701,743	18,15
702,186	18,42
702,629	19,08
703,072	19,23
703,515	19,66
703,957	20,18
704,399	20,3
704,842	20,6
705,284	21,03
705,726	21,41
706,168	21,79
706,61	22,08
707,052	22,28
707,494	22,57
707,935	22,91
708,377	23,5
708,818	23,58
709,26	23,99
709,701	24,24
710,142	24,35
710,583	24,73
711,024	25,06
711,465	25,22
711,905	25,49
712,346	25,74
712,787	26,08
713,227	26,25
713,667	26,46
714,108	27,01
714,548	27,02
714,988	27,38
715,428	27,43
715,868	27,72
716,307	28,12
716,747	28,39
717,186	28,37
717,626	29,04
718,065	28,68
718,504	29,08
718,944	29,21
719,383	29,23
719,822	29,57
720,261	29,89
720,699	30,06
721,138	29,99
721,576	30,29
722,015	30,33
722,453	30,65
722,892	30,76
723,33	31,02
723,768	31,16
724,206	31,34
724,644	31,4
725,081	31,4
725,519	31,73
725,957	31,78
726,394	32,22
726,832	31,93
727,269	32,31
727,706	32,54
728,143	32,32
728,58	32,54
729,017	32,59
729,454	32,49
729,89	32,55
730,327	32,65
730,764	32,68
731,2	33,07
731,636	32,86
732,072	33,06
732,509	32,99
732,945	33,33
733,38	33,31
733,816	33,39
734,252	33,38
734,688	33,35
735,123	33,38
735,559	33,56
735,994	33,64
736,429	33,63
736,864	33,7
737,299	33,69
737,734	33,78
738,169	33,77
738,604	33,84
739,038	33,69
739,473	33,99
739,907	33,9
740,342	33,83
740,776	33,86
741,21	33,84
741,644	33,91
742,078	33,89
742,512	34,16
742,946	33,79
743,379	33,86
743,813	33,78
744,246	33,84
744,68	33,81
745,113	33,99
745,546	34,06
745,979	33,77
746,412	33,76
746,845	34,01
747,278	33,64
747,711	33,96
748,143	33,81
748,576	33,79
749,008	33,61
749,441	33,77
749,873	33,77
750,305	33,96
750,737	33,52
751,169	33,64
751,601	33,65
752,032	33,76
752,464	33,41
752,896	33,51
753,327	33,62
753,758	33,41
754,19	33,56
754,621	33,33
755,052	33,55
755,483	33,71
755,914	33,49
756,344	33,27
756,775	33,27
757,206	33,61
757,636	33,31
758,066	33,5
758,497	33,27
758,927	33,47
759,357	33,5
759,787	33,19
760,217	33
760,647	33,08
761,076	33,1
761,506	33,19
761,935	33,2
762,365	33,15
762,794	32,98
763,223	33,1
763,653	33,15
764,082	32,8
764,51	32,95
764,939	32,81
765,368	32,92
765,797	32,72
766,225	32,95
766,654	32,8
767,082	33,01
767,51	32,82
767,938	32,74
768,367	32,48
768,795	32,51
769,222	32,97
769,65	32,48
770,078	32,64
770,505	32,7
770,933	32,65
771,36	32,38
771,788	32,58
772,215	32,59
772,642	32,68
773,069	32,54
773,496	32,46
773,923	32,46
774,349	32,48
774,776	32,27
775,203	32,17
775,629	32,43
776,055	32,41
776,482	32,5
776,908	32,3
777,334	32,37
777,76	32,35
778,186	32,26
778,611	32,34
779,037	32,43
779,463	32,41
779,888	32,37
780,314	32,57
780,739	32,2
781,164	32,28
781,589	32,3
782,014	32,32
782,439	32,26
782,864	32,23
783,289	32,2
783,713	32,26
784,138	32,27
784,562	32,3
784,987	32,16
785,411	32,14
785,835	32,21
786,259	32,12
786,683	32,14
787,107	32,26
787,531	32,16
787,954	32,1
788,378	31,98
788,802	32,07
789,225	32
789,648	32,16
790,071	32,26
790,495	32,29
790,918	31,92
791,34	32,12
791,763	31,84
792,186	31,77
792,609	31,94
793,031	32,04
793,454	32,02
793,876	32,2
794,298	32,03
794,721	31,91
795,143	31,99
795,565	31,84
795,986	31,96
796,408	31,98
796,83	32,08
797,252	31,65
797,673	31,96
798,094	32,18
798,516	32,25
798,937	31,72
799,358	31,8
799,779	31,93
800,2	31,87
800,621	31,85
801,042	32,01
801,462	31,98
801,883	32,02
802,303	31,9
802,724	31,79
803,144	32,01
803,564	31,95
803,984	31,77
804,404	31,85
804,824	32,12
805,244	31,95
805,664	31,93
806,084	31,84
806,503	32
806,923	31,9
807,342	31,68
807,761	31,65
808,18	31,9
808,599	31,83
809,018	31,91
809,437	31,82
809,856	31,86
810,275	32,01
810,693	31,75
811,112	31,76
811,53	31,87
811,949	31,68
812,367	31,66
812,785	31,59
813,203	31,54
813,621	31,76
814,039	31,85
814,457	31,84
814,874	31,87
815,292	31,73
815,709	31,68
816,127	31,44
816,544	31,84
816,961	31,89
817,378	31,99
817,795	31,77
818,212	31,86
818,629	31,74
819,046	32
819,462	31,81
819,879	31,8
820,295	31,74
820,712	31,84
821,128	31,7
821,544	31,72
821,96	31,77
822,376	31,67
822,792	31,73
823,208	31,49
823,624	31,67
824,039	31,69
824,455	31,81
824,87	31,9
825,286	31,75
825,701	31,65
826,116	31,65
826,531	31,59
826,946	31,75
827,361	31,8
827,776	31,69
828,19	31,48
828,605	31,6
829,02	31,67
829,434	31,42
829,848	31,6
830,263	31,47
830,677	31,53
831,091	31,68
831,505	31,36
831,919	31,68
832,332	31,6
832,746	31,73
833,16	31,37
833,573	31,54
833,987	31,58
834,4	31,42
834,813	31,57
835,226	31,76
835,639	31,46
836,052	31,69
836,465	31,51
836,878	31,32
837,29	31,42
837,703	31,5
838,116	31,61
838,528	31,65
838,94	31,5
839,352	31,52
839,765	31,54
840,177	31,51
840,589	31,62
841	31,5
841,412	31,68
841,824	31,53
842,235	31,52
842,647	31,57
843,058	31,62
843,47	31,29
843,881	31,69
844,292	31,32
844,703	31,26
845,114	31,41
845,525	31,64
845,935	31,46
846,346	31,58
