Data from E_6__Relative__7__00118.txt Node

Date: Mon Jan 29 18:21:04 CET 2024
User: diatiterra
Spectrometer: HDX00911
Trigger mode: 0
Integration Time (sec): 6,000000E-3
Scans to average: 2
Nonlinearity correction enabled: false
Boxcar width: 0
Storing dark spectrum: false
XAxis mode: Wavelengths
Number of Pixels in Spectrum: 2068
>>>>>Begin Spectral Data<<<<<
194,468	39,22
195,025	30,09
195,581	54,26
196,138	47,69
196,694	49,43
197,251	33,33
197,807	39,6
198,363	34,91
198,919	37,01
199,474	38,93
200,03	33,09
200,586	36,39
201,141	37,83
201,696	33,22
202,251	39,85
202,806	35,71
203,361	35,09
203,916	40,07
204,471	34,86
205,025	30,36
205,58	35,84
206,134	34,07
206,688	31,88
207,242	27,89
207,796	32,54
208,35	35,74
208,904	35,25
209,457	38,99
210,011	37,41
210,564	36,11
211,117	33,8
211,67	37,32
212,223	34,25
212,776	47,94
213,329	35,05
213,881	32,5
214,434	41,72
214,986	32,32
215,538	34,43
216,09	36,72
216,642	35,19
217,194	33,11
217,746	31,31
218,297	35,91
218,849	33,96
219,4	34,62
219,951	39,64
220,502	33,1
221,053	34,17
221,604	39,6
222,155	37,04
222,705	34,78
223,256	37,77
223,806	33,67
224,356	39,49
224,906	29,63
225,456	30,69
226,006	29,53
226,556	34,67
227,106	38,46
227,655	37,98
228,204	34,87
228,754	35,52
229,303	41,69
229,852	40,2
230,401	33,33
230,949	39,69
231,498	34,33
232,047	30,64
232,595	37,23
233,143	37,5
233,691	36,8
234,239	35,07
234,787	36,71
235,335	40,48
235,883	37,99
236,43	44,07
236,978	36,73
237,525	44,03
238,072	30,26
238,619	33,22
239,166	33,67
239,713	34,94
240,26	44,19
240,806	35,46
241,353	38,52
241,899	34,3
242,445	45,45
242,991	43,21
243,537	35,31
244,083	47,27
244,629	33,11
245,174	39,18
245,72	35,12
246,265	38,16
246,81	43,8
247,355	34,56
247,9	35,99
248,445	47,59
248,99	41,87
249,534	41,46
250,079	39,55
250,623	29,83
251,168	30,87
251,712	37,59
252,256	37,87
252,8	39,24
253,343	34,71
253,887	36,73
254,43	43,49
254,974	37,76
255,517	35,23
256,06	26,71
256,603	40,38
257,146	44,78
257,689	41,77
258,232	38,31
258,774	34,69
259,317	35,53
259,859	40,22
260,401	41,29
260,943	41,79
261,485	42,2
262,027	36,21
262,569	44,74
263,11	40,07
263,652	40,81
264,193	37,86
264,734	43,25
265,275	33,33
265,816	41,01
266,357	38,13
266,898	35,84
267,438	38,43
267,979	36,73
268,519	34,66
269,059	39,72
269,6	35,09
270,14	37,29
270,68	37,55
271,219	43,51
271,759	39,18
272,298	33,82
272,838	41,09
273,377	33,33
273,916	37,18
274,455	32,18
274,994	39,57
275,533	38,23
276,072	32,33
276,61	35,49
277,149	32,61
277,687	38,08
278,225	31,51
278,763	34,06
279,301	41,13
279,839	42,03
280,377	43,07
280,914	35,9
281,452	45,53
281,989	35,15
282,526	42,65
283,064	33,68
283,601	44,32
284,137	30,29
284,674	37,74
285,211	32,37
285,747	33,56
286,284	37,54
286,82	37,59
287,356	33,33
287,892	42,46
288,428	34,92
288,964	34,3
289,5	40,14
290,035	41,73
290,571	39,55
291,106	32
291,641	35,25
292,176	36,09
292,711	40,34
293,246	35,74
293,781	37,92
294,315	38,97
294,85	38,32
295,384	47,04
295,918	40,42
296,453	36,04
296,987	32,76
297,52	32,88
298,054	36,4
298,588	42,13
299,121	33,7
299,655	32,63
300,188	42,97
300,721	40
301,254	42,7
301,787	35,77
302,32	43,94
302,853	35,19
303,385	43,96
303,918	37,19
304,45	38,61
304,982	31,47
305,514	39,85
306,046	36,14
306,578	43,21
307,11	36,8
307,641	35,64
308,173	35,32
308,704	37,93
309,236	36,7
309,767	35,83
310,298	36,24
310,829	43,73
311,359	43,06
311,89	38,43
312,421	40,22
312,951	38,91
313,481	44,18
314,012	44,69
314,542	41,44
315,072	33,82
315,601	38,79
316,131	33,58
316,661	44,17
317,19	37,01
317,72	41,03
318,249	35,14
318,778	35,74
319,307	42,57
319,836	42,62
320,365	40,07
320,893	41,84
321,422	45,15
321,95	36,67
322,479	41,87
323,007	38,41
323,535	36,98
324,063	37,31
324,591	31,33
325,118	39,86
325,646	41,54
326,173	47,5
326,701	37,45
327,228	39,94
327,755	39,78
328,282	38,11
328,809	37,78
329,336	38,06
329,862	41,92
330,389	36,18
330,915	40,07
331,441	36,95
331,968	36,77
332,494	32,11
333,02	36,5
333,545	35,38
334,071	36,33
334,597	38,85
335,122	33,11
335,648	36,26
336,173	35,64
336,698	27,05
337,223	44,71
337,748	33,33
338,272	27,39
338,797	36,89
339,322	28,24
339,846	33,98
340,37	33,7
340,894	33,56
341,419	35,23
341,942	31,54
342,466	32,08
342,99	28,31
343,514	25,32
344,037	28,52
344,56	30,72
345,084	34,7
345,607	30,4
346,13	30,77
346,653	30,19
347,175	38,06
347,698	29,17
348,221	29,07
348,743	29,74
349,265	30,36
349,787	29,14
350,309	28,1
350,831	34,33
351,353	38,1
351,875	32,58
352,397	28,93
352,918	33,33
353,439	34,42
353,961	30,7
354,482	25,84
355,003	35,39
355,524	32,4
356,044	29,82
356,565	35,16
357,086	27,99
357,606	28,19
358,126	26,28
358,646	27,86
359,167	27,52
359,687	28,54
360,206	31,08
360,726	21,76
361,246	27,47
361,765	24,34
362,285	24,64
362,804	24,67
363,323	23,39
363,842	33,1
364,361	27,49
364,88	28,69
365,398	24,5
365,917	26,49
366,435	26,39
366,954	23,45
367,472	26,44
367,99	20,53
368,508	24,02
369,026	20,74
369,544	19,64
370,061	22,85
370,579	22,51
371,096	22,63
371,613	23,85
372,131	25
372,648	20,94
373,165	28,94
373,681	24,87
374,198	20,33
374,715	21,01
375,231	24,01
375,747	26,12
376,264	23
376,78	20,57
377,296	22,15
377,812	18,69
378,327	21,04
378,843	22,6
379,359	21,59
379,874	21,45
380,389	22,15
380,905	21,88
381,42	19,58
381,935	21,6
382,449	22,62
382,964	24,6
383,479	24,65
383,993	21,03
384,508	21,19
385,022	21,82
385,536	19,8
386,05	19,98
386,564	20,36
387,078	16,96
387,592	19,17
388,105	19,57
388,619	17,7
389,132	19,3
389,645	20,48
390,158	18,9
390,671	20,04
391,184	18,49
391,697	17,06
392,21	18,17
392,722	18,67
393,235	18,17
393,747	17,28
394,259	18,44
394,771	15,59
395,283	15,37
395,795	15,61
396,307	16,34
396,818	15,43
397,33	13,18
397,841	16,84
398,353	15,43
398,864	15,69
399,375	15,68
399,886	12,5
400,397	14,37
400,907	13,79
401,418	11,92
401,928	13,79
402,439	14,42
402,949	12,47
403,459	12,67
403,969	13,21
404,479	12,95
404,989	11,49
405,498	11,38
406,008	10,87
406,517	10,13
407,027	10,49
407,536	9,71
408,045	10,1
408,554	9,03
409,063	8,96
409,572	7,95
410,08	8,63
410,589	8,02
411,097	8,28
411,606	7,73
412,114	7,69
412,622	8,17
413,13	8,21
413,638	6,9
414,145	6,67
414,653	7,29
415,16	6,5
415,668	6,54
416,175	6,81
416,682	6,12
417,189	6,45
417,696	5,69
418,203	6,09
418,71	6,32
419,216	5,98
419,723	5,91
420,229	5,34
420,735	5,36
421,242	5,86
421,748	5,87
422,254	5,37
422,759	5,41
423,265	5,22
423,771	5,07
424,276	5,16
424,781	5
425,287	5,19
425,792	5,06
426,297	5,34
426,802	4,83
427,306	5,08
427,811	5,15
428,316	4,92
428,82	4,84
429,324	4,93
429,829	5,22
430,333	5,37
430,837	4,84
431,34	4,8
431,844	4,84
432,348	4,79
432,851	4,77
433,355	4,68
433,858	4,42
434,361	4,64
434,864	4,24
435,367	4,49
435,87	4,72
436,373	4,94
436,876	4,19
437,378	4,42
437,88	4,51
438,383	4,79
438,885	4,66
439,387	4,28
439,889	4,51
440,391	4,64
440,892	4,6
441,394	4,25
441,896	4,51
442,397	4,72
442,898	4,19
443,399	4,64
443,9	4,54
444,401	4,61
444,902	4,59
445,403	4,22
445,903	4,74
446,404	4,71
446,904	4,45
447,405	4,64
447,905	4,42
448,405	4,56
448,905	4,61
449,404	4,68
449,904	4,7
450,404	4,55
450,903	4,61
451,403	4,48
451,902	4,71
452,401	4,76
452,9	4,37
453,399	4,64
453,898	4,91
454,396	4,51
454,895	4,61
455,393	4,51
455,892	4,69
456,39	4,91
456,888	4,71
457,386	4,52
457,884	4,77
458,382	4,76
458,879	4,73
459,377	4,58
459,874	4,75
460,372	4,47
460,869	4,92
461,366	4,86
461,863	4,9
462,36	4,82
462,857	4,73
463,353	4,72
463,85	4,95
464,346	4,71
464,843	4,86
465,339	4,84
465,835	4,51
466,331	4,96
466,827	4,81
467,323	4,5
467,818	4,93
468,314	4,82
468,809	4,7
469,305	4,8
469,8	4,75
470,295	4,88
470,79	4,61
471,285	4,87
471,78	4,73
472,274	4,76
472,769	4,73
473,263	4,7
473,758	5
474,252	4,79
474,746	4,75
475,24	4,74
475,734	4,68
476,228	4,77
476,721	4,91
477,215	4,64
477,708	4,62
478,202	4,86
478,695	4,63
479,188	4,86
479,681	4,72
480,174	4,78
480,667	4,85
481,159	4,84
481,652	4,95
482,144	4,51
482,637	4,94
483,129	4,74
483,621	4,64
484,113	4,8
484,605	5,05
485,097	4,81
485,588	4,92
486,08	4,95
486,571	4,89
487,063	5,18
487,554	4,88
488,045	5,08
488,536	4,94
489,027	5,03
489,518	5,11
490,008	4,81
490,499	5,03
490,989	5,11
491,48	5,05
491,97	5,16
492,46	5,23
492,95	5,26
493,44	5,49
493,93	5,33
494,419	5,43
494,909	5,6
495,398	5,44
495,888	5,51
496,377	5,71
496,866	5,77
497,355	5,55
497,844	5,93
498,333	5,82
498,821	5,75
499,31	6,21
499,798	6,07
500,287	6,21
500,775	6,48
501,263	6,29
501,751	6,4
502,239	6,65
502,727	6,93
503,215	6,79
503,702	6,91
504,19	7,08
504,677	7,12
505,164	7,38
505,651	7,49
506,139	7,51
506,625	7,78
507,112	8,04
507,599	8,15
508,086	8,47
508,572	8,4
509,058	8,37
509,545	8,75
510,031	8,9
510,517	9,15
511,003	9,42
511,489	9,42
511,974	9,63
512,46	9,98
512,946	10,25
513,431	10,25
513,916	10,59
514,401	10,69
514,887	11,03
515,371	11,41
515,856	11,52
516,341	11,93
516,826	12,28
517,31	12,19
517,795	12,77
518,279	13,03
518,763	13,26
519,247	13,35
519,731	13,71
520,215	13,99
520,699	14,38
521,182	14,29
521,666	14,83
522,149	15,08
522,633	15,13
523,116	15,44
523,599	15,6
524,082	16,13
524,565	15,85
525,048	16,11
525,53	16,7
526,013	17,19
526,495	17,11
526,978	17,31
527,46	17,73
527,942	17,88
528,424	18,4
528,906	18,36
529,388	18,39
529,87	18,51
530,351	18,75
530,833	19
531,314	19,13
531,795	18,81
532,277	19,04
532,758	19,52
533,238	19,46
533,719	19,52
534,2	19,57
534,681	19,65
535,161	19,84
535,642	19,74
536,122	19,94
536,602	20,22
537,082	20,17
537,562	20,1
538,042	20,2
538,522	20,62
539,001	20,52
539,481	20,52
539,96	20,45
540,44	20,26
540,919	20,35
541,398	20,78
541,877	20,72
542,356	20,65
542,835	20,68
543,313	21,34
543,792	20,8
544,27	20,61
544,749	21,02
545,227	20,84
545,705	21,04
546,183	20,69
546,661	21,07
547,139	21,09
547,616	20,87
548,094	21,44
548,571	21,04
549,049	21,01
549,526	21,24
550,003	21,13
550,48	21,29
550,957	21,24
551,434	21,3
551,911	21,43
552,387	21,33
552,864	21,54
553,34	21,45
553,817	21,3
554,293	21,4
554,769	21,26
555,245	21,25
555,721	21,21
556,197	21,24
556,672	21,62
557,148	20,97
557,623	21,33
558,099	21,08
558,574	21,22
559,049	21,02
559,524	20,89
559,999	21,13
560,474	20,82
560,948	20,9
561,423	21,05
561,897	20,73
562,372	20,96
562,846	20,65
563,32	20,43
563,794	20,54
564,268	20,25
564,742	20,1
565,216	20,12
565,69	20,06
566,163	20,33
566,636	19,96
567,11	19,85
567,583	19,58
568,056	19,98
568,529	19,31
569,002	19,31
569,475	18,97
569,947	18,8
570,42	18,69
570,892	18,46
571,365	18,29
571,837	18,2
572,309	18,46
572,781	18,12
573,253	17,91
573,725	17,83
574,197	17,82
574,668	17,62
575,14	17,39
575,611	16,95
576,082	17,23
576,554	16,89
577,025	16,89
577,496	16,89
577,967	16,59
578,437	16,53
578,908	16,34
579,379	16,28
579,849	16,28
580,319	16,19
580,79	16
581,26	15,95
581,73	16,11
582,2	15,67
582,669	15,7
583,139	15,69
583,609	15,5
584,078	15,37
584,548	15,06
585,017	15,3
585,486	14,96
585,955	14,99
586,424	15,02
586,893	14,91
587,362	14,92
587,83	15,12
588,299	14,55
588,767	14,71
589,236	14,6
589,704	14,65
590,172	14,26
590,64	14,33
591,108	14,24
591,576	14,34
592,043	14,24
592,511	14,22
592,978	14,16
593,446	14,01
593,913	14,03
594,38	13,97
594,847	13,98
595,314	13,85
595,781	13,93
596,248	13,96
596,715	13,84
597,181	13,63
597,647	13,97
598,114	13,68
598,58	13,52
599,046	13,69
599,512	13,77
599,978	13,7
600,444	13,54
600,91	13,42
601,375	13,58
601,841	13,49
602,306	13,56
602,771	13,6
603,236	13,47
603,702	13,55
604,167	13,3
604,631	13,21
605,096	13,17
605,561	13,2
606,025	13,08
606,49	13,08
606,954	12,98
607,418	12,81
607,882	12,9
608,347	12,81
608,81	12,74
609,274	12,78
609,738	12,54
610,202	12,65
610,665	12,51
611,128	12,17
611,592	12,33
612,055	12,07
612,518	12,02
612,981	11,9
613,444	11,81
613,907	11,8
614,369	11,73
614,832	11,69
615,294	11,6
615,757	11,31
616,219	11,61
616,681	11,45
617,143	11,27
617,605	11,26
618,067	11,2
618,529	11,01
618,99	10,92
619,452	10,94
619,913	10,93
620,375	10,92
620,836	10,88
621,297	10,7
621,758	10,71
622,219	10,54
622,68	10,49
623,14	10,56
623,601	10,46
624,061	10,5
624,522	10,57
624,982	10,36
625,442	10,42
625,902	10,3
626,362	10,37
626,822	10,29
627,282	10,33
627,742	10,38
628,201	10,28
628,661	10,4
629,12	10,33
629,579	10,36
630,038	10,09
630,497	10,22
630,956	10,31
631,415	10,24
631,874	10,09
632,332	10,18
632,791	10,12
633,249	9,98
633,708	10,08
634,166	10,04
634,624	10,05
635,082	9,93
635,54	10
635,998	9,66
636,455	9,75
636,913	9,65
637,37	9,59
637,828	9,51
638,285	9,49
638,742	9,21
639,199	9,21
639,656	9,06
640,113	9,04
640,57	8,91
641,027	8,86
641,483	8,72
641,94	8,65
642,396	8,65
642,852	8,44
643,309	8,34
643,765	8,23
644,221	8
644,676	8,16
645,132	8,06
645,588	7,85
646,043	7,87
646,499	7,59
646,954	7,56
647,409	7,59
647,864	7,34
648,319	7,39
648,774	7,31
649,229	7,23
649,684	7,14
650,139	7,05
650,593	7,12
651,047	7,09
651,502	6,78
651,956	6,92
652,41	6,87
652,864	6,89
653,318	6,8
653,772	6,73
654,225	6,76
654,679	6,72
655,133	6,58
655,586	6,58
656,039	6,47
656,492	6,44
656,946	6,4
657,399	6,26
657,851	6,22
658,304	6,19
658,757	6,16
659,209	5,95
659,662	6,05
660,114	5,89
660,567	5,84
661,019	5,89
661,471	5,74
661,923	5,7
662,375	5,63
662,826	5,57
663,278	5,49
663,73	5,42
664,181	5,41
664,632	5,29
665,084	5,33
665,535	5,22
665,986	5,17
666,437	5,24
666,888	5,17
667,338	5,16
667,789	5,07
668,24	5,17
668,69	5,15
669,14	5,19
669,591	5,02
670,041	5,1
670,491	5,1
670,941	5,19
671,391	5,27
671,84	5,26
672,29	5,3
672,74	5,34
673,189	5,32
673,638	5,36
674,088	5,52
674,537	5,56
674,986	5,56
675,435	5,64
675,883	5,7
676,332	5,73
676,781	5,8
677,229	5,93
677,678	6,05
678,126	6,12
678,574	6,17
679,022	6,21
679,47	6,42
679,918	6,45
680,366	6,55
680,814	6,64
681,261	6,71
681,709	6,69
682,156	6,84
682,604	7,14
683,051	7,09
683,498	7,07
683,945	7,3
684,392	7,4
684,839	7,5
685,286	7,59
685,732	7,77
686,179	7,92
686,625	8,09
687,071	8,21
687,518	8,28
687,964	8,49
688,41	8,74
688,856	8,92
689,301	9,22
689,747	9,46
690,193	9,68
690,638	9,8
691,084	10,33
691,529	10,65
691,974	11,02
692,419	11,53
692,864	11,81
693,309	12,23
693,754	12,64
694,199	13,17
694,643	13,43
695,088	14,03
695,532	14,44
695,977	14,65
696,421	15,26
696,865	15,83
697,309	16,23
697,753	16,71
698,197	17,33
698,64	17,65
699,084	18,07
699,527	18,6
699,971	19,13
700,414	19,7
700,857	20,08
701,3	20,29
701,743	20,67
702,186	21,14
702,629	21,76
703,072	21,93
703,515	22,36
703,957	22,82
704,399	23,23
704,842	23,35
705,284	23,87
705,726	24,33
706,168	24,61
706,61	25
707,052	25,52
707,494	25,58
707,935	26,01
708,377	26,28
708,818	26,58
709,26	26,64
709,701	27,24
710,142	27,43
710,583	27,7
711,024	28,11
711,465	28,35
711,905	28,78
712,346	28,84
712,787	29,22
713,227	29,68
713,667	29,76
714,108	29,84
714,548	30,39
714,988	30,51
715,428	30,73
715,868	31,01
716,307	31,14
716,747	31,68
717,186	31,61
717,626	31,82
718,065	32,01
718,504	32,15
718,944	32,38
719,383	32,4
719,822	32,7
720,261	33,05
720,699	32,98
721,138	33,32
721,576	33,48
722,015	33,79
722,453	33,78
722,892	34,42
723,33	34,31
723,768	34,38
724,206	34,31
724,644	34,7
725,081	34,62
725,519	34,9
725,957	34,8
726,394	35,13
726,832	35,23
727,269	35,19
727,706	35,53
728,143	35,49
728,58	35,73
729,017	35,68
729,454	35,77
729,89	35,84
730,327	35,99
730,764	35,69
731,2	36,29
731,636	36,23
732,072	35,85
732,509	36,26
732,945	36,45
733,38	36,31
733,816	36,37
734,252	36,61
734,688	36,49
735,123	36,47
735,559	36,57
735,994	36,82
736,429	36,97
736,864	36,89
737,299	36,79
737,734	37,02
738,169	36,94
738,604	37,01
739,038	37,02
739,473	36,97
739,907	37,4
740,342	36,91
740,776	36,83
741,21	36,98
741,644	37,15
742,078	37,22
742,512	37,17
742,946	36,82
743,379	37,02
743,813	36,89
744,246	37,12
744,68	37,13
745,113	37,08
745,546	36,99
745,979	36,67
746,412	37,13
746,845	37,09
747,278	36,94
747,711	36,84
748,143	36,71
748,576	37,02
749,008	36,89
749,441	37,07
749,873	36,64
750,305	36,88
750,737	36,42
751,169	36,66
751,601	36,92
752,032	36,79
752,464	36,6
752,896	36,77
753,327	36,69
753,758	36,73
754,19	36,58
754,621	36,57
755,052	36,41
755,483	36,42
755,914	36,45
756,344	36,47
756,775	36,56
757,206	36,72
757,636	36,46
758,066	36,36
758,497	36,43
758,927	36,38
759,357	36,67
759,787	36,5
760,217	36,38
760,647	36,33
761,076	36,36
761,506	36,03
761,935	36,45
762,365	36,13
762,794	35,9
763,223	36,15
763,653	36,14
764,082	36,13
764,51	36,1
764,939	35,95
765,368	35,98
765,797	35,74
766,225	35,92
766,654	35,95
767,082	36,03
767,51	35,86
767,938	35,77
768,367	35,73
768,795	35,38
769,222	35,88
769,65	35,8
770,078	35,55
770,505	35,5
770,933	35,67
771,36	35,47
771,788	35,52
772,215	35,69
772,642	35,83
773,069	35,83
773,496	35,66
773,923	35,77
774,349	35,65
774,776	35,54
775,203	35,33
775,629	35,75
776,055	35,29
776,482	35,49
776,908	35,43
777,334	35,42
777,76	35,48
778,186	35,32
778,611	35,6
779,037	35,56
779,463	35,44
779,888	35,26
780,314	35,61
780,739	35,41
781,164	35,26
781,589	35,52
782,014	35,35
782,439	35,44
782,864	35,34
783,289	35,58
783,713	35,09
784,138	35,18
784,562	35,46
784,987	35,08
785,411	35,13
785,835	35,25
786,259	35,06
786,683	35,17
787,107	35,07
787,531	35,1
787,954	35,26
788,378	35,05
788,802	35,1
789,225	35,09
789,648	35,24
790,071	34,98
790,495	35,13
790,918	35,08
791,34	35,16
791,763	35,21
792,186	35,13
792,609	34,87
793,031	35,3
793,454	35,04
793,876	35,2
794,298	35,07
794,721	34,94
795,143	35,04
795,565	34,83
795,986	34,92
796,408	35,11
796,83	34,87
797,252	34,75
797,673	35,06
798,094	35,19
798,516	35,25
798,937	34,81
799,358	34,67
799,779	35
800,2	34,95
800,621	34,89
801,042	35,17
801,462	35,03
801,883	35,01
802,303	34,87
802,724	34,8
803,144	35,05
803,564	34,85
803,984	34,88
804,404	35,09
804,824	34,96
805,244	34,83
805,664	34,95
806,084	34,95
806,503	34,83
806,923	34,94
807,342	34,85
807,761	34,65
808,18	34,76
808,599	34,78
809,018	34,93
809,437	34,72
809,856	34,75
810,275	34,95
810,693	34,8
811,112	34,8
811,53	35,1
811,949	34,83
812,367	34,52
812,785	34,73
813,203	34,76
813,621	34,95
814,039	34,54
814,457	35,03
814,874	34,79
815,292	34,72
815,709	34,83
816,127	34,77
816,544	34,78
816,961	35,05
817,378	34,85
817,795	34,73
818,212	34,58
818,629	34,63
819,046	34,72
819,462	34,77
819,879	34,69
820,295	34,67
820,712	34,72
821,128	34,85
821,544	34,58
821,96	34,67
822,376	34,67
822,792	34,56
823,208	34,58
823,624	34,71
824,039	34,72
824,455	35,04
824,87	34,77
825,286	34,75
825,701	34,66
826,116	34,83
826,531	34,7
826,946	34,86
827,361	34,77
827,776	34,78
828,19	34,68
828,605	34,48
829,02	34,63
829,434	34,66
829,848	34,55
830,263	34,64
830,677	34,6
831,091	34,87
831,505	34,58
831,919	34,67
832,332	34,48
832,746	34,69
833,16	34,48
833,573	34,52
833,987	34,63
834,4	34,59
834,813	34,8
835,226	34,59
835,639	34,41
836,052	34,67
836,465	34,61
836,878	34,57
837,29	34,67
837,703	34,58
838,116	34,54
838,528	34,63
838,94	34,33
839,352	34,76
839,765	34,71
840,177	34,73
840,589	34,48
841	34,47
841,412	34,64
841,824	34,55
842,235	34,59
842,647	34,63
843,058	34,47
