Data from F_1__Relative__0__00121.txt Node

Date: Mon Jan 29 18:21:38 CET 2024
User: diatiterra
Spectrometer: HDX00911
Trigger mode: 0
Integration Time (sec): 6,000000E-3
Scans to average: 2
Nonlinearity correction enabled: false
Boxcar width: 0
Storing dark spectrum: false
XAxis mode: Wavelengths
Number of Pixels in Spectrum: 2068
>>>>>Begin Spectral Data<<<<<
194,468	88,24
195,025	60,18
195,581	82,98
196,138	73,08
196,694	75,86
197,251	60
197,807	59,2
198,363	56,36
198,919	59,79
199,474	58,21
200,03	55,88
200,586	52,72
201,141	66,29
201,696	57,09
202,251	59,41
202,806	58,27
203,361	60,7
203,916	62,67
204,471	53,52
205,025	56,07
205,58	56,63
206,134	64,44
206,688	56,88
207,242	59,86
207,796	55,59
208,35	51,99
208,904	51,86
209,457	61,73
210,011	55,24
210,564	57,64
211,117	53,52
211,67	55,28
212,223	56,85
212,776	64,04
213,329	53,61
213,881	51,79
214,434	55,86
214,986	54,55
215,538	50,92
216,09	56,39
216,642	56,67
217,194	57,62
217,746	57,91
218,297	50
218,849	48,29
219,4	61,54
219,951	65,82
220,502	56,79
221,053	55,8
221,604	57,38
222,155	56,79
222,705	62,88
223,256	62,59
223,806	59,18
224,356	61,59
224,906	54,81
225,456	52,41
226,006	43,96
226,556	64,6
227,106	63,29
227,655	48,43
228,204	50,66
228,754	56,9
229,303	50,51
229,852	55,88
230,401	47,31
230,949	69,26
231,498	57,09
232,047	55,56
232,595	56,38
233,143	60,61
233,691	58,8
234,239	54,85
234,787	50
235,335	56,46
235,883	52,33
236,43	61,11
236,978	58,91
237,525	69,4
238,072	59,78
238,619	46,23
239,166	58,59
239,713	59,11
240,26	58,43
240,806	60,64
241,353	52,3
241,899	58,25
242,445	61,54
242,991	58,19
243,537	57,43
244,083	54,55
244,629	56,42
245,174	63,06
245,72	54,85
246,265	56,54
246,81	63,5
247,355	60,29
247,9	54,33
248,445	58,62
248,99	52,25
249,534	51,9
250,079	59,7
250,623	51,53
251,168	49,33
251,712	62,41
252,256	55,48
252,8	51,04
253,343	51,91
253,887	49,32
254,43	64,68
254,974	51,75
255,517	60,4
256,06	56,85
256,603	57,74
257,146	56,9
257,689	56,33
258,232	59,39
258,774	66,42
259,317	56,41
259,859	47,23
260,401	64,39
260,943	62,31
261,485	61,35
262,027	54,48
262,569	61,28
263,11	62,45
263,652	56,99
264,193	58,93
264,734	59,13
265,275	52,61
265,816	63,31
266,357	60,43
266,898	51,88
267,438	57,25
267,979	52,36
268,519	62,45
269,059	57,45
269,6	60,7
270,14	52,48
270,68	57,85
271,219	58,6
271,759	60,82
272,298	56,73
272,838	62,4
273,377	52,96
273,916	57,76
274,455	57,09
274,994	51,08
275,533	56,31
276,072	59,4
276,61	53,92
277,149	48,55
277,687	60,85
278,225	58,9
278,763	64,13
279,301	59,25
279,839	51,45
280,377	53,28
280,914	52,01
281,452	66,26
281,989	55,29
282,526	66,31
283,064	57,64
283,601	64,39
284,137	62,41
284,674	58,87
285,211	54,32
285,747	57,63
286,284	52,28
286,82	55,32
287,356	51,89
287,892	59,65
288,428	55,59
288,964	59,93
289,5	64,29
290,035	56,12
290,571	53,73
291,106	48,73
291,641	47,13
292,176	61,28
292,711	65,86
293,246	57,04
293,781	57,99
294,315	56,99
294,85	55,11
295,384	57,04
295,918	63,76
296,453	55,48
296,987	62,07
297,52	52,74
298,054	55,51
298,588	62,6
299,121	55,68
299,655	54,74
300,188	57,03
300,721	56,21
301,254	54,09
301,787	48,78
302,32	56,06
302,853	56,1
303,385	58,24
303,918	56,84
304,45	60,62
304,982	60,96
305,514	57,93
306,046	57,54
306,578	58,57
307,11	60,59
307,641	57,82
308,173	55,02
308,704	68,2
309,236	56,18
309,767	66,67
310,298	61,67
310,829	61,98
311,359	60,14
311,89	57,3
312,421	56,52
312,951	58,55
313,481	65,86
314,012	57,88
314,542	62,33
315,072	54,91
315,601	70,46
316,131	55,11
316,661	62,92
317,19	50,89
317,72	52,75
318,249	56,76
318,778	60,84
319,307	54,05
319,836	55,03
320,365	56,35
320,893	65,6
321,422	54,1
321,95	60,74
322,479	58,13
323,007	60,14
323,535	69,06
324,063	63,81
324,591	49,33
325,118	58,74
325,646	68,46
326,173	61,79
326,701	54,55
327,228	55,91
327,755	54,12
328,282	56,98
328,809	60
329,336	55,02
329,862	69,23
330,389	57,68
330,915	52,84
331,441	58,98
331,968	56,7
332,494	53,85
333,02	56,93
333,545	54,51
334,071	63,67
334,597	58,78
335,122	52,17
335,648	53,48
336,173	52,15
336,698	61,64
337,223	58,02
337,748	58,6
338,272	54,79
338,797	54,69
339,322	51,83
339,846	55,47
340,37	57,14
340,894	56,85
341,419	60,07
341,942	51,34
342,466	54,27
342,99	47,38
343,514	48,38
344,037	56,07
344,56	51,72
345,084	48,26
345,607	50,46
346,13	53,23
346,653	50,94
347,175	54,84
347,698	49,7
348,221	53,49
348,743	53,35
349,265	60,71
349,787	54,86
350,309	53,44
350,831	52,84
351,353	52,65
351,875	53,93
352,397	44,63
352,918	51,69
353,439	51,49
353,961	49,3
354,482	50,84
355,003	49,87
355,524	52,81
356,044	45,91
356,565	52,12
357,086	51,15
357,606	47,71
358,126	49,64
358,646	50,75
359,167	45,21
359,687	47,88
360,206	53,01
360,726	41,63
361,246	52,29
361,765	48,46
362,285	44,79
362,804	43,33
363,323	43,12
363,842	48,33
364,361	50
364,88	45,36
365,398	47,24
365,917	45,38
366,435	45,06
366,954	42,69
367,472	44,35
367,99	44,56
368,508	48,44
369,026	43,6
369,544	46,55
370,061	44,46
370,579	47,47
371,096	45,26
371,613	44,77
372,131	44,01
372,648	44,58
373,165	46,27
373,681	43,08
374,198	42,62
374,715	44,79
375,231	39,75
375,747	46,61
376,264	46,33
376,78	42,26
377,296	42,56
377,812	38,87
378,327	40
378,843	44,02
379,359	37,39
379,874	41,12
380,389	42,09
380,905	42,84
381,42	37,6
381,935	41,2
382,449	41,3
382,964	39,22
383,479	42,66
383,993	42,31
384,508	38,17
385,022	40,84
385,536	38,03
386,05	38,74
386,564	36,52
387,078	38,74
387,592	38,44
388,105	33,82
388,619	38,45
389,132	34,89
389,645	36,13
390,158	34,38
390,671	37,72
391,184	36,63
391,697	31,5
392,21	36,66
392,722	34,58
393,235	32,73
393,747	33,45
394,259	33,57
394,771	31,93
395,283	31,21
395,795	30,9
396,307	31,99
396,818	29,8
397,33	27,98
397,841	32,4
398,353	29,35
398,864	32,23
399,375	28,55
399,886	27,51
400,397	28,1
400,907	27,7
401,418	25,63
401,928	26,49
402,439	27,15
402,949	25,11
403,459	25,72
403,969	24,4
404,479	24,92
404,989	25,18
405,498	22,8
406,008	21,23
406,517	20,83
407,027	20,9
407,536	19,89
408,045	19,86
408,554	19,42
409,063	17,58
409,572	18,81
410,08	19,59
410,589	17,12
411,097	17,13
411,606	16,82
412,114	16,55
412,622	15,26
413,13	15,23
413,638	14,52
414,145	13,91
414,653	14,22
415,16	14,38
415,668	13,15
416,175	13,85
416,682	13,77
417,189	13,48
417,696	12,88
418,203	12,69
418,71	12,74
419,216	12,51
419,723	12,87
420,229	12,19
420,735	11,71
421,242	12,27
421,748	12,25
422,254	11,3
422,759	11,15
423,265	11,37
423,771	11,44
424,276	11,59
424,781	10,56
425,287	10,94
425,792	10,91
426,297	10,96
426,802	10,92
427,306	10,73
427,811	10,73
428,316	11,05
428,82	10,66
429,324	11,07
429,829	10,83
430,333	10,27
430,837	10,65
431,34	10,09
431,844	10,13
432,348	10,03
432,851	10,02
433,355	9,8
433,858	9,85
434,361	10,01
434,864	10,01
435,367	10,17
435,87	9,88
436,373	10,35
436,876	9,53
437,378	9,73
437,88	9,72
438,383	9,83
438,885	10,03
439,387	9,79
439,889	9,82
440,391	10,05
440,892	9,81
441,394	9,9
441,896	9,95
442,397	9,95
442,898	9,59
443,399	10,42
443,9	9,91
444,401	9,76
444,902	9,92
445,403	9,81
445,903	10,03
446,404	9,96
446,904	9,93
447,405	9,59
447,905	9,99
448,405	9,8
448,905	9,92
449,404	9,35
449,904	9,84
450,404	10,02
450,903	9,86
451,403	9,89
451,902	9,73
452,401	9,91
452,9	9,96
453,399	10,11
453,898	10,31
454,396	10,27
454,895	10,18
455,393	10,09
455,892	9,96
456,39	10,4
456,888	10,01
457,386	9,96
457,884	10,02
458,382	10,38
458,879	10,09
459,377	9,87
459,874	10,2
460,372	10
460,869	10,23
461,366	10,05
461,863	10,24
462,36	10,25
462,857	9,94
463,353	10,11
463,85	10,16
464,346	10,38
464,843	10,22
465,339	9,89
465,835	10,1
466,331	10,09
466,827	10,13
467,323	10,04
467,818	9,94
468,314	10,32
468,809	10,21
469,305	9,98
469,8	10,21
470,295	10,16
470,79	10,08
471,285	10,02
471,78	9,89
472,274	9,96
472,769	10,32
473,263	9,84
473,758	9,85
474,252	10,13
474,746	10,18
475,24	10,25
475,734	10,43
476,228	10,23
476,721	10,11
477,215	10,55
477,708	9,97
478,202	10,42
478,695	10,14
479,188	9,83
479,681	10,09
480,174	10,35
480,667	10,29
481,159	9,92
481,652	10,03
482,144	10,27
482,637	10,46
483,129	10,48
483,621	10,44
484,113	11,02
484,605	10,35
485,097	10,31
485,588	10,13
486,08	10,41
486,571	10,22
487,063	10,62
487,554	10,36
488,045	10,39
488,536	10,32
489,027	10,42
489,518	10,15
490,008	10,63
490,499	10,64
490,989	10,3
491,48	10,37
491,97	10,59
492,46	10,74
492,95	10,8
493,44	10,51
493,93	10,97
494,419	10,97
494,909	10,66
495,398	10,67
495,888	10,92
496,377	11,22
496,866	10,91
497,355	11,12
497,844	11,11
498,333	11,3
498,821	11,13
499,31	11,16
499,798	11,27
500,287	11,55
500,775	11,54
501,263	11,44
501,751	11,96
502,239	11,81
502,727	11,72
503,215	12
503,702	12,14
504,19	12,29
504,677	11,88
505,164	12,11
505,651	12,51
506,139	12,96
506,625	12,74
507,112	12,84
507,599	13,09
508,086	13,3
508,572	13,83
509,058	13,54
509,545	13,66
510,031	14,12
510,517	14,03
511,003	14,33
511,489	14,4
511,974	14,86
512,46	14,95
512,946	15,27
513,431	15,48
513,916	15,57
514,401	15,87
514,887	15,99
515,371	16,61
515,856	16,63
516,341	17,19
516,826	17,59
517,31	17,78
517,795	18,16
518,279	18,1
518,763	18,77
519,247	19,11
519,731	19,65
520,215	19,49
520,699	20,08
521,182	20,28
521,666	20,7
522,149	21,13
522,633	21,3
523,116	21,97
523,599	22,18
524,082	22,52
524,565	23,14
525,048	22,98
525,53	23,35
526,013	23,84
526,495	24,08
526,978	24,84
527,46	24,59
527,942	24,94
528,424	25,47
528,906	25,5
529,388	25,79
529,87	25,7
530,351	25,95
530,833	26,58
531,314	26,83
531,795	26,95
532,277	27,05
532,758	27,02
533,238	27,41
533,719	27,75
534,2	27,37
534,681	27,83
535,161	28,34
535,642	28,08
536,122	28,06
536,602	28,23
537,082	28,82
537,562	28,79
538,042	28,35
538,522	28,62
539,001	28,63
539,481	29,02
539,96	28,83
540,44	28,86
540,919	29,31
541,398	29,11
541,877	29,48
542,356	29,04
542,835	29,48
543,313	29,15
543,792	29,44
544,27	29,53
544,749	29,58
545,227	29,35
545,705	29,44
546,183	29,55
546,661	29,76
547,139	29,81
547,616	30,17
548,094	30,03
548,571	29,8
549,049	30,24
549,526	30,2
550,003	29,87
550,48	29,85
550,957	30,44
551,434	30,04
551,911	30,14
552,387	30,16
552,864	30,13
553,34	30,32
553,817	30,34
554,293	30,26
554,769	30,32
555,245	30,08
555,721	30,29
556,197	30,26
556,672	30,18
557,148	29,84
557,623	29,97
558,099	29,82
558,574	30,19
559,049	29,82
559,524	29,96
559,999	29,64
560,474	29,65
560,948	29,57
561,423	29,85
561,897	29,62
562,372	29,64
562,846	29,42
563,32	29,08
563,794	29,1
564,268	28,63
564,742	28,93
565,216	28,47
565,69	28,25
566,163	28,12
566,636	28,21
567,11	27,62
567,583	27,51
568,056	27,74
568,529	27,15
569,002	27,16
569,475	27,07
569,947	26,8
570,42	26,63
570,892	26,24
571,365	26,16
571,837	26,14
572,309	25,9
572,781	25,17
573,253	25,07
573,725	24,77
574,197	24,91
574,668	24,62
575,14	24,48
575,611	24,32
576,082	24,11
576,554	23,8
577,025	23,91
577,496	23,73
577,967	23,45
578,437	23,65
578,908	22,99
579,379	22,77
579,849	22,98
580,319	22,71
580,79	22,66
581,26	22,42
581,73	22,2
582,2	22,44
582,669	22,12
583,139	21,88
583,609	21,92
584,078	21,81
584,548	21,51
585,017	21,23
585,486	21,34
585,955	21,31
586,424	21,14
586,893	20,94
587,362	20,94
587,83	20,79
588,299	20,77
588,767	20,84
589,236	20,61
589,704	20,78
590,172	20,78
590,64	20,51
591,108	20,42
591,576	20,43
592,043	20,22
592,511	20,33
592,978	20,03
593,446	20,19
593,913	19,85
594,38	19,98
594,847	19,97
595,314	19,72
595,781	19,76
596,248	19,82
596,715	19,78
597,181	19,58
597,647	19,73
598,114	19,33
598,58	19,54
599,046	19,5
599,512	19,81
599,978	19,49
600,444	19,57
600,91	19,27
601,375	19,32
601,841	19,29
602,306	19,22
602,771	19,13
603,236	19,23
603,702	19,04
604,167	18,71
604,631	18,68
605,096	18,85
605,561	18,83
606,025	18,46
606,49	18,8
606,954	18,54
607,418	18,55
607,882	18,26
608,347	18,32
608,81	18,3
609,274	18,02
609,738	18,1
610,202	17,95
610,665	17,78
611,128	17,68
611,592	17,62
612,055	17,65
612,518	17,52
612,981	17,34
613,444	17,22
613,907	16,82
614,369	16,95
614,832	16,91
615,294	16,75
615,757	16,62
616,219	16,6
616,681	16,25
617,143	16,52
617,605	16,41
618,067	16,32
618,529	16,17
618,99	16,28
619,452	16,09
619,913	16,18
620,375	15,9
620,836	15,89
621,297	15,86
621,758	15,84
622,219	15,62
622,68	15,82
623,14	15,47
623,601	15,55
624,061	15,57
624,522	15,63
624,982	15,55
625,442	15,5
625,902	15,59
626,362	15,38
626,822	15,36
627,282	15,35
627,742	15,13
628,201	15,4
628,661	14,99
629,12	15,08
629,579	15,07
630,038	15,08
630,497	15,01
630,956	15,15
631,415	15,19
631,874	14,93
632,332	14,88
632,791	14,96
633,249	14,78
633,708	15,04
634,166	14,87
634,624	14,97
635,082	14,78
635,54	14,56
635,998	14,59
636,455	14,54
636,913	14,5
637,37	14,42
637,828	14,27
638,285	14,22
638,742	13,89
639,199	14,06
639,656	13,89
640,113	13,88
640,57	13,52
641,027	13,67
641,483	13,55
641,94	13,19
642,396	13,33
642,852	13,17
643,309	13,03
643,765	12,76
644,221	12,92
644,676	12,81
645,132	12,43
645,588	12,53
646,043	12,46
646,499	12,27
646,954	12,26
647,409	11,95
647,864	11,95
648,319	11,99
648,774	11,82
649,229	11,7
649,684	11,74
650,139	11,57
650,593	11,42
651,047	11,63
651,502	11,56
651,956	11,41
652,41	11,43
652,864	11,41
653,318	11,33
653,772	11,26
654,225	11,25
654,679	11,21
655,133	11,18
655,586	11,21
656,039	10,96
656,492	10,98
656,946	10,87
657,399	10,87
657,851	10,75
658,304	10,68
658,757	10,69
659,209	10,6
659,662	10,55
660,114	10,48
660,567	10,29
661,019	10,41
661,471	10,36
661,923	10,25
662,375	10,29
662,826	10,11
663,278	9,99
663,73	9,96
664,181	9,96
664,632	9,89
665,084	9,92
665,535	9,81
665,986	9,77
666,437	9,88
666,888	9,71
667,338	9,79
667,789	9,69
668,24	9,75
668,69	9,76
669,14	9,83
669,591	9,78
670,041	9,76
670,491	9,77
670,941	9,82
671,391	9,92
671,84	9,68
672,29	9,77
672,74	9,83
673,189	9,84
673,638	9,84
674,088	9,9
674,537	9,96
674,986	10,12
675,435	10,07
675,883	10,13
676,332	10,11
676,781	10,1
677,229	10,18
677,678	10,35
678,126	10,46
678,574	10,44
679,022	10,53
679,47	10,53
679,918	10,73
680,366	10,55
680,814	10,65
681,261	10,76
681,709	10,8
682,156	10,99
682,604	11,09
683,051	11,03
683,498	11,1
683,945	11,22
684,392	11,22
684,839	11,37
685,286	11,5
685,732	11,61
686,179	11,75
686,625	11,91
687,071	11,88
687,518	11,91
687,964	12,22
688,41	12,38
688,856	12,61
689,301	12,86
689,747	13,06
690,193	13,43
690,638	13,63
691,084	13,96
691,529	14,44
691,974	14,88
692,419	15,04
692,864	15,7
693,309	16,22
693,754	16,68
694,199	17,07
694,643	17,71
695,088	18,16
695,532	18,91
695,977	19,44
696,421	19,9
696,865	20,6
697,309	21,3
697,753	21,93
698,197	22,72
698,64	23,47
699,084	23,77
699,527	24,63
699,971	25,38
700,414	25,99
700,857	26,61
701,3	27,31
701,743	28
702,186	28,65
702,629	29,39
703,072	29,73
703,515	30,86
703,957	31,34
704,399	31,67
704,842	32,51
705,284	33,28
705,726	33,88
706,168	34,38
706,61	35
707,052	35,94
707,494	36,48
707,935	37,05
708,377	37,36
708,818	37,9
709,26	38,38
709,701	39,11
710,142	39,69
710,583	40,2
711,024	40,91
711,465	41,2
711,905	42,06
712,346	42,13
712,787	43,09
713,227	43,63
713,667	44,24
714,108	44,66
714,548	45,31
714,988	45,76
715,428	46,05
715,868	46,39
716,307	47,36
716,747	47,98
717,186	48,16
717,626	48,94
718,065	48,76
718,504	49,64
718,944	50,14
719,383	50,52
719,822	51
720,261	51,37
720,699	51,92
721,138	52,01
721,576	52,79
722,015	52,91
722,453	53,12
722,892	53,8
723,33	53,88
723,768	54,46
724,206	54,82
724,644	55,1
725,081	55,42
725,519	55,76
725,957	55,91
726,394	56,38
726,832	56,62
727,269	57,04
727,706	57,32
728,143	57,67
728,58	57,69
729,017	57,81
729,454	58,07
729,89	58,08
730,327	58,87
730,764	58,97
731,2	59,18
731,636	59,18
732,072	59,47
732,509	59,61
732,945	60,02
733,38	60,02
733,816	59,84
734,252	59,99
734,688	60,6
735,123	60,35
735,559	60,58
735,994	60,88
736,429	60,98
736,864	61,02
737,299	60,93
737,734	61,35
738,169	61,19
738,604	61,76
739,038	61,74
739,473	61,93
739,907	61,93
740,342	61,9
740,776	61,83
741,21	61,87
741,644	62,12
742,078	62,07
742,512	62,5
742,946	62
743,379	62,42
743,813	62,17
744,246	62,3
744,68	62,56
745,113	62,2
745,546	62,5
745,979	62,28
746,412	62,65
746,845	62,63
747,278	62,31
747,711	62,58
748,143	62,55
748,576	62,43
749,008	62,66
749,441	62,79
749,873	62,34
750,305	62,89
750,737	62,28
751,169	62,53
751,601	62,75
752,032	62,58
752,464	62,36
752,896	62,39
753,327	62,73
753,758	62,58
754,19	62,68
754,621	62,46
755,052	62,48
755,483	62,45
755,914	62,53
756,344	62,27
756,775	62,44
757,206	62,56
757,636	62,38
758,066	62,64
758,497	62,38
758,927	62,47
759,357	62,61
759,787	62,42
760,217	62,07
760,647	62,48
761,076	62,35
761,506	62,33
761,935	62,34
762,365	62,05
762,794	61,83
763,223	62,35
763,653	62,09
764,082	61,99
764,51	62,02
764,939	62,12
765,368	62,05
765,797	61,84
766,225	62,05
766,654	62,05
767,082	62,13
767,51	61,76
767,938	61,99
768,367	61,89
768,795	61,73
769,222	61,82
769,65	61,93
770,078	61,48
770,505	61,7
770,933	62
771,36	61,43
771,788	61,59
772,215	61,55
772,642	62,01
773,069	61,75
773,496	61,53
773,923	61,85
774,349	61,86
774,776	61,33
775,203	61,23
775,629	61,82
776,055	61,5
776,482	61,48
776,908	61,55
777,334	61,67
777,76	61,39
778,186	61,41
778,611	61,08
779,037	61,41
779,463	61,28
779,888	61,38
780,314	61,36
780,739	61,31
781,164	61,3
781,589	61,42
782,014	61,47
782,439	61,5
782,864	61,66
783,289	61,25
783,713	61,22
784,138	61,15
784,562	60,98
784,987	61,06
785,411	60,99
785,835	61,18
786,259	61,09
786,683	61,47
787,107	61,41
787,531	61,09
787,954	61,46
788,378	61,15
788,802	60,95
789,225	61,05
789,648	61,36
790,071	61,19
790,495	61,36
790,918	61
791,34	61,47
791,763	61,17
792,186	61
792,609	61,27
793,031	61,29
793,454	60,99
793,876	61,2
794,298	61,14
794,721	60,98
795,143	61,32
795,565	60,67
795,986	60,66
796,408	61,26
796,83	60,87
797,252	60,73
797,673	61,19
798,094	60,92
798,516	60,91
798,937	60,8
799,358	61,01
799,779	61,2
800,2	60,91
800,621	60,93
801,042	61,03
801,462	61,45
801,883	60,84
802,303	60,65
802,724	60,58
803,144	60,63
803,564	61
803,984	60,89
804,404	60,74
804,824	61
805,244	60,6
805,664	61,06
806,084	60,77
806,503	60,83
806,923	60,69
807,342	60,85
807,761	60,53
808,18	60,78
808,599	60,46
809,018	60,82
809,437	60,89
809,856	60,95
810,275	60,9
810,693	61
811,112	61,03
811,53	60,63
811,949	60,84
812,367	60,57
812,785	60,5
813,203	60,71
813,621	60,66
814,039	60,6
814,457	60,8
814,874	60,69
815,292	60,99
815,709	60,94
816,127	60,06
816,544	60,89
816,961	60,63
817,378	60,91
817,795	60,65
818,212	60,97
818,629	60,69
819,046	60,77
819,462	61,04
819,879	60,46
820,295	60,65
820,712	60,75
821,128	60,67
821,544	60,27
821,96	60,56
822,376	60,72
822,792	60,74
823,208	60,69
823,624	60,62
824,039	60,67
824,455	61,04
824,87	60,99
825,286	60,64
825,701	60,97
826,116	60,78
826,531	60,45
826,946	60,18
827,361	60,64
827,776	60,7
828,19	60,3
828,605	60,45
829,02	60,95
829,434	60,55
829,848	60,46
830,263	60,49
830,677	60,38
831,091	60,59
831,505	60,43
831,919	60,61
832,332	60,38
832,746	60,32
833,16	60,56
833,573	60,55
833,987	59,98
834,4	60,51
834,813	60,66
835,226	60,71
835,639	60,31
836,052	60,81
