Data from F_5__Relative__2__00133.txt Node

Date: Mon Jan 29 18:23:22 CET 2024
User: diatiterra
Spectrometer: HDX00911
Trigger mode: 0
Integration Time (sec): 6,000000E-3
Scans to average: 2
Nonlinearity correction enabled: false
Boxcar width: 0
Storing dark spectrum: false
XAxis mode: Wavelengths
Number of Pixels in Spectrum: 2068
>>>>>Begin Spectral Data<<<<<
194,468	77,45
195,025	56,64
195,581	70,21
196,138	58,46
196,694	67,82
197,251	53,78
197,807	56,4
198,363	48
198,919	48,04
199,474	52,5
200,03	44,85
200,586	39,46
201,141	48,31
201,696	43,25
202,251	44,28
202,806	51,13
203,361	49,12
203,916	43,84
204,471	47,54
205,025	49,29
205,58	45,52
206,134	47,78
206,688	43,12
207,242	48,98
207,796	43,05
208,35	44,04
208,904	48,14
209,457	41,88
210,011	50,7
210,564	51,04
211,117	43,66
211,67	46,13
212,223	43,49
212,776	49,06
213,329	42,96
213,881	43,57
214,434	44,83
214,986	42,42
215,538	44,32
216,09	41,31
216,642	58,89
217,194	42,38
217,746	44,11
218,297	50
218,849	47,35
219,4	53,15
219,951	50,91
220,502	39,02
221,053	41,69
221,604	54,7
222,155	48,97
222,705	51,51
223,256	46,4
223,806	44,22
224,356	54,35
224,906	46,3
225,456	48,28
226,006	42,28
226,556	49,64
227,106	49,3
227,655	46,34
228,204	41,45
228,754	49,66
229,303	48,81
229,852	49,67
230,401	46,59
230,949	58,75
231,498	54,48
232,047	44,11
232,595	47,87
233,143	55,3
233,691	48
234,239	45,15
234,787	44,76
235,335	46,6
235,883	54,12
236,43	52,96
236,978	48
237,525	46,64
238,072	49,45
238,619	42,81
239,166	38,72
239,713	56,13
240,26	52,43
240,806	51,42
241,353	46,64
241,899	45,63
242,445	52,8
242,991	52,61
243,537	47,19
244,083	43,64
244,629	46,62
245,174	57,09
245,72	52,51
246,265	48,06
246,81	57,3
247,355	48,16
247,9	46,02
248,445	51,38
248,99	42,91
249,534	50,32
250,079	45,9
250,623	47,8
251,168	51,34
251,712	51,42
252,256	49,17
252,8	53,82
253,343	49,68
253,887	45,58
254,43	55,02
254,974	45,45
255,517	45,64
256,06	45,21
256,603	49,43
257,146	53,54
257,689	47,47
258,232	53,26
258,774	53,14
259,317	49,45
259,859	47,23
260,401	55,68
260,943	45,52
261,485	52,13
262,027	51,03
262,569	54,89
263,11	42,6
263,652	50
264,193	47,14
264,734	52,78
265,275	47,79
265,816	51,44
266,357	50
266,898	45,73
267,438	52,94
267,979	58,55
268,519	44,4
269,059	53,55
269,6	55,79
270,14	48,51
270,68	50,96
271,219	51,58
271,759	54,1
272,298	44,73
272,838	50
273,377	47,78
273,916	41,88
274,455	50,19
274,994	46,04
275,533	46,08
276,072	50,38
276,61	50,85
277,149	44,57
277,687	49,47
278,225	50
278,763	43,84
279,301	56,6
279,839	42,75
280,377	47,81
280,914	50,18
281,452	53,25
281,989	51,19
282,526	50,9
283,064	54,51
283,601	51,14
284,137	53,28
284,674	50,57
285,211	49,64
285,747	45,42
286,284	43,86
286,82	50,71
287,356	49,48
287,892	46,67
288,428	46,44
288,964	50,18
289,5	49,66
290,035	50,36
290,571	46,64
291,106	45,09
291,641	47,51
292,176	54,14
292,711	50,69
293,246	43,68
293,781	47,96
294,315	51,47
294,85	47,08
295,384	49,26
295,918	49,83
296,453	47
296,987	45,52
297,52	45,89
298,054	44,49
298,588	52,36
299,121	44,69
299,655	46,67
300,188	46,77
300,721	50
301,254	54,09
301,787	43,09
302,32	49,62
302,853	42,51
303,385	48,35
303,918	42,46
304,45	47,88
304,982	41,04
305,514	43,91
306,046	43,16
306,578	45
307,11	45,72
307,641	42,18
308,173	47,96
308,704	51,72
309,236	43,07
309,767	46,25
310,298	38,68
310,829	49,81
311,359	36,65
311,89	51,6
312,421	50,72
312,951	46,18
313,481	51,41
314,012	42,12
314,542	50,34
315,072	45,82
315,601	42,7
316,131	44,89
316,661	50
317,19	44,13
317,72	51,65
318,249	45,61
318,778	45,63
319,307	40,2
319,836	49,66
320,365	42,02
320,893	41,49
321,422	47,76
321,95	39,63
322,479	48,79
323,007	44,57
323,535	45,28
324,063	52,24
324,591	40,67
325,118	38,46
325,646	47,31
326,173	42,86
326,701	42,18
327,228	42,81
327,755	41,58
328,282	47,17
328,809	36,67
329,336	48,79
329,862	46,15
330,389	49,49
330,915	45,39
331,441	37,97
331,968	39,18
332,494	42,81
333,02	44,53
333,545	38,27
334,071	46,33
334,597	36,49
335,122	35,79
335,648	51,65
336,173	45,21
336,698	39,73
337,223	48,12
337,748	46,67
338,272	40,59
338,797	38,51
339,322	38,87
339,846	37,5
340,37	48,35
340,894	46,92
341,419	45,97
341,942	44,3
342,466	40,61
342,99	40,62
343,514	40,58
344,037	38,69
344,56	51,41
345,084	38,8
345,607	42,25
346,13	36,31
346,653	40,25
347,175	40,97
347,698	37,2
348,221	38,95
348,743	40,52
349,265	35,71
349,787	39,43
350,309	39,67
350,831	39,4
351,353	48,68
351,875	39,04
352,397	34,16
352,918	37,29
353,439	45,8
353,961	39,15
354,482	41,57
355,003	38,87
355,524	36,73
356,044	39,31
356,565	38,9
357,086	34,35
357,606	36,14
358,126	39,66
358,646	33,58
359,167	43,98
359,687	36,56
360,206	32,53
360,726	35,15
361,246	40,24
361,765	37,5
362,285	39,34
362,804	35,78
363,323	30,96
363,842	41,9
364,361	36,15
364,88	37,55
365,398	34,88
365,917	40,66
366,435	37,34
366,954	32,26
367,472	36,46
367,99	33,06
368,508	37,3
369,026	38,37
369,544	32,73
370,061	36,03
370,579	34,71
371,096	35,77
371,613	36,15
372,131	38,38
372,648	37,36
373,165	37,44
373,681	36,08
374,198	30
374,715	35,42
375,231	34,18
375,747	33,06
376,264	34,82
376,78	38,12
377,296	37,5
377,812	36,2
378,327	32,74
378,843	32,94
379,359	30,29
379,874	32,65
380,389	34,53
380,905	32,49
381,42	34,6
381,935	32,53
382,449	35,32
382,964	33,86
383,479	33,59
383,993	33,41
384,508	31,03
385,022	33,84
385,536	27,96
386,05	29,47
386,564	31,37
387,078	26,91
387,592	31,87
388,105	30,29
388,619	30,58
389,132	28,42
389,645	29,98
390,158	25,98
390,671	29,83
391,184	27
391,697	27,3
392,21	27,17
392,722	25,57
393,235	27,17
393,747	26,78
394,259	27,78
394,771	25,41
395,283	25,48
395,795	23,91
396,307	26,57
396,818	23,75
397,33	25,09
397,841	24,89
398,353	23,33
398,864	23,85
399,375	23,23
399,886	22,62
400,397	21,74
400,907	21,04
401,418	20,56
401,928	20,75
402,439	21,98
402,949	20,88
403,459	19,69
403,969	20,63
404,479	18,31
404,989	18,78
405,498	18,52
406,008	17,64
406,517	17,57
407,027	17,34
407,536	15,48
408,045	15,66
408,554	15,43
409,063	14,86
409,572	14,86
410,08	14,23
410,589	14,14
411,097	13,93
411,606	13,13
412,114	13,4
412,622	13,34
413,13	12,19
413,638	12,29
414,145	12,06
414,653	11,63
415,16	11,17
415,668	10,53
416,175	11,16
416,682	10,82
417,189	10,53
417,696	10,56
418,203	10,66
418,71	10,49
419,216	9,72
419,723	9,88
420,229	9,72
420,735	9,66
421,242	9,41
421,748	9,77
422,254	9,16
422,759	9,14
423,265	9,1
423,771	9,18
424,276	9,35
424,781	9
425,287	8,98
425,792	8,95
426,297	9,1
426,802	8,38
427,306	8,81
427,811	8,36
428,316	8,78
428,82	8,36
429,324	8,58
429,829	8,7
430,333	8,42
430,837	8,3
431,34	8,54
431,844	7,93
432,348	8,46
432,851	7,82
433,355	7,95
433,858	7,75
434,361	8,36
434,864	8,16
435,367	7,62
435,87	8,1
436,373	8,41
436,876	7,5
437,378	7,87
437,88	7,96
438,383	8,06
438,885	7,74
439,387	7,6
439,889	7,95
440,391	8,24
440,892	7,8
441,394	7,6
441,896	7,99
442,397	7,78
442,898	8,01
443,399	8,37
443,9	7,95
444,401	7,91
444,902	8,03
445,403	7,87
445,903	7,69
446,404	7,89
446,904	8,02
447,405	7,98
447,905	7,96
448,405	8,15
448,905	8,05
449,404	8,22
449,904	7,95
450,404	8,11
450,903	8,04
451,403	8,12
451,902	8,07
452,401	8,2
452,9	8,06
453,399	8,27
453,898	7,99
454,396	7,62
454,895	7,99
455,393	7,92
455,892	8,22
456,39	8,61
456,888	8,17
457,386	8,28
457,884	8,69
458,382	8,58
458,879	8,25
459,377	7,89
459,874	8,29
460,372	8,32
460,869	8,36
461,366	8,02
461,863	8,36
462,36	8,17
462,857	8,2
463,353	8,34
463,85	8,24
464,346	8,12
464,843	8,29
465,339	8,25
465,835	7,82
466,331	7,93
466,827	8,05
467,323	7,88
467,818	8,07
468,314	8,06
468,809	8,18
469,305	8,28
469,8	8,38
470,295	8,2
470,79	8,42
471,285	8,22
471,78	8,16
472,274	8,3
472,769	8
473,263	7,91
473,758	8,58
474,252	8,26
474,746	8,23
475,24	8,52
475,734	8,19
476,228	8,59
476,721	8,12
477,215	8,46
477,708	8,16
478,202	8,54
478,695	8,49
479,188	8,16
479,681	7,99
480,174	8,3
480,667	8,27
481,159	8,41
481,652	8,46
482,144	8,22
482,637	8,53
483,129	8,48
483,621	8,24
484,113	8,78
484,605	8,49
485,097	8,52
485,588	8,58
486,08	8,59
486,571	8,91
487,063	8,61
487,554	8,38
488,045	8,54
488,536	8,61
489,027	8,83
489,518	8,83
490,008	8,87
490,499	8,47
490,989	8,67
491,48	8,82
491,97	9,05
492,46	8,81
492,95	8,97
493,44	9
493,93	9,14
494,419	9,16
494,909	9,03
495,398	9,03
495,888	8,81
496,377	9,06
496,866	9,02
497,355	9,42
497,844	9,33
498,333	9,41
498,821	9,44
499,31	9,51
499,798	9,52
500,287	9,61
500,775	9,81
501,263	9,99
501,751	10,15
502,239	10,2
502,727	10,38
503,215	10,38
503,702	10,55
504,19	10,45
504,677	10,55
505,164	10,72
505,651	10,86
506,139	11,09
506,625	11,25
507,112	11,41
507,599	11,36
508,086	11,62
508,572	11,82
509,058	11,86
509,545	12,29
510,031	12,48
510,517	12,31
511,003	12,92
511,489	12,71
511,974	12,98
512,46	13,22
512,946	13,77
513,431	13,6
513,916	14,1
514,401	14,57
514,887	14,12
515,371	14,66
515,856	15,16
516,341	15,36
516,826	15,73
517,31	15,84
517,795	16,18
518,279	16,52
518,763	16,89
519,247	16,74
519,731	17,44
520,215	17,99
520,699	17,83
521,182	17,89
521,666	18,62
522,149	18,82
522,633	18,98
523,116	19,68
523,599	19,88
524,082	20,36
524,565	20,26
525,048	20,46
525,53	21,02
526,013	21,43
526,495	21,45
526,978	21,61
527,46	22,02
527,942	22,18
528,424	22,57
528,906	22,37
529,388	22,85
529,87	23,04
530,351	22,9
530,833	23,48
531,314	23,61
531,795	24,21
532,277	23,91
532,758	24,09
533,238	24,34
533,719	24,26
534,2	24,54
534,681	24,4
535,161	25,13
535,642	24,32
536,122	24,58
536,602	25,06
537,082	25,1
537,562	25,42
538,042	25,1
538,522	25,32
539,001	25,38
539,481	25,21
539,96	25,27
540,44	25,62
540,919	25,82
541,398	25,64
541,877	25,35
542,356	25,57
542,835	25,9
543,313	25,83
543,792	25,86
544,27	25,65
544,749	26,09
545,227	25,67
545,705	26,13
546,183	25,84
546,661	26,29
547,139	25,81
547,616	26,17
548,094	26,45
548,571	26,29
549,049	26,26
549,526	26,24
550,003	26,39
550,48	26,38
550,957	26,34
551,434	26,39
551,911	26,62
552,387	26,3
552,864	26,46
553,34	26,53
553,817	26,6
554,293	26,51
554,769	25,95
555,245	26,67
555,721	26,49
556,197	26,36
556,672	26,49
557,148	26,53
557,623	26,41
558,099	26,37
558,574	26,55
559,049	26,33
559,524	26,35
559,999	26,16
560,474	25,97
560,948	26,24
561,423	26,19
561,897	25,79
562,372	25,9
562,846	25,57
563,32	25,63
563,794	25,71
564,268	25,52
564,742	25,36
565,216	24,94
565,69	25,09
566,163	25,03
566,636	24,78
567,11	24,44
567,583	24,44
568,056	24,48
568,529	24,26
569,002	24,05
569,475	23,7
569,947	23,55
570,42	23,24
570,892	23,2
571,365	23,34
571,837	23,2
572,309	22,85
572,781	22,57
573,253	22,15
573,725	22,39
574,197	22,54
574,668	21,72
575,14	21,9
575,611	21,62
576,082	21,28
576,554	21,32
577,025	21,39
577,496	20,88
577,967	20,74
578,437	20,66
578,908	20,46
579,379	20,28
579,849	20,5
580,319	20,13
580,79	20,2
581,26	19,74
581,73	19,9
582,2	20,05
582,669	19,51
583,139	19,8
583,609	19,45
584,078	19,26
584,548	19,18
585,017	18,93
585,486	18,77
585,955	19,22
586,424	18,83
586,893	18,84
587,362	18,63
587,83	18,69
588,299	18,38
588,767	18,7
589,236	18,22
589,704	18,54
590,172	18,55
590,64	18,09
591,108	18,02
591,576	17,92
592,043	18,1
592,511	17,96
592,978	17,99
593,446	17,99
593,913	17,81
594,38	17,98
594,847	17,59
595,314	17,6
595,781	17,49
596,248	17,6
596,715	17,72
597,181	17,44
597,647	17,32
598,114	17,34
598,58	17,4
599,046	17,48
599,512	17,52
599,978	17,32
600,444	17,31
600,91	17,3
601,375	17,33
601,841	16,96
602,306	17,29
602,771	17,13
603,236	17
603,702	17,16
604,167	16,96
604,631	16,77
605,096	16,89
605,561	16,77
606,025	16,74
606,49	16,52
606,954	16,67
607,418	16,63
607,882	16,08
608,347	16,4
608,81	16,04
609,274	16,02
609,738	16,11
610,202	15,93
610,665	15,93
611,128	15,61
611,592	15,76
612,055	15,53
612,518	15,51
612,981	15,46
613,444	15,15
613,907	15,16
614,369	15,13
614,832	15,2
615,294	14,96
615,757	14,78
616,219	14,95
616,681	14,58
617,143	14,7
617,605	14,38
618,067	14,42
618,529	14,24
618,99	14,4
619,452	14,4
619,913	14,17
620,375	13,87
620,836	14,25
621,297	14,16
621,758	13,98
622,219	13,87
622,68	13,89
623,14	13,86
623,601	13,73
624,061	13,76
624,522	13,72
624,982	13,49
625,442	13,64
625,902	13,64
626,362	13,53
626,822	13,59
627,282	13,42
627,742	13,58
628,201	13,36
628,661	13,41
629,12	13,42
629,579	13,4
630,038	13,48
630,497	13,33
630,956	13,41
631,415	13,32
631,874	13,4
632,332	13,29
632,791	13,26
633,249	13,11
633,708	13,2
634,166	13,17
634,624	13,15
635,082	13
635,54	12,85
635,998	13,05
636,455	12,8
636,913	12,62
637,37	12,38
637,828	12,58
638,285	12,3
638,742	12,27
639,199	12,28
639,656	12,07
640,113	12,26
640,57	12,05
641,027	11,93
641,483	11,75
641,94	11,54
642,396	11,71
642,852	11,55
643,309	11,46
643,765	11,17
644,221	11,07
644,676	11,18
645,132	10,92
645,588	10,94
646,043	10,75
646,499	10,58
646,954	10,6
647,409	10,32
647,864	10,34
648,319	10,2
648,774	10,16
649,229	10,08
649,684	10,09
650,139	10,01
650,593	9,9
651,047	9,9
651,502	9,92
651,956	9,69
652,41	9,71
652,864	9,76
653,318	9,81
653,772	9,54
654,225	9,61
654,679	9,56
655,133	9,49
655,586	9,52
656,039	9,32
656,492	9,4
656,946	9,31
657,399	9,21
657,851	9,09
658,304	9,13
658,757	9,13
659,209	9,03
659,662	8,98
660,114	8,74
660,567	8,81
661,019	8,65
661,471	8,67
661,923	8,56
662,375	8,52
662,826	8,45
663,278	8,27
663,73	8,36
664,181	8,23
664,632	8,23
665,084	8,25
665,535	8,16
665,986	8,15
666,437	8,11
666,888	8,02
667,338	8,18
667,789	8,01
668,24	8,08
668,69	8,12
669,14	8,08
669,591	8,1
670,041	8,02
670,491	8,1
670,941	8,2
671,391	8,08
671,84	8,16
672,29	8,27
672,74	8,21
673,189	8,24
673,638	8,41
674,088	8,47
674,537	8,55
674,986	8,46
675,435	8,61
675,883	8,66
676,332	8,73
676,781	8,83
677,229	8,85
677,678	8,88
678,126	8,96
678,574	9,01
679,022	9,21
679,47	9,25
679,918	9,29
680,366	9,4
680,814	9,43
681,261	9,56
681,709	9,52
682,156	9,78
682,604	9,8
683,051	9,97
683,498	9,9
683,945	10,12
684,392	10,31
684,839	10,35
685,286	10,5
685,732	10,59
686,179	10,66
686,625	10,85
687,071	10,89
687,518	11,16
687,964	11,21
688,41	11,47
688,856	11,73
689,301	11,89
689,747	12,15
690,193	12,48
690,638	12,74
691,084	12,84
691,529	13,29
691,974	13,8
692,419	14,12
692,864	14,43
693,309	15,04
693,754	15,28
694,199	15,9
694,643	16,38
695,088	16,9
695,532	17,42
695,977	17,83
696,421	18,4
696,865	18,94
697,309	19,37
697,753	20,11
698,197	20,59
698,64	21,09
699,084	21,62
699,527	22,12
699,971	22,59
700,414	23,36
700,857	23,84
701,3	24,35
701,743	24,79
702,186	25,3
702,629	26,07
703,072	26,37
703,515	26,84
703,957	27,67
704,399	27,71
704,842	28,35
705,284	29,03
705,726	29,4
706,168	29,89
706,61	30,31
707,052	30,91
707,494	31,19
707,935	31,7
708,377	32,03
708,818	32,5
709,26	32,98
709,701	33,41
710,142	33,71
710,583	34,06
711,024	34,45
711,465	35,11
711,905	35,36
712,346	35,54
712,787	36,05
713,227	36,76
713,667	36,98
714,108	37,26
714,548	37,62
714,988	38,18
715,428	38,15
715,868	38,59
716,307	39,06
716,747	39,44
717,186	39,95
717,626	40,4
718,065	40,21
718,504	40,6
718,944	40,93
719,383	41,2
719,822	41,7
720,261	41,89
720,699	42,28
721,138	42,59
721,576	42,76
722,015	42,87
722,453	43,42
722,892	43,59
723,33	43,66
723,768	44,15
724,206	44,44
724,644	44,59
725,081	44,8
725,519	45,09
725,957	45
726,394	45,36
726,832	45,5
727,269	45,96
727,706	46,02
728,143	46,57
728,58	46,22
729,017	46,24
729,454	46,59
729,89	46,33
730,327	46,77
730,764	47,16
731,2	47,15
731,636	46,87
732,072	47,33
732,509	47,68
732,945	47,77
733,38	47,85
733,816	47,89
734,252	47,8
734,688	48,11
735,123	47,96
735,559	48,15
735,994	48,44
736,429	48,11
736,864	48,37
737,299	48,61
737,734	48,64
738,169	48,64
738,604	48,63
739,038	48,86
739,473	49,09
739,907	48,91
740,342	48,75
740,776	48,7
741,21	48,78
741,644	48,92
742,078	48,9
742,512	49,15
742,946	48,83
743,379	48,93
743,813	48,83
744,246	49,12
744,68	48,94
745,113	49,14
745,546	49,09
745,979	48,78
746,412	49,14
746,845	48,86
747,278	48,68
747,711	48,95
748,143	49,02
748,576	48,96
749,008	49,12
749,441	49,01
749,873	48,69
750,305	48,89
750,737	48,73
751,169	49,03
751,601	48,97
752,032	49,06
752,464	48,64
752,896	48,8
753,327	48,86
753,758	48,87
754,19	48,82
754,621	48,56
755,052	48,57
755,483	48,45
755,914	48,59
756,344	48,4
756,775	48,46
757,206	48,7
757,636	48,35
758,066	48,27
758,497	48,28
758,927	48,47
759,357	48,43
759,787	48,32
760,217	48,27
760,647	48,4
761,076	48,11
761,506	48,35
761,935	48,24
762,365	48,17
762,794	48,35
763,223	48,13
763,653	48,52
764,082	47,74
764,51	47,93
764,939	47,92
765,368	48,27
765,797	47,78
766,225	48,1
766,654	47,94
767,082	48,18
767,51	47,94
767,938	47,78
768,367	47,54
768,795	47,53
769,222	47,89
769,65	47,84
770,078	47,57
770,505	47,64
770,933	47,7
771,36	47,04
771,788	47,68
772,215	47,65
772,642	47,47
773,069	47,68
773,496	47,6
773,923	47,56
774,349	47,3
774,776	47,44
775,203	47,25
775,629	47,61
776,055	47,17
776,482	47,35
776,908	47,37
777,334	47,38
777,76	47,24
778,186	47,25
778,611	47,46
779,037	47,25
779,463	46,82
779,888	47,24
780,314	47,41
780,739	47,11
781,164	47,21
781,589	47,25
782,014	47,36
782,439	47,05
782,864	47,04
783,289	47,18
783,713	47,03
784,138	47,29
784,562	47,23
784,987	47,08
785,411	46,9
785,835	47,45
786,259	46,9
786,683	47,03
787,107	47,24
787,531	46,72
787,954	47,14
788,378	46,9
788,802	46,93
789,225	46,95
789,648	47,06
790,071	46,95
790,495	46,93
790,918	46,86
791,34	46,93
791,763	46,85
792,186	46,94
792,609	46,81
793,031	46,9
793,454	47,06
793,876	46,92
794,298	47,01
794,721	46,83
795,143	47,17
795,565	46,69
795,986	46,79
796,408	46,82
796,83	46,84
797,252	46,83
797,673	46,97
798,094	46,89
798,516	46,79
798,937	46,31
799,358	46,76
799,779	47,12
800,2	46,54
800,621	46,21
801,042	47,01
801,462	46,79
801,883	46,62
802,303	46,64
802,724	46,47
803,144	46,65
803,564	46,61
803,984	46,67
804,404	46,64
804,824	46,96
805,244	46,93
805,664	46,79
806,084	46,57
806,503	46,69
806,923	46,94
807,342	46,46
807,761	46,52
808,18	46,51
808,599	46,55
809,018	46,7
809,437	46,39
809,856	46,46
810,275	46,67
810,693	46,99
811,112	46,56
811,53	46,46
811,949	46,59
812,367	46,58
812,785	46,48
813,203	46,89
813,621	46,71
814,039	46,55
814,457	46,84
814,874	46,61
815,292	46,92
815,709	46,83
816,127	46,3
816,544	46,55
816,961	46,58
817,378	46,66
817,795	46,75
818,212	46,57
818,629	46,9
819,046	46,71
819,462	46,45
819,879	46,76
820,295	46,32
820,712	46,72
821,128	46,61
821,544	46,54
821,96	46,65
822,376	46,5
822,792	46,59
823,208	46,49
823,624	46,56
824,039	46,56
824,455	46,69
824,87	46,6
825,286	46,68
825,701	46,51
826,116	46,53
826,531	46,69
826,946	46,53
827,361	46,77
827,776	46,63
828,19	46,02
828,605	46,22
829,02	46,32
829,434	46,34
829,848	46,27
830,263	46,25
830,677	46,3
831,091	46,36
831,505	46,46
831,919	46,49
832,332	46,29
832,746	46,38
833,16	46,32
833,573	46,42
833,987	45,97
834,4	46,33
834,813	46,51
835,226	46,55
835,639	46,27
836,052	46,65
836,465	46,35
836,878	46,08
837,29	46,33
837,703	46,44
838,116	46,56
838,528	46,15
838,94	46,19
839,352	46,04
839,765	46,11
840,177	46,03
840,589	46,07
841	46,16
841,412	46,48
