Data from G_2__Relative__7__00146.txt Node

Date: Mon Jan 29 18:25:04 CET 2024
User: diatiterra
Spectrometer: HDX00911
Trigger mode: 0
Integration Time (sec): 6,000000E-3
Scans to average: 2
Nonlinearity correction enabled: false
Boxcar width: 0
Storing dark spectrum: false
XAxis mode: Wavelengths
Number of Pixels in Spectrum: 2068
>>>>>Begin Spectral Data<<<<<
194,468	67,65
195,025	46,02
195,581	87,23
196,138	54,62
196,694	56,32
197,251	56,44
197,807	58,8
198,363	53,45
198,919	48,4
199,474	58,93
200,03	47,79
200,586	50
201,141	53,56
201,696	54,33
202,251	55,72
202,806	50,38
203,361	47,02
203,916	59,25
204,471	53,52
205,025	49,29
205,58	49,82
206,134	43,7
206,688	48,91
207,242	53,4
207,796	46,78
208,35	57,76
208,904	55,25
209,457	57,4
210,011	50
210,564	49,31
211,117	46,48
211,67	47,18
212,223	42,81
212,776	55,81
213,329	45,7
213,881	49,64
214,434	54,48
214,986	47,47
215,538	41,76
216,09	45,57
216,642	58,89
217,194	47,02
217,746	50,51
218,297	49,33
218,849	42,06
219,4	58,74
219,951	54,55
220,502	55,05
221,053	47,34
221,604	57,05
222,155	48,56
222,705	56,19
223,256	57,55
223,806	46,26
224,356	52,54
224,906	42,22
225,456	55,86
226,006	51,34
226,556	51,46
227,106	55,24
227,655	45,3
228,204	46,38
228,754	48,97
229,303	57,29
229,852	51,31
230,401	47,67
230,949	65,37
231,498	54,1
232,047	46,8
232,595	54,26
233,143	59,09
233,691	65,6
234,239	54,1
234,787	51,75
235,335	51,36
235,883	55,56
236,43	49,63
236,978	57,09
237,525	50,37
238,072	56,83
238,619	41,78
239,166	50,17
239,713	60,97
240,26	57,68
240,806	47,52
241,353	60,07
241,899	52,43
242,445	55,59
242,991	52,61
243,537	52,81
244,083	50,18
244,629	52,03
245,174	63,43
245,72	47,16
246,265	52,3
246,81	55,47
247,355	49,26
247,9	49,13
248,445	62,41
248,99	53,63
249,534	51,58
250,079	58,21
250,623	54,24
251,168	53,36
251,712	56,74
252,256	57,14
252,8	57,99
253,343	54,46
253,887	44,9
254,43	68,4
254,974	52,1
255,517	48,66
256,06	53,42
256,603	57,36
257,146	47,47
257,689	49,05
258,232	50,57
258,774	62,73
259,317	51,65
259,859	52,77
260,401	56,06
260,943	51,49
261,485	45,39
262,027	43,79
262,569	59,4
263,11	50,9
263,652	47,79
264,193	52,86
264,734	51,19
265,275	51,41
265,816	58,99
266,357	54,68
266,898	47,78
267,438	45,88
267,979	59,27
268,519	57,4
269,059	55,67
269,6	53,33
270,14	54,46
270,68	51,34
271,219	56,49
271,759	55,97
272,298	51,27
272,838	55,81
273,377	54,81
273,916	55,96
274,455	53,26
274,994	52,52
275,533	52,9
276,072	49,25
276,61	52,22
277,149	47,46
277,687	48,75
278,225	43,84
278,763	56,52
279,301	52,45
279,839	53,62
280,377	56,2
280,914	53,85
281,452	55,28
281,989	50,85
282,526	60,57
283,064	56,25
283,601	61,36
284,137	50,73
284,674	46,79
285,211	46,04
285,747	56,61
286,284	53,33
286,82	50,35
287,356	52,58
287,892	50,18
288,428	48,14
288,964	56,68
289,5	57,82
290,035	52,52
290,571	55,6
291,106	52
291,641	53,26
292,176	53,38
292,711	54,14
293,246	55,6
293,781	53,9
294,315	49,26
294,85	59,49
295,384	62,96
295,918	56,1
296,453	52,3
296,987	56,21
297,52	50,34
298,054	55,15
298,588	53,15
299,121	54,58
299,655	50,88
300,188	48,67
300,721	52,41
301,254	53,38
301,787	47,97
302,32	55,3
302,853	45,64
303,385	58,24
303,918	51,23
304,45	56,76
304,982	51,79
305,514	47,97
306,046	44,56
306,578	55,71
307,11	49,07
307,641	49,09
308,173	47,21
308,704	55,56
309,236	55,06
309,767	46,67
310,298	41,11
310,829	54,37
311,359	49,47
311,89	48,4
312,421	46,38
312,951	53,45
313,481	57,43
314,012	57,88
314,542	41,44
315,072	48,73
315,601	57,3
316,131	49,64
316,661	48,75
317,19	49,11
317,72	51,28
318,249	51,69
318,778	59,32
319,307	50,34
319,836	55,7
320,365	55,37
320,893	51,06
321,422	49,25
321,95	50,37
322,479	55,71
323,007	47,1
323,535	61,13
324,063	51,87
324,591	40
325,118	52,8
325,646	55,77
326,173	63,93
326,701	51,64
327,228	48,56
327,755	57,71
328,282	51,32
328,809	47,04
329,336	51,21
329,862	56,54
330,389	50,17
330,915	52,48
331,441	48,14
331,968	52,23
332,494	46,82
333,02	42,34
333,545	46,93
334,071	56,33
334,597	48,99
335,122	51,84
335,648	55,68
336,173	43,56
336,698	48,29
337,223	53,58
337,748	45,26
338,272	45,54
338,797	41,1
339,322	50,17
339,846	53,52
340,37	44,32
340,894	53,77
341,419	53,36
341,942	47,65
342,466	51,88
342,99	47,38
343,514	45,13
344,037	48,85
344,56	47,96
345,084	44,16
345,607	46,2
346,13	43,08
346,653	43,08
347,175	50
347,698	50,6
348,221	43,02
348,743	51,9
349,265	46,73
349,787	44,57
350,309	48,21
350,831	46,57
351,353	47,62
351,875	45,22
352,397	47,11
352,918	47,46
353,439	44,17
353,961	46,48
354,482	53,37
355,003	45,04
355,524	47,96
356,044	46,7
356,565	50,37
357,086	44,78
357,606	50,12
358,126	49,39
358,646	43,78
359,167	46,68
359,687	48,58
360,206	49,88
360,726	39,54
361,246	44,58
361,765	48,25
362,285	45,26
362,804	44,22
363,323	46,33
363,842	51,43
364,361	47,4
364,88	53,59
365,398	46,14
365,917	46,82
366,435	48,07
366,954	45,29
367,472	46,48
367,99	48,25
368,508	43,75
369,026	43,41
369,544	40
370,061	47,1
370,579	44,47
371,096	46,72
371,613	45,5
372,131	45,42
372,648	50
373,165	49,39
373,681	46,06
374,198	43,44
374,715	45,66
375,231	38,63
375,747	47,44
376,264	42,01
376,78	46,25
377,296	44,62
377,812	41,99
378,327	40,74
378,843	42,1
379,359	42,9
379,874	41,53
380,389	43,19
380,905	41,64
381,42	40,6
381,935	42
382,449	44,35
382,964	42,51
383,479	42,91
383,993	41,95
384,508	40,05
385,022	40,61
385,536	38,59
386,05	37,53
386,564	38,51
387,078	33,72
387,592	39,17
388,105	38,54
388,619	37,56
389,132	35,55
389,645	37,24
390,158	35,96
390,671	36,81
391,184	37,67
391,697	35,35
392,21	34,43
392,722	33,52
393,235	34,04
393,747	36,53
394,259	32,21
394,771	32,18
395,283	32,32
395,795	32,76
396,307	31,22
396,818	32,53
397,33	30,42
397,841	32,09
398,353	31,6
398,864	31,09
399,375	31
399,886	27,98
400,397	28,67
400,907	28,99
401,418	28
401,928	26,84
402,439	27,73
402,949	25,39
403,459	26,16
403,969	26,36
404,479	26,6
404,989	26,23
405,498	24,45
406,008	22,17
406,517	24,5
407,027	22,28
407,536	21,46
408,045	20,44
408,554	20,54
409,063	20,41
409,572	19,66
410,08	19,02
410,589	17,5
411,097	18,09
411,606	18,11
412,114	17,01
412,622	16,57
413,13	16,83
413,638	15,77
414,145	16,01
414,653	15,36
415,16	14,92
415,668	14,9
416,175	14,2
416,682	14,8
417,189	13,44
417,696	13,41
418,203	13,39
418,71	12,93
419,216	12,98
419,723	13,2
420,229	12,77
420,735	12,25
421,242	12,62
421,748	12,76
422,254	12,14
422,759	12,45
423,265	13,1
423,771	11,62
424,276	12,01
424,781	11,78
425,287	11,02
425,792	11,66
426,297	11,91
426,802	11,56
427,306	11,54
427,811	11,99
428,316	11,41
428,82	11,45
429,324	11,62
429,829	11,6
430,333	11,31
430,837	11,15
431,34	11,49
431,844	11,09
432,348	10,56
432,851	10,88
433,355	10,78
433,858	10,67
434,361	11,14
434,864	11,11
435,367	11,23
435,87	10,74
436,373	11,34
436,876	10,97
437,378	10,43
437,88	10,91
438,383	10,31
438,885	10,16
439,387	10,57
439,889	10,47
440,391	10,79
440,892	10,23
441,394	10,44
441,896	10,32
442,397	10,5
442,898	10,55
443,399	10,84
443,9	10,83
444,401	10,74
444,902	10,65
445,403	10,54
445,903	10,7
446,404	11
446,904	10,95
447,405	10,85
447,905	10,63
448,405	10,72
448,905	11,18
449,404	10,75
449,904	10,96
450,404	10,47
450,903	10,76
451,403	10,86
451,902	10,84
452,401	10,7
452,9	10,5
453,399	11,07
453,898	11,09
454,396	10,89
454,895	10,37
455,393	11,04
455,892	11,2
456,39	11,15
456,888	10,99
457,386	10,97
457,884	11,14
458,382	11,48
458,879	10,97
459,377	10,69
459,874	10,98
460,372	10,91
460,869	11,2
461,366	11,37
461,863	11,24
462,36	11,06
462,857	11,26
463,353	11,21
463,85	11,01
464,346	11,18
464,843	11,03
465,339	11,29
465,835	10,87
466,331	10,77
466,827	11,13
467,323	11,08
467,818	11,09
468,314	11,46
468,809	11,04
469,305	10,99
469,8	11,27
470,295	10,99
470,79	11,23
471,285	11,16
471,78	11,17
472,274	10,92
472,769	10,82
473,263	11,41
473,758	11,31
474,252	11,1
474,746	11,12
475,24	11,08
475,734	11,25
476,228	11,4
476,721	10,92
477,215	11,15
477,708	10,95
478,202	11,4
478,695	10,82
479,188	11,06
479,681	11,02
480,174	11,03
480,667	11,12
481,159	11,07
481,652	11,27
482,144	11,29
482,637	11,17
483,129	11,39
483,621	11,55
484,113	11,45
484,605	11,11
485,097	11,46
485,588	11,34
486,08	11,53
486,571	11,58
487,063	11,54
487,554	11,35
488,045	11,41
488,536	11,43
489,027	11,28
489,518	11,75
490,008	11,39
490,499	11,52
490,989	11,53
491,48	11,63
491,97	11,7
492,46	11,7
492,95	11,85
493,44	11,87
493,93	11,9
494,419	11,64
494,909	12,12
495,398	12,03
495,888	11,88
496,377	12,1
496,866	12,49
497,355	12,33
497,844	12,21
498,333	12,23
498,821	12,41
499,31	12,65
499,798	12,36
500,287	12,74
500,775	12,6
501,263	13,08
501,751	12,73
502,239	13,21
502,727	13,15
503,215	13,31
503,702	13,34
504,19	13,11
504,677	13,61
505,164	13,69
505,651	13,97
506,139	14,26
506,625	13,95
507,112	14,35
507,599	14,59
508,086	14,41
508,572	15,04
509,058	14,86
509,545	15,07
510,031	15,34
510,517	15,46
511,003	15,86
511,489	15,87
511,974	16,29
512,46	16,1
512,946	16,92
513,431	16,71
513,916	17,18
514,401	17,25
514,887	17,95
515,371	17,76
515,856	18,1
516,341	18,73
516,826	18,51
517,31	19,19
517,795	19,36
518,279	19,34
518,763	19,79
519,247	19,99
519,731	21,1
520,215	21,44
520,699	21,29
521,182	21,46
521,666	21,86
522,149	22,5
522,633	22,9
523,116	22,79
523,599	22,98
524,082	23,44
524,565	23,72
525,048	24,05
525,53	24,29
526,013	24,82
526,495	24,76
526,978	24,86
527,46	25,93
527,942	25,7
528,424	25,82
528,906	26,36
529,388	26,24
529,87	26,48
530,351	26,85
530,833	26,97
531,314	27,26
531,795	27,43
532,277	27,47
532,758	27,65
533,238	27,9
533,719	28,09
534,2	28,53
534,681	28,58
535,161	28,63
535,642	28,71
536,122	28,53
536,602	29,2
537,082	29,12
537,562	29,52
538,042	29,1
538,522	29,44
539,001	28,97
539,481	29,43
539,96	29,17
540,44	29,36
540,919	29,51
541,398	29,66
541,877	29,51
542,356	29,94
542,835	30,06
543,313	29,95
543,792	29,83
544,27	29,61
544,749	30,27
545,227	30,07
545,705	30,09
546,183	29,89
546,661	30,47
547,139	29,95
547,616	29,83
548,094	30,59
548,571	30,12
549,049	30,25
549,526	29,98
550,003	30,43
550,48	30,55
550,957	30,78
551,434	30,47
551,911	30,5
552,387	30,22
552,864	30,82
553,34	30,44
553,817	30,7
554,293	30,89
554,769	30,37
555,245	30,22
555,721	30,43
556,197	30,75
556,672	30,35
557,148	30,31
557,623	30,31
558,099	30,24
558,574	30,52
559,049	30,49
559,524	30,33
559,999	30,34
560,474	30,01
560,948	30,28
561,423	29,97
561,897	29,9
562,372	29,84
562,846	29,94
563,32	29,87
563,794	29,37
564,268	29,07
564,742	29,21
565,216	28,89
565,69	28,64
566,163	28,71
566,636	29,11
567,11	28,46
567,583	27,98
568,056	28,16
568,529	27,87
569,002	27,72
569,475	27,61
569,947	27,72
570,42	27,68
570,892	27,09
571,365	26,98
571,837	26,92
572,309	26,6
572,781	26,26
573,253	26,08
573,725	26,07
574,197	25,97
574,668	25,59
575,14	25,78
575,611	25,17
576,082	25,11
576,554	24,97
577,025	25
577,496	24,54
577,967	24,51
578,437	24,6
578,908	24,17
579,379	23,94
579,849	24,19
580,319	23,72
580,79	23,56
581,26	23,45
581,73	23,69
582,2	23,33
582,669	23,39
583,139	23,34
583,609	23,07
584,078	22,79
584,548	22,47
585,017	22,77
585,486	22,22
585,955	22,38
586,424	22,46
586,893	22,12
587,362	22,16
587,83	22,16
588,299	21,84
588,767	22,22
589,236	21,74
589,704	21,86
590,172	21,88
590,64	21,76
591,108	21,45
591,576	21,65
592,043	21,14
592,511	21,36
592,978	21,42
593,446	21,16
593,913	21,17
594,38	21,13
594,847	20,94
595,314	21,18
595,781	20,84
596,248	21,09
596,715	20,58
597,181	20,86
597,647	20,98
598,114	20,92
598,58	20,62
599,046	20,42
599,512	20,78
599,978	20,53
600,444	20,69
600,91	20,35
601,375	20,56
601,841	20,42
602,306	20,24
602,771	20,6
603,236	20,28
603,702	20,33
604,167	20,11
604,631	19,88
605,096	19,93
605,561	19,93
606,025	19,75
606,49	19,87
606,954	19,79
607,418	19,64
607,882	19,56
608,347	19,39
608,81	19,4
609,274	19,32
609,738	19,19
610,202	19,08
610,665	19,12
611,128	18,76
611,592	18,76
612,055	18,58
612,518	18,52
612,981	18,51
613,444	18,34
613,907	18,2
614,369	18,16
614,832	18,11
615,294	18,09
615,757	17,95
616,219	17,97
616,681	17,74
617,143	17,75
617,605	17,58
618,067	17,51
618,529	17,36
618,99	17,43
619,452	17,29
619,913	17,37
620,375	17,17
620,836	17,22
621,297	17,29
621,758	17,08
622,219	17,05
622,68	17,04
623,14	16,92
623,601	16,94
624,061	16,73
624,522	17,01
624,982	16,84
625,442	16,74
625,902	16,8
626,362	16,51
626,822	16,62
627,282	16,51
627,742	16,42
628,201	16,47
628,661	16,38
629,12	16,45
629,579	16,47
630,038	16,46
630,497	16,46
630,956	16,33
631,415	16,37
631,874	16,43
632,332	16,3
632,791	16,34
633,249	15,97
633,708	16,11
634,166	16,03
634,624	16,17
635,082	16,14
635,54	15,9
635,998	15,92
636,455	15,69
636,913	15,53
637,37	15,45
637,828	15,42
638,285	15,28
638,742	15,21
639,199	15,04
639,656	15,04
640,113	15,07
640,57	14,66
641,027	14,72
641,483	14,54
641,94	14,42
642,396	14,48
642,852	14,27
643,309	14,23
643,765	13,91
644,221	13,76
644,676	13,81
645,132	13,75
645,588	13,68
646,043	13,58
646,499	13,4
646,954	13,24
647,409	13,05
647,864	13,14
648,319	12,96
648,774	12,81
649,229	12,88
649,684	12,85
650,139	12,82
650,593	12,71
651,047	12,69
651,502	12,59
651,956	12,65
652,41	12,52
652,864	12,58
653,318	12,49
653,772	12,25
654,225	12,38
654,679	12,21
655,133	12,2
655,586	12,25
656,039	12,05
656,492	12
656,946	12
657,399	11,87
657,851	11,74
658,304	11,9
658,757	11,66
659,209	11,57
659,662	11,56
660,114	11,34
660,567	11,36
661,019	11,28
661,471	11,09
661,923	11,03
662,375	11,23
662,826	10,99
663,278	10,82
663,73	10,91
664,181	10,89
664,632	10,77
665,084	10,73
665,535	10,73
665,986	10,72
666,437	10,64
666,888	10,79
667,338	10,55
667,789	10,66
668,24	10,61
668,69	10,64
669,14	10,62
669,591	10,58
670,041	10,61
670,491	10,5
670,941	10,56
671,391	10,56
671,84	10,63
672,29	10,59
672,74	10,77
673,189	10,7
673,638	10,85
674,088	10,94
674,537	10,89
674,986	10,72
675,435	10,99
675,883	10,98
676,332	11,01
676,781	11,19
677,229	11,13
677,678	11,1
678,126	11,36
678,574	11,38
679,022	11,52
679,47	11,6
679,918	11,58
680,366	11,6
680,814	11,8
681,261	11,92
681,709	11,74
682,156	11,95
682,604	12,14
683,051	12,15
683,498	12,32
683,945	12,32
684,392	12,45
684,839	12,58
685,286	12,63
685,732	12,83
686,179	12,93
686,625	13,13
687,071	13,19
687,518	13,34
687,964	13,59
688,41	13,65
688,856	14,03
689,301	14,18
689,747	14,5
690,193	14,66
690,638	15,07
691,084	15,39
691,529	15,88
691,974	16,19
692,419	16,64
692,864	16,96
693,309	17,36
693,754	17,73
694,199	18,43
694,643	18,85
695,088	19,3
695,532	19,88
695,977	20,47
696,421	20,91
696,865	21,5
697,309	22,24
697,753	22,64
698,197	23,35
698,64	23,84
699,084	24,09
699,527	24,85
699,971	25,68
700,414	26,13
700,857	26,54
701,3	27,27
701,743	27,79
702,186	28,21
702,629	28,84
703,072	29,34
703,515	30
703,957	30,63
704,399	30,78
704,842	31,41
705,284	32,29
705,726	32,7
706,168	32,96
706,61	33,55
707,052	34,15
707,494	34,58
707,935	35,11
708,377	35,46
708,818	35,81
709,26	36,21
709,701	36,82
710,142	37,27
710,583	37,77
711,024	38,13
711,465	38,78
711,905	39,11
712,346	39,25
712,787	39,69
713,227	40,36
713,667	40,58
714,108	41,09
714,548	41,38
714,988	42,02
715,428	42,2
715,868	42,64
716,307	42,98
716,747	43,65
717,186	43,9
717,626	44,38
718,065	44,57
718,504	44,86
718,944	45,07
719,383	45,66
719,822	46,12
720,261	46,49
720,699	46,68
721,138	46,96
721,576	47,31
722,015	47,6
722,453	47,78
722,892	48,42
723,33	48,21
723,768	48,69
724,206	48,89
724,644	49,33
725,081	49,68
725,519	49,56
725,957	50,06
726,394	50,25
726,832	50,47
727,269	50,52
727,706	50,89
728,143	50,97
728,58	51,2
729,017	51,41
729,454	51,51
729,89	51,35
730,327	51,8
730,764	51,87
731,2	52,34
731,636	52,46
732,072	52,34
732,509	52,56
732,945	52,88
733,38	52,88
733,816	52,91
734,252	52,76
734,688	53,21
735,123	52,95
735,559	53,45
735,994	53,42
736,429	53,33
736,864	53,58
737,299	53,57
737,734	53,92
738,169	53,93
738,604	53,97
739,038	54
739,473	54,01
739,907	54,25
740,342	54,07
740,776	54,14
741,21	54,13
741,644	54,29
742,078	54
742,512	54,54
742,946	54,08
743,379	53,9
743,813	54,32
744,246	54,56
744,68	54,35
745,113	54,22
745,546	54,4
745,979	54,43
746,412	54,29
746,845	54,21
747,278	54,27
747,711	54,42
748,143	54,26
748,576	54,47
749,008	54,32
749,441	54,57
749,873	54,24
750,305	54,28
750,737	53,88
751,169	54,07
751,601	54,19
752,032	54,13
752,464	54,19
752,896	54,09
753,327	54,28
753,758	54,3
754,19	54,29
754,621	53,88
755,052	53,79
755,483	53,92
755,914	54,16
756,344	54,05
756,775	54,05
757,206	54,25
757,636	53,73
758,066	54,06
758,497	53,97
758,927	53,98
759,357	53,92
759,787	53,83
760,217	53,58
760,647	53,68
761,076	53,83
761,506	53,72
761,935	53,56
762,365	53,51
762,794	53,34
763,223	53,55
763,653	53,53
764,082	53,4
764,51	53,54
764,939	53,29
765,368	53,37
765,797	53,18
766,225	53,34
766,654	53,44
767,082	53,53
767,51	53,25
767,938	53,3
768,367	53,14
768,795	53,03
769,222	53,13
769,65	53,1
770,078	52,97
770,505	53,09
770,933	53,08
771,36	52,74
771,788	53,08
772,215	53,05
772,642	53,19
773,069	53,09
773,496	52,68
773,923	52,89
774,349	53,04
774,776	52,71
775,203	52,36
775,629	52,78
776,055	52,4
776,482	52,95
776,908	52,73
777,334	53,13
777,76	52,6
778,186	52,71
778,611	52,8
779,037	52,69
779,463	52,63
779,888	52,72
780,314	52,69
780,739	52,45
781,164	52,53
781,589	52,97
782,014	52,69
782,439	52,55
782,864	52,71
783,289	52,61
783,713	52,32
784,138	52,48
784,562	52,47
784,987	52,39
785,411	51,99
785,835	52,27
786,259	52,29
786,683	52,53
787,107	52,76
787,531	52,32
787,954	52,52
788,378	52,35
788,802	52,2
789,225	52,38
789,648	52,42
790,071	52,82
790,495	52,54
790,918	52,12
791,34	52,2
791,763	52,36
792,186	52,22
792,609	52,17
793,031	52,62
793,454	52,06
793,876	52,41
794,298	52,26
794,721	52,15
795,143	52,18
795,565	52,12
795,986	52,01
796,408	52,11
796,83	52,18
797,252	52,09
797,673	51,81
798,094	52,08
798,516	52,16
798,937	51,76
799,358	52,14
799,779	51,93
800,2	52,21
800,621	51,76
801,042	52,32
801,462	52,06
801,883	52,07
802,303	52,04
802,724	51,99
803,144	52,08
803,564	52,08
803,984	51,9
804,404	51,9
804,824	51,99
805,244	52,16
805,664	52,1
806,084	51,89
806,503	52,16
806,923	51,75
807,342	51,97
807,761	51,98
808,18	52,18
808,599	51,73
809,018	51,9
809,437	52,11
809,856	51,7
810,275	52,02
810,693	51,89
811,112	51,98
811,53	51,91
811,949	51,83
812,367	51,9
812,785	51,98
813,203	51,65
813,621	51,86
814,039	51,9
814,457	52,13
814,874	51,86
815,292	51,84
815,709	51,9
816,127	51,65
816,544	51,87
816,961	51,87
817,378	52,03
817,795	51,66
818,212	51,79
818,629	51,75
819,046	52,07
819,462	51,89
819,879	52
820,295	51,5
820,712	51,81
821,128	51,81
821,544	51,55
821,96	51,52
822,376	51,45
822,792	51,61
823,208	51,85
823,624	51,81
824,039	51,48
824,455	52,04
824,87	52,03
825,286	51,59
825,701	51,87
826,116	51,65
826,531	51,59
826,946	51,67
827,361	51,72
827,776	51,98
828,19	51,8
828,605	51,6
829,02	51,77
829,434	51,68
829,848	51,65
830,263	51,6
830,677	51,72
831,091	52,03
831,505	51,53
831,919	51,72
832,332	51,62
832,746	51,72
833,16	51,26
833,573	51,6
833,987	51,39
834,4	51,42
