Data from G_6__Relative__6__00164.txt Node

Date: Mon Jan 29 18:27:14 CET 2024
User: diatiterra
Spectrometer: HDX00911
Trigger mode: 0
Integration Time (sec): 6,000000E-3
Scans to average: 2
Nonlinearity correction enabled: false
Boxcar width: 0
Storing dark spectrum: false
XAxis mode: Wavelengths
Number of Pixels in Spectrum: 2068
>>>>>Begin Spectral Data<<<<<
194,468	67,65
195,025	58,41
195,581	63,83
196,138	63,85
196,694	62,64
197,251	53,33
197,807	57,6
198,363	50,18
198,919	50,53
199,474	51,07
200,03	49,63
200,586	48,3
201,141	55,81
201,696	48,79
202,251	58,67
202,806	48,12
203,361	55,09
203,916	59,59
204,471	49,65
205,025	47,5
205,58	44,8
206,134	49,26
206,688	56,16
207,242	51,7
207,796	48,81
208,35	51,62
208,904	46,44
209,457	52,35
210,011	50,35
210,564	54,86
211,117	55,28
211,67	52,82
212,223	50,68
212,776	49,81
213,329	46,05
213,881	48,93
214,434	49,31
214,986	53,2
215,538	53,11
216,09	48,85
216,642	58,89
217,194	50,99
217,746	49,83
218,297	51,68
218,849	45,79
219,4	57,69
219,951	50,91
220,502	55,05
221,053	47,34
221,604	59,4
222,155	54,73
222,705	57,19
223,256	57,19
223,806	51,7
224,356	56,52
224,906	48,15
225,456	56,55
226,006	49,66
226,556	51,82
227,106	48,95
227,655	51,92
228,204	49,67
228,754	46,9
229,303	43,73
229,852	53,92
230,401	47,67
230,949	65,76
231,498	48,13
232,047	47,81
232,595	55,32
233,143	58,71
233,691	60,4
234,239	47,39
234,787	47,9
235,335	51,36
235,883	51,97
236,43	54,07
236,978	54,18
237,525	52,99
238,072	57,2
238,619	42,12
239,166	55,56
239,713	59,11
240,26	58,43
240,806	51,77
241,353	51,94
241,899	53,4
242,445	57,34
242,991	57,14
243,537	51,16
244,083	57,09
244,629	49,66
245,174	59,33
245,72	50,84
246,265	54,77
246,81	50,73
247,355	49,63
247,9	52,6
248,445	65,52
248,99	48,1
249,534	53,48
250,079	56,72
250,623	53,9
251,168	51,34
251,712	54,96
252,256	53,49
252,8	55,21
253,343	56,69
253,887	49,66
254,43	56,51
254,974	61,19
255,517	51,68
256,06	49,32
256,603	67,92
257,146	46,8
257,689	46,84
258,232	54,41
258,774	53,87
259,317	58,24
259,859	50,18
260,401	57,2
260,943	54,48
261,485	52,84
262,027	53,45
262,569	60,9
263,11	46,93
263,652	53,31
264,193	52,14
264,734	54,37
265,275	53,01
265,816	53,24
266,357	56,83
266,898	55,63
267,438	54,9
267,979	58,55
268,519	54,15
269,059	56,38
269,6	49,12
270,14	46,53
270,68	43,3
271,219	51,93
271,759	55,97
272,298	49,82
272,838	46,51
273,377	40
273,916	51,62
274,455	55,56
274,994	50
275,533	48,12
276,072	50,38
276,61	47,44
277,149	50,72
277,687	47,69
278,225	57,53
278,763	48,55
279,301	53,21
279,839	51,45
280,377	52,92
280,914	41,76
281,452	61,38
281,989	53,24
282,526	55,56
283,064	50,35
283,601	50,76
284,137	55,47
284,674	52,83
285,211	46,04
285,747	45,08
286,284	48,42
286,82	48,58
287,356	45,02
287,892	50,88
288,428	51,19
288,964	52,35
289,5	51,36
290,035	54,32
290,571	52,99
291,106	60
291,641	50,57
292,176	54,14
292,711	52,07
293,246	55,23
293,781	51,3
294,315	49,26
294,85	63,5
295,384	55,19
295,918	51,57
296,453	51,94
296,987	58,28
297,52	50,34
298,054	48,16
298,588	54,33
299,121	59,71
299,655	49,12
300,188	51,71
300,721	45,52
301,254	55,16
301,787	52,44
302,32	54,55
302,853	56,79
303,385	54,95
303,918	50,18
304,45	49,03
304,982	47,41
305,514	51,29
306,046	45,26
306,578	56,79
307,11	52,04
307,641	44
308,173	53,16
308,704	45,59
309,236	52,06
309,767	48,75
310,298	45,64
310,829	52,09
311,359	47,33
311,89	50,89
312,421	53,26
312,951	53,45
313,481	61,45
314,012	57,51
314,542	48,97
315,072	53,82
315,601	46,26
316,131	45,99
316,661	55,42
317,19	49,11
317,72	54,95
318,249	51,69
318,778	44,49
319,307	44,26
319,836	54,03
320,365	55,37
320,893	54,61
321,422	50
321,95	47,78
322,479	45,67
323,007	45,65
323,535	53,96
324,063	53,36
324,591	35,67
325,118	52,45
325,646	54,23
326,173	60,71
326,701	49,45
327,228	52,08
327,755	46,95
328,282	50,57
328,809	43,7
329,336	47,75
329,862	54,62
330,389	41,98
330,915	49,29
331,441	48,81
331,968	46,05
332,494	46,49
333,02	43,43
333,545	47,29
334,071	44,33
334,597	43,92
335,122	42,47
335,648	53,85
336,173	50,17
336,698	47,6
337,223	57,34
337,748	43,86
338,272	43,89
338,797	45,95
339,322	40,53
339,846	41,41
340,37	45,79
340,894	49,66
341,419	45,97
341,942	48,32
342,466	47,1
342,99	42,77
343,514	42,21
344,037	44,92
344,56	43,26
345,084	44,79
345,607	42,55
346,13	40,92
346,653	44,34
347,175	45,81
347,698	41,07
348,221	42,15
348,743	44,61
349,265	42,86
349,787	41,14
350,309	41,32
350,831	43,28
351,353	41,53
351,875	44,38
352,397	42,42
352,918	42,66
353,439	48,51
353,961	43,1
354,482	40,17
355,003	38,34
355,524	42,35
356,044	41,16
356,565	43,14
357,086	41,48
357,606	40
358,126	39,17
358,646	43,03
359,167	39,31
359,687	40,09
360,206	38,31
360,726	37,24
361,246	41,45
361,765	31,8
362,285	39,81
362,804	34,67
363,323	38,76
363,842	39,52
364,361	37,01
364,88	37,97
365,398	36,2
365,917	39,84
366,435	37,77
366,954	32,06
367,472	36,46
367,99	37,37
368,508	33,4
369,026	33,14
369,544	32,55
370,061	34,8
370,579	32,27
371,096	34,31
371,613	29,54
372,131	36,8
372,648	35,92
373,165	37,78
373,681	32,22
374,198	34,59
374,715	36,46
375,231	29,73
375,747	36,2
376,264	31,15
376,78	34,45
377,296	31,49
377,812	30,71
378,327	29,33
378,843	34,71
379,359	31,74
379,874	30,74
380,389	33,29
380,905	34,22
381,42	31,98
381,935	34,4
382,449	32,91
382,964	30,69
383,479	31,03
383,993	30,41
384,508	28,45
385,022	29,64
385,536	27,63
386,05	30,35
386,564	30,43
387,078	31,2
387,592	31,56
388,105	28,22
388,619	31,66
389,132	27,09
389,645	27
390,158	26,95
390,671	26,29
391,184	25
391,697	24,32
392,21	25,52
392,722	26,79
393,235	27
393,747	24,98
394,259	26,41
394,771	24,26
395,283	23,89
395,795	23,76
396,307	22,77
396,818	22,69
397,33	21,69
397,841	25,19
398,353	21,14
398,864	22,42
399,375	20,64
399,886	20,11
400,397	19,85
400,907	19,58
401,418	19,3
401,928	19,02
402,439	20,64
402,949	19,21
403,459	18,09
403,969	18,4
404,479	16,68
404,989	17,68
405,498	15,07
406,008	15,63
406,517	16,23
407,027	14,27
407,536	14,59
408,045	14,08
408,554	14,55
409,063	12,56
409,572	14,41
410,08	13,62
410,589	12,01
411,097	13
411,606	12,03
412,114	11,53
412,622	11,43
413,13	10,9
413,638	10,71
414,145	10,55
414,653	9,91
415,16	9,97
415,668	9,55
416,175	9,29
416,682	9,58
417,189	8,74
417,696	9,17
418,203	9,23
418,71	8,97
419,216	8,98
419,723	8,65
420,229	8,61
420,735	8,28
421,242	8,36
421,748	8,23
422,254	7,7
422,759	8,37
423,265	7,79
423,771	7,51
424,276	7,87
424,781	7,88
425,287	7,56
425,792	7,78
426,297	8,45
426,802	7,31
427,306	7,8
427,811	7,45
428,316	7,66
428,82	7,15
429,324	7,1
429,829	7,13
430,333	7,36
430,837	7,17
431,34	6,5
431,844	6,93
432,348	7,15
432,851	6,98
433,355	6,7
433,858	6,53
434,361	6,74
434,864	6,92
435,367	6,83
435,87	7,18
436,373	7,12
436,876	6,46
437,378	6,7
437,88	6,66
438,383	6,97
438,885	6,8
439,387	6,27
439,889	6,67
440,391	7,03
440,892	6,84
441,394	6,98
441,896	6,59
442,397	6,51
442,898	6,45
443,399	6,69
443,9	6,92
444,401	6,79
444,902	6,6
445,403	6,69
445,903	6,56
446,404	6,64
446,904	7,01
447,405	6,56
447,905	6,34
448,405	6,94
448,905	6,94
449,404	6,85
449,904	6,81
450,404	6,81
450,903	6,67
451,403	7,06
451,902	7,12
452,401	7,15
452,9	6,99
453,399	6,95
453,898	7,49
454,396	7,01
454,895	6,98
455,393	6,77
455,892	7,14
456,39	6,94
456,888	7,23
457,386	6,78
457,884	7,3
458,382	7,13
458,879	7,06
459,377	6,74
459,874	7,02
460,372	6,63
460,869	7,25
461,366	6,78
461,863	7,21
462,36	6,94
462,857	7,01
463,353	7
463,85	6,71
464,346	6,76
464,843	6,87
465,339	7,21
465,835	6,76
466,331	6,85
466,827	7,09
467,323	6,75
467,818	6,86
468,314	6,96
468,809	6,87
469,305	6,87
469,8	7,16
470,295	7,17
470,79	7,07
471,285	7,22
471,78	6,77
472,274	6,88
472,769	7,17
473,263	6,85
473,758	7,28
474,252	6,87
474,746	6,91
475,24	6,95
475,734	7,23
476,228	7,18
476,721	6,78
477,215	6,94
477,708	7,15
478,202	7,05
478,695	7,02
479,188	7,07
479,681	7,12
480,174	6,86
480,667	7,08
481,159	7,02
481,652	7,16
482,144	6,86
482,637	6,86
483,129	7,21
483,621	6,96
484,113	7,41
484,605	7,19
485,097	7,34
485,588	6,94
486,08	6,99
486,571	7,27
487,063	7,35
487,554	7,51
488,045	7,42
488,536	7,1
489,027	7,42
489,518	7,48
490,008	7,7
490,499	7,47
490,989	7,38
491,48	7,53
491,97	7,47
492,46	7,48
492,95	7,52
493,44	7,9
493,93	7,54
494,419	7,6
494,909	7,58
495,398	7,83
495,888	7,91
496,377	8,02
496,866	8,09
497,355	7,97
497,844	8,13
498,333	8,24
498,821	8,18
499,31	8,33
499,798	8,35
500,287	8,56
500,775	8,46
501,263	8,54
501,751	8,68
502,239	8,82
502,727	9,07
503,215	9,26
503,702	9,17
504,19	9,47
504,677	9,43
505,164	9,31
505,651	9,73
506,139	10,03
506,625	10,23
507,112	10,25
507,599	10,59
508,086	10,49
508,572	10,73
509,058	10,96
509,545	11,24
510,031	11,44
510,517	11,56
511,003	11,61
511,489	12
511,974	12,2
512,46	12,61
512,946	13
513,431	12,73
513,916	13,2
514,401	13,32
514,887	13,7
515,371	14,02
515,856	14,14
516,341	14,29
516,826	15,06
517,31	15,25
517,795	15,59
518,279	15,64
518,763	16,05
519,247	16,11
519,731	17,08
520,215	17,21
520,699	17,24
521,182	17,72
521,666	18,21
522,149	18,22
522,633	18,93
523,116	19,36
523,599	19,45
524,082	19,77
524,565	20,06
525,048	20,09
525,53	21,01
526,013	20,97
526,495	21,34
526,978	21,36
527,46	22,24
527,942	22,01
528,424	22,41
528,906	22,43
529,388	22,91
529,87	22,91
530,351	23,26
530,833	23,83
531,314	23,91
531,795	23,9
532,277	23,69
532,758	24,07
533,238	24,26
533,719	24,57
534,2	25,06
534,681	25,02
535,161	25,15
535,642	25,02
536,122	25,38
536,602	25,49
537,082	25,45
537,562	25,36
538,042	25,43
538,522	25,97
539,001	25,64
539,481	25,83
539,96	25,51
540,44	25,84
540,919	26,06
541,398	25,98
541,877	25,99
542,356	26,16
542,835	26,31
543,313	26,01
543,792	26,25
544,27	26,25
544,749	26,53
545,227	26,25
545,705	26,41
546,183	26,49
546,661	26,38
547,139	26,55
547,616	26,63
548,094	26,94
548,571	27,11
549,049	26,99
549,526	26,9
550,003	26,96
550,48	27,01
550,957	26,8
551,434	26,87
551,911	27,14
552,387	26,93
552,864	27,15
553,34	27,22
553,817	27,1
554,293	26,77
554,769	26,78
555,245	26,88
555,721	26,85
556,197	27,08
556,672	26,93
557,148	26,86
557,623	27,26
558,099	26,6
558,574	26,81
559,049	26,5
559,524	26,48
559,999	26,82
560,474	26,42
560,948	26,52
561,423	26,33
561,897	26,53
562,372	26,28
562,846	26,05
563,32	25,62
563,794	25,77
564,268	25,31
564,742	25,41
565,216	25,55
565,69	25,16
566,163	25,15
566,636	25,14
567,11	24,54
567,583	24,55
568,056	24,56
568,529	24,35
569,002	24,05
569,475	23,9
569,947	23,71
570,42	23,5
570,892	23,67
571,365	23,4
571,837	23,04
572,309	23,09
572,781	22,33
573,253	22,22
573,725	21,94
574,197	22,02
574,668	21,94
575,14	21,92
575,611	21,45
576,082	21,33
576,554	21,29
577,025	21,14
577,496	20,87
577,967	20,69
578,437	20,62
578,908	20,45
579,379	20,36
579,849	20,08
580,319	20,08
580,79	20
581,26	19,76
581,73	19,95
582,2	19,6
582,669	19,19
583,139	19,37
583,609	18,84
584,078	18,86
584,548	18,87
585,017	18,92
585,486	18,49
585,955	18,86
586,424	18,54
586,893	18,43
587,362	18,31
587,83	18,1
588,299	18,32
588,767	18,26
589,236	18,11
589,704	17,83
590,172	18
590,64	17,56
591,108	17,73
591,576	17,66
592,043	17,63
592,511	17,63
592,978	17,33
593,446	17,43
593,913	17,21
594,38	17,23
594,847	17,15
595,314	17,18
595,781	17,17
596,248	16,85
596,715	16,99
597,181	17,25
597,647	16,98
598,114	16,89
598,58	17,18
599,046	17,08
599,512	16,83
599,978	16,92
600,444	16,84
600,91	16,73
601,375	16,68
601,841	16,65
602,306	16,62
602,771	16,71
603,236	16,56
603,702	16,43
604,167	16,43
604,631	16,41
605,096	16,42
605,561	16,13
606,025	16,14
606,49	16
606,954	15,87
607,418	16,01
607,882	15,83
608,347	15,9
608,81	15,63
609,274	15,42
609,738	15,44
610,202	15,32
610,665	15,34
611,128	15,24
611,592	15,21
612,055	15,01
612,518	14,76
612,981	14,77
613,444	14,72
613,907	14,61
614,369	14,53
614,832	14,29
615,294	14,33
615,757	14,03
616,219	13,96
616,681	13,96
617,143	13,69
617,605	13,76
618,067	13,76
618,529	13,66
618,99	13,61
619,452	13,43
619,913	13,66
620,375	13,47
620,836	13,45
621,297	13,35
621,758	13,23
622,219	13,1
622,68	13,26
623,14	13,24
623,601	13,09
624,061	12,9
624,522	12,93
624,982	13,01
625,442	13,01
625,902	12,81
626,362	12,88
626,822	12,88
627,282	12,99
627,742	12,89
628,201	12,72
628,661	12,62
629,12	12,83
629,579	12,65
630,038	12,81
630,497	12,61
630,956	12,76
631,415	12,72
631,874	12,65
632,332	12,55
632,791	12,56
633,249	12,47
633,708	12,36
634,166	12,31
634,624	12,46
635,082	12,37
635,54	12,33
635,998	12,3
636,455	12,28
636,913	12,03
637,37	12,01
637,828	11,85
638,285	11,69
638,742	11,64
639,199	11,7
639,656	11,45
640,113	11,37
640,57	11,18
641,027	11,17
641,483	11,05
641,94	10,84
642,396	10,71
642,852	10,91
643,309	10,59
643,765	10,46
644,221	10,27
644,676	10,24
645,132	10,06
645,588	10,14
646,043	10
646,499	9,74
646,954	9,86
647,409	9,64
647,864	9,4
648,319	9,52
648,774	9,26
649,229	9,21
649,684	9,14
650,139	8,99
650,593	9,05
651,047	9,02
651,502	9
651,956	8,87
652,41	8,93
652,864	8,89
653,318	8,58
653,772	8,74
654,225	8,74
654,679	8,59
655,133	8,66
655,586	8,55
656,039	8,43
656,492	8,46
656,946	8,44
657,399	8,37
657,851	8,23
658,304	8,11
658,757	8,1
659,209	8
659,662	7,92
660,114	7,79
660,567	7,8
661,019	7,62
661,471	7,63
661,923	7,45
662,375	7,48
662,826	7,4
663,278	7,32
663,73	7,23
664,181	7,28
664,632	7,22
665,084	7,25
665,535	7,1
665,986	7,01
666,437	7,11
666,888	7,09
667,338	6,98
667,789	7,03
668,24	7,05
668,69	6,97
669,14	7,06
669,591	6,93
670,041	6,91
670,491	6,96
670,941	7
671,391	7,05
671,84	7,06
672,29	6,97
672,74	7,1
673,189	7,15
673,638	7,23
674,088	7,31
674,537	7,32
674,986	7,26
675,435	7,44
675,883	7,43
676,332	7,5
676,781	7,58
677,229	7,63
677,678	7,66
678,126	7,83
678,574	7,9
679,022	7,96
679,47	7,99
679,918	8,11
680,366	7,96
680,814	8,2
681,261	8,34
681,709	8,42
682,156	8,46
682,604	8,65
683,051	8,56
683,498	8,82
683,945	8,88
684,392	8,94
684,839	9,14
685,286	9,15
685,732	9,25
686,179	9,47
686,625	9,74
687,071	9,72
687,518	9,96
687,964	10,15
688,41	10,47
688,856	10,54
689,301	10,86
689,747	11,15
690,193	11,39
690,638	11,82
691,084	12,14
691,529	12,42
691,974	12,86
692,419	13,45
692,864	13,92
693,309	14,41
693,754	14,77
694,199	15,42
694,643	15,96
695,088	16,52
695,532	16,98
695,977	17,55
696,421	18,26
696,865	18,87
697,309	19,63
697,753	20,22
698,197	20,83
698,64	21,43
699,084	21,91
699,527	22,49
699,971	23,21
700,414	23,82
700,857	24,41
701,3	25,18
701,743	25,65
702,186	26,06
702,629	26,93
703,072	27,48
703,515	27,93
703,957	28,53
704,399	29,16
704,842	29,77
705,284	30,12
705,726	30,74
706,168	31,41
706,61	31,63
707,052	32,41
707,494	32,73
707,935	33,24
708,377	33,96
708,818	34,09
709,26	34,86
709,701	35,3
710,142	35,92
710,583	36,02
711,024	36,6
711,465	37,07
711,905	37,61
712,346	38,15
712,787	38,4
713,227	39,06
713,667	39,14
714,108	39,88
714,548	40,27
714,988	40,7
715,428	41,08
715,868	41,13
716,307	41,76
716,747	42,46
717,186	42,61
717,626	43,05
718,065	43,01
718,504	43,46
718,944	44,01
719,383	44,23
719,822	44,35
720,261	45,12
720,699	45,32
721,138	45,82
721,576	45,93
722,015	45,91
722,453	46,28
722,892	46,91
723,33	47,19
723,768	47,55
724,206	47,44
724,644	48,03
725,081	48,22
725,519	48,26
725,957	48,53
726,394	48,85
726,832	49,07
727,269	49,29
727,706	49,56
728,143	49,85
728,58	49,83
729,017	49,85
729,454	50,26
729,89	50,03
730,327	50,63
730,764	50,59
731,2	51,07
731,636	50,96
732,072	50,9
732,509	51
732,945	51,51
733,38	51,43
733,816	51,44
734,252	51,55
734,688	51,71
735,123	51,6
735,559	51,89
735,994	52,25
736,429	52,14
736,864	52,33
737,299	52,26
737,734	52,54
738,169	52,55
738,604	52,79
739,038	52,55
739,473	52,83
739,907	52,77
740,342	52,76
740,776	52,89
741,21	52,54
741,644	52,87
742,078	53,08
742,512	53,13
742,946	52,66
743,379	53,02
743,813	52,78
744,246	52,99
744,68	53,26
745,113	53,13
745,546	53,26
745,979	52,85
746,412	53,21
746,845	53,06
747,278	52,75
747,711	53,13
748,143	52,62
748,576	53,34
749,008	53,1
749,441	53,07
749,873	53,08
750,305	53,2
750,737	52,88
751,169	52,8
751,601	53,21
752,032	52,98
752,464	52,66
752,896	53,04
753,327	52,87
753,758	53,2
754,19	53,06
754,621	52,9
755,052	52,92
755,483	52,7
755,914	52,97
756,344	52,94
756,775	52,64
757,206	52,95
757,636	52,76
758,066	52,68
758,497	52,75
758,927	52,49
759,357	52,81
759,787	52,5
760,217	52,47
760,647	52,41
761,076	52,64
761,506	52,59
761,935	52,66
762,365	52,64
762,794	52,22
763,223	52,49
763,653	52,62
764,082	52,3
764,51	52,24
764,939	52,35
765,368	52,01
765,797	52,13
766,225	52,45
766,654	52,38
767,082	52,34
767,51	52,24
767,938	52,25
768,367	51,99
768,795	51,93
769,222	52,03
769,65	52,07
770,078	51,99
770,505	52,35
770,933	51,99
771,36	52,07
771,788	52,03
772,215	52,07
772,642	52,17
773,069	52,03
773,496	52,13
773,923	52,22
774,349	52,13
774,776	51,61
775,203	51,59
775,629	52,08
776,055	51,92
776,482	52,11
776,908	51,71
777,334	51,8
777,76	51,97
778,186	51,64
778,611	51,75
779,037	51,95
779,463	51,5
779,888	51,78
780,314	51,91
780,739	51,76
781,164	51,77
781,589	51,63
782,014	51,72
782,439	51,77
782,864	51,56
783,289	51,56
783,713	51,38
784,138	51,78
784,562	51,76
784,987	51,49
785,411	51,51
785,835	51,57
786,259	51,28
786,683	51,7
787,107	51,77
787,531	51,58
787,954	51,37
788,378	51,52
788,802	51,54
789,225	51,23
789,648	51,48
790,071	51,51
790,495	51,41
790,918	51,22
791,34	51,73
791,763	51,5
792,186	51,53
792,609	51,36
793,031	51,37
793,454	51,63
793,876	51,35
794,298	51,34
794,721	51,38
795,143	51,5
795,565	50,92
795,986	51,33
796,408	51,45
796,83	51,34
797,252	51,23
797,673	51,35
798,094	51,26
798,516	51,56
798,937	51,01
799,358	51,43
799,779	51,45
800,2	51,14
800,621	51,14
801,042	51,83
801,462	51,65
801,883	51,41
802,303	51,19
802,724	51,03
803,144	51,12
803,564	51,24
803,984	51,19
804,404	51,14
804,824	51,47
805,244	51,38
805,664	51,45
806,084	51,32
806,503	51,24
806,923	51,26
807,342	51,51
807,761	51,28
808,18	50,97
808,599	51,26
809,018	51,38
809,437	51,13
809,856	51,21
810,275	51,23
810,693	51,12
811,112	50,95
811,53	51,47
811,949	51,07
812,367	51,12
812,785	51,19
813,203	50,86
813,621	51,22
814,039	51,23
814,457	51,3
814,874	51,39
815,292	51,33
815,709	51,31
816,127	50,96
816,544	51,33
816,961	51,25
817,378	51,53
817,795	51,01
818,212	51,21
818,629	50,82
819,046	51,5
819,462	51,17
819,879	51,17
820,295	51,11
820,712	51,18
821,128	51,06
821,544	51,02
821,96	51,14
822,376	51,09
822,792	50,9
823,208	50,84
823,624	50,96
824,039	51,2
824,455	51,43
824,87	51,24
825,286	51,13
825,701	50,82
826,116	51,16
826,531	50,9
826,946	50,92
827,361	51,03
827,776	51,05
828,19	51,05
828,605	50,63
829,02	51
829,434	51,12
829,848	50,94
830,263	51,11
830,677	50,99
831,091	51,12
831,505	51,19
831,919	51,06
832,332	51,15
832,746	50,97
833,16	50,99
833,573	50,77
833,987	50,91
834,4	50,95
834,813	51,13
835,226	50,86
835,639	50,8
836,052	51,22
836,465	50,76
836,878	50,89
837,29	50,95
837,703	51,09
838,116	50,88
838,528	51,03
838,94	50,79
839,352	50,84
839,765	50,53
840,177	50,75
840,589	50,87
841	50,95
841,412	50,96
841,824	51,05
