Data from G_6__Relative__7__00165.txt Node

Date: Mon Jan 29 18:27:17 CET 2024
User: diatiterra
Spectrometer: HDX00911
Trigger mode: 0
Integration Time (sec): 6,000000E-3
Scans to average: 2
Nonlinearity correction enabled: false
Boxcar width: 0
Storing dark spectrum: false
XAxis mode: Wavelengths
Number of Pixels in Spectrum: 2068
>>>>>Begin Spectral Data<<<<<
194,468	68,63
195,025	52,21
195,581	59,57
196,138	63,85
196,694	66,67
197,251	52
197,807	61,2
198,363	47,27
198,919	45,91
199,474	46,07
200,03	49,63
200,586	50,68
201,141	50,94
201,696	50,52
202,251	51,66
202,806	53,38
203,361	50,88
203,916	51,37
204,471	47,18
205,025	48,57
205,58	50,18
206,134	51,11
206,688	56,16
207,242	48,98
207,796	53,56
208,35	50,9
208,904	43,05
209,457	58,84
210,011	53,85
210,564	52,08
211,117	57,39
211,67	52,46
212,223	52,4
212,776	61,05
213,329	44,67
213,881	48,93
214,434	52,41
214,986	48,15
215,538	53,48
216,09	52,46
216,642	50
217,194	53,97
217,746	47,14
218,297	47,32
218,849	49,84
219,4	66,08
219,951	56,36
220,502	48,43
221,053	52,04
221,604	50,34
222,155	49,38
222,705	50,84
223,256	54,68
223,806	50,34
224,356	53,62
224,906	47,41
225,456	45,52
226,006	44,63
226,556	48,54
227,106	54,2
227,655	51,92
228,204	54,28
228,754	53,1
229,303	51,19
229,852	50
230,401	50,9
230,949	61,87
231,498	57,46
232,047	47,81
232,595	48,23
233,143	51,89
233,691	46,4
234,239	52,99
234,787	43,71
235,335	46,94
235,883	50,9
236,43	51,48
236,978	49,82
237,525	55,22
238,072	47,97
238,619	39,73
239,166	54,21
239,713	55,39
240,26	46,44
240,806	52,13
241,353	57,95
241,899	46,6
242,445	48,6
242,991	46,69
243,537	53,8
244,083	56,36
244,629	45,27
245,174	56,72
245,72	49,83
246,265	46,29
246,81	55,84
247,355	41,18
247,9	47,75
248,445	60,69
248,99	44,64
249,534	48,1
250,079	54,85
250,623	48,47
251,168	51,68
251,712	54,61
252,256	51,16
252,8	54,51
253,343	52,87
253,887	53,06
254,43	53,16
254,974	47,9
255,517	55,03
256,06	45,55
256,603	47,17
257,146	50,51
257,689	44,3
258,232	55,56
258,774	50,18
259,317	49,45
259,859	47,97
260,401	47,35
260,943	52,99
261,485	57,45
262,027	49,66
262,569	49,62
263,11	54,15
263,652	45,22
264,193	52,86
264,734	47,22
265,275	59,04
265,816	56,12
266,357	51,08
266,898	42,66
267,438	51,37
267,979	48
268,519	52,71
269,059	50,71
269,6	53,33
270,14	43,23
270,68	50,19
271,219	53,33
271,759	49,63
272,298	47,64
272,838	51,16
273,377	48,89
273,916	53,43
274,455	49,43
274,994	49,28
275,533	46,76
276,072	53,01
276,61	44,03
277,149	47,1
277,687	54,09
278,225	49,66
278,763	50,72
279,301	58,49
279,839	45,29
280,377	44,16
280,914	45,79
281,452	61,38
281,989	51,88
282,526	46,95
283,064	53,47
283,601	54,92
284,137	53,28
284,674	58,11
285,211	48,2
285,747	47,8
286,284	42,46
286,82	48,23
287,356	47,42
287,892	51,93
288,428	42,71
288,964	50,9
289,5	56,46
290,035	48,92
290,571	54,85
291,106	56,36
291,641	48,28
292,176	49,62
292,711	51,72
293,246	44,4
293,781	55,02
294,315	58,46
294,85	56,93
295,384	52,59
295,918	47,04
296,453	46,64
296,987	45,17
297,52	49,66
298,054	54,04
298,588	57,87
299,121	52,38
299,655	49,82
300,188	54,75
300,721	52,41
301,254	51,6
301,787	53,66
302,32	57,95
302,853	46,34
303,385	61,17
303,918	50,53
304,45	55,21
304,982	51
305,514	59,04
306,046	52,63
306,578	57,14
307,11	54,65
307,641	49,45
308,173	50,93
308,704	52,49
309,236	49,06
309,767	52,08
310,298	48,08
310,829	66,16
311,359	55,52
311,89	53,38
312,421	52,9
312,951	44,36
313,481	54,22
314,012	55,68
314,542	52,74
315,072	49,45
315,601	44,13
316,131	46,35
316,661	58,75
317,19	48,4
317,72	59,34
318,249	50,68
318,778	49,81
319,307	44,26
319,836	50
320,365	42,67
320,893	48,23
321,422	46,64
321,95	53,33
322,479	52,94
323,007	43,84
323,535	48,3
324,063	60,82
324,591	39
325,118	40,91
325,646	55,38
326,173	46,79
326,701	48,73
327,228	49,84
327,755	51,25
328,282	50,19
328,809	44,81
329,336	47,4
329,862	46,15
330,389	47,1
330,915	49,29
331,441	46,78
331,968	43,99
332,494	43,14
333,02	43,07
333,545	40,79
334,071	49,33
334,597	44,93
335,122	45,82
335,648	45,79
336,173	46,86
336,698	43,49
337,223	50,51
337,748	46,32
338,272	45,21
338,797	44,01
339,322	40,86
339,846	37,89
340,37	37,73
340,894	51,37
341,419	43,29
341,942	43,62
342,466	41,98
342,99	43,08
343,514	37,66
344,037	44,26
344,56	36,36
345,084	40,38
345,607	42,55
346,13	40,92
346,653	43,4
347,175	45,48
347,698	33,63
348,221	42,15
348,743	37,9
349,265	44,94
349,787	37,43
350,309	39,67
350,831	41,19
351,353	38,89
351,875	38,76
352,397	39,94
352,918	38,7
353,439	41,46
353,961	38,87
354,482	39,33
355,003	37,53
355,524	39,03
356,044	38,26
356,565	31,42
357,086	32,57
357,606	32,29
358,126	34,55
358,646	34,33
359,167	38,82
359,687	35,61
360,206	34,94
360,726	32,64
361,246	39,28
361,765	34,87
362,285	36,49
362,804	36,89
363,323	34,4
363,842	40,24
364,361	35,71
364,88	36,5
365,398	32,89
365,917	39,43
366,435	30,04
366,954	32,87
367,472	33,69
367,99	31,42
368,508	34,57
369,026	28,88
369,544	31,82
370,061	33,92
370,579	32,08
371,096	31,93
371,613	33,03
372,131	34,51
372,648	32,85
373,165	34,14
373,681	32,75
374,198	30,33
374,715	36,11
375,231	31
375,747	36,03
376,264	32,75
376,78	33,01
377,296	32,59
377,812	29,53
378,327	28,74
378,843	31,31
379,359	31,16
379,874	30,05
380,389	30,67
380,905	32,76
381,42	31,46
381,935	32
382,449	33,42
382,964	31,06
383,479	31,03
383,993	29,09
384,508	28,81
385,022	30,81
385,536	27,63
386,05	29,36
386,564	26,02
387,078	26,7
387,592	27,92
388,105	27,04
388,619	25,27
389,132	27,19
389,645	27,56
390,158	24,93
390,671	27,65
391,184	23,35
391,697	24,67
392,21	23,45
392,722	22,48
393,235	23,98
393,747	24,38
394,259	26,17
394,771	22,03
395,283	23,01
395,795	24,38
396,307	22,15
396,818	22,69
397,33	21,32
397,841	22
398,353	21,82
398,864	22,49
399,375	21,76
399,886	19,97
400,397	19,53
400,907	20,75
401,418	18,43
401,928	18,33
402,439	19,94
402,949	19,77
403,459	18,47
403,969	17,47
404,479	18,31
404,989	17,73
405,498	18,08
406,008	15,96
406,517	14,5
407,027	14,63
407,536	14,16
408,045	13
408,554	14,11
409,063	13,56
409,572	13,05
410,08	13,08
410,589	12,53
411,097	12,24
411,606	11,8
412,114	11,47
412,622	11,1
413,13	10,96
413,638	10,9
414,145	9,61
414,653	9,4
415,16	9,79
415,668	10,16
416,175	9,57
416,682	9,61
417,189	8,78
417,696	8,36
418,203	9,27
418,71	8,36
419,216	9,1
419,723	8,48
420,229	8,09
420,735	8,01
421,242	8,34
421,748	8,56
422,254	8,05
422,759	7,96
423,265	7,52
423,771	7,4
424,276	7,8
424,781	7,81
425,287	7,36
425,792	7,63
426,297	7,5
426,802	7,25
427,306	7,78
427,811	8,01
428,316	7,5
428,82	7,54
429,324	7,68
429,829	7,37
430,333	7,18
430,837	7,36
431,34	6,76
431,844	7,52
432,348	6,98
432,851	6,92
433,355	6,68
433,858	6,61
434,361	7,31
434,864	7,04
435,367	6,82
435,87	7,27
436,373	6,84
436,876	6,59
437,378	6,57
437,88	6,83
438,383	6,76
438,885	6,89
439,387	6,84
439,889	6,48
440,391	7,1
440,892	6,46
441,394	6,55
441,896	6,58
442,397	6,54
442,898	6,52
443,399	7,27
443,9	7
444,401	6,92
444,902	6,97
445,403	6,52
445,903	6,68
446,404	6,97
446,904	6,53
447,405	6,54
447,905	7,04
448,405	7,07
448,905	6,82
449,404	6,97
449,904	6,45
450,404	6,84
450,903	6,83
451,403	6,79
451,902	6,95
452,401	7,22
452,9	7,21
453,399	7,09
453,898	6,73
454,396	6,68
454,895	7,05
455,393	7,04
455,892	6,89
456,39	7,26
456,888	6,91
457,386	6,8
457,884	7,01
458,382	6,94
458,879	7,19
459,377	7,01
459,874	6,93
460,372	7,08
460,869	7,18
461,366	7,12
461,863	7,39
462,36	7
462,857	7,2
463,353	7,09
463,85	6,94
464,346	7,09
464,843	6,9
465,339	7,01
465,835	6,81
466,331	7,19
466,827	6,94
467,323	6,78
467,818	7,04
468,314	7,12
468,809	6,63
469,305	7,01
469,8	7,1
470,295	6,78
470,79	7,15
471,285	7,19
471,78	7,12
472,274	6,98
472,769	6,93
473,263	6,79
473,758	7,13
474,252	7,18
474,746	6,91
475,24	7,11
475,734	7,06
476,228	7,03
476,721	7,03
477,215	7,03
477,708	7,24
478,202	6,95
478,695	6,89
479,188	7,2
479,681	7,16
480,174	6,91
480,667	7,36
481,159	7,31
481,652	7,27
482,144	7,14
482,637	6,95
483,129	7,15
483,621	7,1
484,113	7,2
484,605	7,26
485,097	7,3
485,588	7,29
486,08	7,6
486,571	7,53
487,063	7,29
487,554	7,17
488,045	7,57
488,536	7,56
489,027	7,66
489,518	7,53
490,008	7,59
490,499	7,4
490,989	7,52
491,48	7,71
491,97	7,61
492,46	7,53
492,95	7,7
493,44	7,73
493,93	7,67
494,419	7,9
494,909	7,71
495,398	7,78
495,888	7,69
496,377	7,79
496,866	7,89
497,355	7,94
497,844	8,07
498,333	8,04
498,821	7,98
499,31	8,08
499,798	8,42
500,287	8,49
500,775	8,61
501,263	8,34
501,751	8,58
502,239	8,91
502,727	8,82
503,215	8,94
503,702	9,31
504,19	9,29
504,677	9,45
505,164	9,24
505,651	9,72
506,139	9,72
506,625	10,01
507,112	10,14
507,599	10,36
508,086	10,26
508,572	10,5
509,058	10,82
509,545	11,19
510,031	10,99
510,517	11,25
511,003	11,57
511,489	11,59
511,974	11,74
512,46	12,19
512,946	12,34
513,431	12,55
513,916	12,91
514,401	13,39
514,887	13,49
515,371	13,84
515,856	13,79
516,341	14,37
516,826	14,59
517,31	14,97
517,795	15,04
518,279	15,38
518,763	15,89
519,247	15,93
519,731	16,59
520,215	16,65
520,699	17,5
521,182	17,12
521,666	17,73
522,149	18,17
522,633	18,52
523,116	18,84
523,599	19,27
524,082	19,05
524,565	19,81
525,048	19,74
525,53	20,41
526,013	20,65
526,495	20,98
526,978	20,88
527,46	21,57
527,942	21,75
528,424	22,32
528,906	21,83
529,388	22,3
529,87	22,43
530,351	22,65
530,833	23,06
531,314	23,15
531,795	23,53
532,277	23,46
532,758	23,56
533,238	23,8
533,719	24,29
534,2	24,56
534,681	24,08
535,161	24,66
535,642	24,19
536,122	24,03
536,602	24,86
537,082	24,76
537,562	25,06
538,042	24,98
538,522	25,3
539,001	24,83
539,481	24,95
539,96	24,7
540,44	25,17
540,919	25,5
541,398	25,07
541,877	25,49
542,356	25,54
542,835	25,41
543,313	25,6
543,792	25,58
544,27	25,44
544,749	25,65
545,227	25,6
545,705	26,05
546,183	25,57
546,661	25,78
547,139	25,97
547,616	25,95
548,094	26,19
548,571	26,2
549,049	26,07
549,526	26,22
550,003	26,17
550,48	26,21
550,957	26,11
551,434	26,52
551,911	26,09
552,387	26,25
552,864	26,55
553,34	26,33
553,817	26,04
554,293	26,36
554,769	26,11
555,245	26,21
555,721	26,35
556,197	26,15
556,672	26,03
557,148	26,06
557,623	26,4
558,099	26,03
558,574	25,99
559,049	26,03
559,524	26,04
559,999	25,95
560,474	25,47
560,948	25,62
561,423	25,75
561,897	25,44
562,372	25,68
562,846	25,28
563,32	25,15
563,794	25,28
564,268	25,03
564,742	25,09
565,216	24,77
565,69	24,42
566,163	24,69
566,636	24,44
567,11	24,16
567,583	23,88
568,056	24,04
568,529	23,8
569,002	23,64
569,475	23,27
569,947	22,93
570,42	22,99
570,892	22,82
571,365	22,72
571,837	22,18
572,309	22,3
572,781	21,78
573,253	21,97
573,725	21,72
574,197	21,66
574,668	21,5
575,14	20,99
575,611	20,93
576,082	20,75
576,554	20,77
577,025	20,59
577,496	20,74
577,967	20,38
578,437	20,07
578,908	19,84
579,379	19,93
579,849	19,83
580,319	19,53
580,79	19,26
581,26	19,5
581,73	19,12
582,2	18,89
582,669	19,03
583,139	18,88
583,609	18,68
584,078	18,71
584,548	18,48
585,017	18,41
585,486	18,08
585,955	18,35
586,424	18,22
586,893	18,18
587,362	17,89
587,83	17,92
588,299	18,17
588,767	17,77
589,236	17,51
589,704	17,53
590,172	17,63
590,64	17,41
591,108	17,17
591,576	17,37
592,043	17,17
592,511	17,02
592,978	17,26
593,446	17,33
593,913	17,07
594,38	16,97
594,847	16,92
595,314	16,83
595,781	16,66
596,248	16,89
596,715	16,73
597,181	16,76
597,647	16,96
598,114	16,7
598,58	16,6
599,046	16,52
599,512	16,53
599,978	16,46
600,444	16,76
600,91	16,26
601,375	16,52
601,841	16,37
602,306	16,3
602,771	16,23
603,236	16,17
603,702	16,37
604,167	16,14
604,631	15,99
605,096	16,08
605,561	15,92
606,025	15,92
606,49	15,82
606,954	15,65
607,418	15,86
607,882	15,48
608,347	15,36
608,81	15,31
609,274	15,24
609,738	15,24
610,202	14,88
610,665	15,09
611,128	14,86
611,592	14,78
612,055	14,73
612,518	14,6
612,981	14,42
613,444	14,6
613,907	14,31
614,369	14,1
614,832	14,31
615,294	14,07
615,757	13,92
616,219	13,93
616,681	13,75
617,143	13,76
617,605	13,66
618,067	13,59
618,529	13,36
618,99	13,55
619,452	13,26
619,913	13,35
620,375	13,08
620,836	13,12
621,297	13,05
621,758	12,95
622,219	13,01
622,68	13,09
623,14	12,88
623,601	12,72
624,061	12,64
624,522	12,94
624,982	12,79
625,442	12,72
625,902	12,66
626,362	12,53
626,822	12,56
627,282	12,6
627,742	12,53
628,201	12,51
628,661	12,63
629,12	12,66
629,579	12,52
630,038	12,45
630,497	12,68
630,956	12,41
631,415	12,38
631,874	12,53
632,332	12,35
632,791	12,4
633,249	12,38
633,708	12,23
634,166	12,27
634,624	12,16
635,082	12,23
635,54	12,13
635,998	12,06
636,455	11,91
636,913	11,96
637,37	11,83
637,828	11,71
638,285	11,68
638,742	11,61
639,199	11,4
639,656	11,27
640,113	11,25
640,57	11,03
641,027	11,09
641,483	10,93
641,94	10,83
642,396	10,71
642,852	10,69
643,309	10,53
643,765	10,41
644,221	10,2
644,676	10,17
645,132	10,05
645,588	9,86
646,043	9,76
646,499	9,68
646,954	9,69
647,409	9,46
647,864	9,42
648,319	9,22
648,774	9,16
649,229	9,18
649,684	9,09
650,139	9,08
650,593	9,06
651,047	8,96
651,502	9,04
651,956	8,79
652,41	8,72
652,864	8,7
653,318	8,63
653,772	8,61
654,225	8,61
654,679	8,58
655,133	8,57
655,586	8,49
656,039	8,31
656,492	8,26
656,946	8,23
657,399	8,09
657,851	8,14
658,304	8
658,757	7,85
659,209	7,95
659,662	7,87
660,114	7,84
660,567	7,72
661,019	7,72
661,471	7,69
661,923	7,41
662,375	7,39
662,826	7,24
663,278	7,22
663,73	7,22
664,181	7,2
664,632	7,07
665,084	7,12
665,535	7,04
665,986	7,03
666,437	7,07
666,888	7,01
667,338	6,87
667,789	6,96
668,24	6,97
668,69	6,83
669,14	6,78
669,591	6,9
670,041	6,95
670,491	6,93
670,941	6,89
671,391	6,87
671,84	6,91
672,29	6,9
672,74	7,05
673,189	7,02
673,638	7,07
674,088	7,14
674,537	7,17
674,986	7,07
675,435	7,21
675,883	7,16
676,332	7,32
676,781	7,36
677,229	7,43
677,678	7,4
678,126	7,48
678,574	7,63
679,022	7,57
679,47	7,68
679,918	7,74
680,366	7,81
680,814	7,78
681,261	8,04
681,709	8,03
682,156	8,08
682,604	8,21
683,051	8,31
683,498	8,35
683,945	8,44
684,392	8,53
684,839	8,47
685,286	8,66
685,732	8,94
686,179	9,13
686,625	9,17
687,071	9,24
687,518	9,48
687,964	9,58
688,41	9,82
688,856	9,91
689,301	10,22
689,747	10,53
690,193	10,89
690,638	11,24
691,084	11,48
691,529	11,93
691,974	12,27
692,419	12,74
692,864	13,24
693,309	13,65
693,754	14,18
694,199	14,67
694,643	15,11
695,088	15,77
695,532	16,29
695,977	16,66
696,421	17,24
696,865	17,92
697,309	18,85
697,753	19,3
698,197	19,83
698,64	20,49
699,084	21,04
699,527	21,67
699,971	22,1
700,414	22,76
700,857	23,35
701,3	23,92
701,743	24,54
702,186	25,04
702,629	25,77
703,072	26,29
703,515	26,73
703,957	27,37
704,399	28,17
704,842	28,28
705,284	29,18
705,726	29,43
706,168	30,26
706,61	30,47
707,052	31,19
707,494	31,55
707,935	32,02
708,377	32,5
708,818	33,02
709,26	33,47
709,701	33,97
710,142	34,51
710,583	34,75
711,024	35,32
711,465	35,6
711,905	36,34
712,346	36,25
712,787	37,12
713,227	37,35
713,667	37,81
714,108	38,03
714,548	38,53
714,988	39,31
715,428	39,6
715,868	39,64
716,307	40,26
716,747	40,69
717,186	40,88
717,626	41,43
718,065	41,3
718,504	41,89
718,944	42,33
719,383	42,66
719,822	43,12
720,261	43,45
720,699	43,66
721,138	44,23
721,576	44,13
722,015	44,45
722,453	44,61
722,892	45,34
723,33	45,03
723,768	45,72
724,206	45,83
724,644	46,34
725,081	46,39
725,519	46,43
725,957	46,46
726,394	47,12
726,832	47,39
727,269	47,29
727,706	47,66
728,143	48,18
728,58	48,14
729,017	48,3
729,454	48,47
729,89	48,41
730,327	48,96
730,764	49,01
731,2	48,96
731,636	48,96
732,072	49,27
732,509	49,25
732,945	49,5
733,38	49,52
733,816	49,75
734,252	50,17
734,688	50,18
735,123	49,9
735,559	50,37
735,994	50,37
736,429	50,47
736,864	50,59
737,299	50,55
737,734	51,02
738,169	50,79
738,604	50,68
739,038	51,07
739,473	51,33
739,907	51,11
740,342	51,02
740,776	50,87
741,21	51,04
741,644	51,07
742,078	51,09
742,512	51,62
742,946	50,95
743,379	51,2
743,813	51,23
744,246	51,32
744,68	51,21
745,113	51,27
745,546	51,28
745,979	51,54
746,412	51,61
746,845	51,36
747,278	51,21
747,711	51,59
748,143	51,3
748,576	51,56
749,008	51,36
749,441	51,43
749,873	51,02
750,305	51,28
750,737	50,99
751,169	51,44
751,601	51,39
752,032	51,42
752,464	51,29
752,896	51,42
753,327	51,13
753,758	51,22
754,19	51,42
754,621	51
755,052	51,22
755,483	51,16
755,914	51,28
756,344	51,14
756,775	51,24
757,206	51,32
757,636	51,04
758,066	51,28
758,497	51,17
758,927	51,13
759,357	51,2
759,787	51,17
760,217	50,85
760,647	50,79
761,076	50,91
761,506	51,14
761,935	51,08
762,365	50,86
762,794	50,55
763,223	50,83
763,653	50,96
764,082	50,76
764,51	50,64
764,939	50,82
765,368	50,9
765,797	50,63
766,225	50,79
766,654	50,83
767,082	51,25
767,51	50,57
767,938	50,54
768,367	50,41
768,795	50,27
769,222	50,9
769,65	50,31
770,078	50,56
770,505	50,83
770,933	50,62
771,36	50,21
771,788	50,34
772,215	50,85
772,642	50,64
773,069	50,69
773,496	50,56
773,923	50,56
774,349	50,44
774,776	50,34
775,203	50,3
775,629	50,55
776,055	50,27
776,482	50,55
776,908	50,53
777,334	50,41
777,76	50,36
778,186	50,36
778,611	50,43
779,037	50,17
779,463	50,3
779,888	50,36
780,314	50,31
780,739	50,36
781,164	49,97
781,589	50,26
782,014	50,23
782,439	50,33
782,864	50,22
783,289	50,19
783,713	50,29
784,138	50,22
784,562	50,44
784,987	49,79
785,411	49,98
785,835	50,05
786,259	50,15
786,683	50,17
787,107	50,57
787,531	50,07
787,954	49,98
788,378	50,19
788,802	49,99
789,225	49,71
789,648	50,03
790,071	50,1
790,495	50,3
790,918	49,77
791,34	50,11
791,763	50,1
792,186	49,9
792,609	50,34
793,031	50,15
793,454	50,06
793,876	50,01
794,298	50,22
794,721	49,88
795,143	49,94
795,565	49,74
795,986	49,72
796,408	49,75
796,83	49,77
797,252	49,96
797,673	50
798,094	50,06
798,516	49,71
798,937	49,4
799,358	49,82
799,779	50,09
800,2	49,7
800,621	49,92
801,042	49,91
801,462	49,86
801,883	49,95
802,303	49,74
802,724	49,84
803,144	49,82
803,564	49,84
803,984	49,68
804,404	49,89
804,824	49,75
805,244	49,89
805,664	49,78
806,084	49,69
806,503	49,95
806,923	49,87
807,342	50,09
807,761	49,94
808,18	49,91
808,599	49,79
809,018	49,69
809,437	49,69
809,856	49,68
810,275	49,91
810,693	49,94
811,112	49,8
811,53	50,11
811,949	49,8
812,367	49,41
812,785	49,5
813,203	49,51
813,621	49,63
814,039	49,71
814,457	49,75
814,874	50,09
815,292	49,89
815,709	49,97
816,127	49,25
816,544	49,64
816,961	49,89
817,378	50,02
817,795	49,7
818,212	49,83
818,629	49,56
819,046	50,07
819,462	49,57
819,879	49,74
820,295	49,76
820,712	49,9
821,128	50,01
821,544	49,38
821,96	49,67
822,376	49,69
822,792	49,94
823,208	49,53
823,624	49,8
824,039	49,85
824,455	49,75
824,87	49,77
825,286	49,59
825,701	49,78
826,116	49,65
826,531	49,86
826,946	49,71
827,361	50,13
827,776	49,87
828,19	49,48
828,605	49,59
829,02	49,83
829,434	49,47
829,848	49,34
830,263	49,67
830,677	49,45
831,091	49,92
831,505	49,78
831,919	50,02
832,332	49,62
832,746	49,83
833,16	49,29
833,573	49,53
833,987	49,53
834,4	49,44
834,813	49,83
835,226	49,48
835,639	49,2
836,052	49,64
836,465	49,36
836,878	49,35
837,29	49,31
837,703	49,61
838,116	49,49
838,528	49,32
838,94	49,32
839,352	49,53
839,765	49,26
840,177	49,23
840,589	49,44
841	49,35
841,412	49,42
841,824	49,41
