Data from G_6__Relative__0__00158.txt Node

Date: Mon Jan 29 18:26:40 CET 2024
User: diatiterra
Spectrometer: HDX00911
Trigger mode: 0
Integration Time (sec): 6,000000E-3
Scans to average: 2
Nonlinearity correction enabled: false
Boxcar width: 0
Storing dark spectrum: false
XAxis mode: Wavelengths
Number of Pixels in Spectrum: 2068
>>>>>Begin Spectral Data<<<<<
194,468	47,06
195,025	41,59
195,581	68,09
196,138	53,08
196,694	62,64
197,251	44,44
197,807	50
198,363	46,18
198,919	43,77
199,474	45,71
200,03	46,69
200,586	37,76
201,141	42,7
201,696	40,48
202,251	40,59
202,806	46,24
203,361	41,05
203,916	51,37
204,471	38,03
205,025	43,21
205,58	47,67
206,134	47,78
206,688	43,12
207,242	43,2
207,796	38,64
208,35	44,77
208,904	42,03
209,457	41,52
210,011	43,71
210,564	41,67
211,117	40,49
211,67	37,68
212,223	30,14
212,776	44,94
213,329	39,52
213,881	37,14
214,434	46,9
214,986	36,7
215,538	40,66
216,09	35,74
216,642	45,56
217,194	47,02
217,746	47,81
218,297	43,29
218,849	36,76
219,4	48,6
219,951	41,45
220,502	41,46
221,053	42,63
221,604	48,99
222,155	43,62
222,705	41,47
223,256	51,08
223,806	42,18
224,356	43,84
224,906	39,63
225,456	43,1
226,006	36,91
226,556	49,64
227,106	34,62
227,655	41,11
228,204	40,79
228,754	44,14
229,303	48,81
229,852	49,02
230,401	40,86
230,949	54,47
231,498	46,27
232,047	45,45
232,595	42,2
233,143	50
233,691	42,8
234,239	44,03
234,787	33,57
235,335	40,82
235,883	46,95
236,43	42,59
236,978	47,27
237,525	49,63
238,072	38,75
238,619	38,36
239,166	41,41
239,713	49,44
240,26	47,94
240,806	43,62
241,353	43,11
241,899	40,13
242,445	50,7
242,991	49,83
243,537	38,94
244,083	41,45
244,629	41,55
245,174	46,64
245,72	40,8
246,265	37,81
246,81	45,99
247,355	44,49
247,9	39,45
248,445	49,66
248,99	41,18
249,534	39,56
250,079	45,15
250,623	41,69
251,168	50,67
251,712	49,65
252,256	42,86
252,8	48,61
253,343	48,09
253,887	47,62
254,43	50,93
254,974	39,86
255,517	41,28
256,06	38,36
256,603	41,13
257,146	44,11
257,689	40,19
258,232	39,46
258,774	40,22
259,317	45,42
259,859	38,01
260,401	48,11
260,943	41,79
261,485	44,33
262,027	40,69
262,569	40,6
263,11	41,16
263,652	45,22
264,193	36,43
264,734	44,84
265,275	41,77
265,816	41,73
266,357	47,12
266,898	34,13
267,438	36,47
267,979	43,64
268,519	37,91
269,059	45,39
269,6	40,7
270,14	40,59
270,68	41,38
271,219	38,6
271,759	49,25
272,298	36
272,838	36,43
273,377	45,56
273,916	35,38
274,455	45,59
274,994	37,05
275,533	38,91
276,072	40,6
276,61	34,81
277,149	36,23
277,687	43,77
278,225	42,81
278,763	35,51
279,301	41,89
279,839	44,2
280,377	44,89
280,914	32,23
281,452	46,75
281,989	37,2
282,526	43,01
283,064	40,62
283,601	43,94
284,137	37,96
284,674	44,15
285,211	34,89
285,747	34,92
286,284	32,98
286,82	42,55
287,356	30,93
287,892	40,35
288,428	31,53
288,964	45,49
289,5	42,52
290,035	40,65
290,571	37,69
291,106	37,09
291,641	37,55
292,176	43,61
292,711	40,34
293,246	39,35
293,781	38,29
294,315	37,13
294,85	38,32
295,384	43,7
295,918	40,77
296,453	32,86
296,987	36,21
297,52	36,64
298,054	40,81
298,588	35,04
299,121	35,53
299,655	36,84
300,188	35,74
300,721	44,83
301,254	34,88
301,787	35,37
302,32	40,91
302,853	38,68
303,385	40,29
303,918	40
304,45	41,7
304,982	31,47
305,514	40,96
306,046	38,25
306,578	38,21
307,11	37,55
307,641	35,64
308,173	39,78
308,704	47,89
309,236	40,07
309,767	31,67
310,298	32,06
310,829	41,44
311,359	47,33
311,89	46,26
312,421	45,65
312,951	35,27
313,481	38,55
314,012	45,42
314,542	37,67
315,072	33,45
315,601	39,5
316,131	38,69
316,661	44,17
317,19	33,1
317,72	48,35
318,249	36,82
318,778	37,64
319,307	33,78
319,836	47,32
320,365	39,09
320,893	36,88
321,422	38,43
321,95	34,81
322,479	39,79
323,007	45,65
323,535	42,64
324,063	45,15
324,591	35,33
325,118	38,46
325,646	33,85
326,173	44,64
326,701	38,18
327,228	43,77
327,755	29,39
328,282	40,75
328,809	37,78
329,336	37,37
329,862	39,23
330,389	37,88
330,915	38,3
331,441	39,32
331,968	40,89
332,494	32,44
333,02	40,88
333,545	38,99
334,071	36
334,597	38,51
335,122	40,8
335,648	49,82
336,173	35,31
336,698	36,99
337,223	46,76
337,748	40,7
338,272	37,62
338,797	38,19
339,322	33,22
339,846	34,38
340,37	35,9
340,894	35,27
341,419	39,26
341,942	40,6
342,466	39,59
342,99	33,85
343,514	43,83
344,037	34,43
344,56	32,6
345,084	29,65
345,607	35,26
346,13	36,62
346,653	30,82
347,175	38,71
347,698	33,04
348,221	33,72
348,743	35,28
349,265	34,52
349,787	29,71
350,309	27,27
350,831	29,85
351,353	38,89
351,875	35,39
352,397	33,33
352,918	33,9
353,439	37,94
353,961	29,58
354,482	33,43
355,003	31,37
355,524	33,67
356,044	34,04
356,565	37,16
357,086	30,03
357,606	32,05
358,126	32,36
358,646	35,07
359,167	34,15
359,687	34,91
360,206	29,88
360,726	29,29
361,246	31,81
361,765	32,24
362,285	31,04
362,804	30,44
363,323	30,73
363,842	30,48
364,361	32,25
364,88	31,86
365,398	37,75
365,917	34,5
366,435	34,55
366,954	32,46
367,472	38,38
367,99	30,39
368,508	33,79
369,026	31,4
369,544	27,82
370,061	31,28
370,579	29,08
371,096	30,11
371,613	30,46
372,131	35,04
372,648	34,48
373,165	33,1
373,681	32,4
374,198	30
374,715	31,08
375,231	30,84
375,747	31,74
376,264	26,52
376,78	35,09
377,296	29,59
377,812	26,56
378,327	28,74
378,843	31,46
379,359	28,41
379,874	28,55
380,389	33,01
380,905	28,51
381,42	29,9
381,935	28,53
382,449	28,84
382,964	29,84
383,479	29,12
383,993	29,57
384,508	30,09
385,022	28,35
385,536	26,62
386,05	27,37
386,564	27,39
387,078	24,71
387,592	29,06
388,105	25,66
388,619	24,39
389,132	26,52
389,645	27,19
390,158	25,28
390,671	27,65
391,184	25,52
391,697	25,02
392,21	24,03
392,722	23,62
393,235	25,61
393,747	24,98
394,259	23,43
394,771	24,67
395,283	23,57
395,795	20,89
396,307	20,91
396,818	22,09
397,33	22,43
397,841	21,09
398,353	20,32
398,864	21,85
399,375	20,15
399,886	20,04
400,397	18,97
400,907	19,23
401,418	18,38
401,928	19,54
402,439	18,95
402,949	18,15
403,459	18,64
403,969	18,07
404,479	16,85
404,989	17,42
405,498	17,4
406,008	14,84
406,517	15,16
407,027	14,72
407,536	14,76
408,045	14,04
408,554	13,59
409,063	13,37
409,572	11,94
410,08	13,23
410,589	11,83
411,097	11,95
411,606	12,13
412,114	11,01
412,622	11,19
413,13	11,16
413,638	9,26
414,145	10,17
414,653	9,91
415,16	10,18
415,668	9,14
416,175	9,83
416,682	8,53
417,189	9,08
417,696	8,22
418,203	8,46
418,71	8,47
419,216	7,62
419,723	8,2
420,229	7,93
420,735	7,45
421,242	8,28
421,748	8,47
422,254	7,64
422,759	7,81
423,265	7,86
423,771	7,65
424,276	7,76
424,781	7,64
425,287	7,26
425,792	6,84
426,297	8,02
426,802	7,04
427,306	7,1
427,811	7,48
428,316	7,43
428,82	7,65
429,324	7,2
429,829	7,57
430,333	7,07
430,837	6,87
431,34	7,04
431,844	6,52
432,348	6,79
432,851	7,04
433,355	6,86
433,858	6,3
434,361	6,92
434,864	6,88
435,367	6,62
435,87	6,67
436,373	7,08
436,876	6,59
437,378	6,6
437,88	6,41
438,383	6,77
438,885	6,55
439,387	6,48
439,889	6,63
440,391	6,83
440,892	6,67
441,394	6,7
441,896	6,39
442,397	6,76
442,898	6,51
443,399	6,72
443,9	6,69
444,401	6,81
444,902	6,74
445,403	6,58
445,903	6,89
446,404	7,16
446,904	6,65
447,405	7,12
447,905	6,83
448,405	7,18
448,905	7,4
449,404	7,18
449,904	6,89
450,404	7,26
450,903	6,97
451,403	7,17
451,902	7,76
452,401	7,94
452,9	7,46
453,399	7,53
453,898	7,23
454,396	7,52
454,895	7,47
455,393	7,32
455,892	7,59
456,39	7,75
456,888	7,56
457,386	7,64
457,884	7,79
458,382	7,65
458,879	7,54
459,377	7,52
459,874	7,45
460,372	7,44
460,869	7,75
461,366	7,46
461,863	7,73
462,36	7,83
462,857	7,67
463,353	7,8
463,85	8,16
464,346	7,69
464,843	8,02
465,339	7,75
465,835	7,66
466,331	7,68
466,827	7,59
467,323	7,53
467,818	7,76
468,314	8,04
468,809	8
469,305	7,56
469,8	7,74
470,295	7,99
470,79	8,01
471,285	7,86
471,78	7,95
472,274	7,74
472,769	7,88
473,263	7,49
473,758	7,97
474,252	7,64
474,746	7,69
475,24	7,85
475,734	7,66
476,228	7,89
476,721	7,78
477,215	7,92
477,708	7,83
478,202	7,9
478,695	7,93
479,188	7,95
479,681	8,07
480,174	8,02
480,667	8,11
481,159	7,7
481,652	8,32
482,144	7,93
482,637	7,9
483,129	8,24
483,621	8,01
484,113	8,61
484,605	8,25
485,097	8,33
485,588	7,87
486,08	8,52
486,571	8,31
487,063	8,19
487,554	8,35
488,045	8,36
488,536	8,44
489,027	8,31
489,518	8,7
490,008	8,79
490,499	8,79
490,989	8,71
491,48	8,9
491,97	8,76
492,46	8,96
492,95	8,81
493,44	9,21
493,93	9,33
494,419	9,58
494,909	9,43
495,398	9,38
495,888	9,61
496,377	9,58
496,866	9,8
497,355	10,16
497,844	10,07
498,333	10,29
498,821	9,95
499,31	10,79
499,798	10,55
500,287	10,62
500,775	11,17
501,263	11,25
501,751	11,47
502,239	11,42
502,727	11,69
503,215	11,78
503,702	11,99
504,19	12,34
504,677	12,58
505,164	12,43
505,651	13
506,139	12,97
506,625	13,23
507,112	13,36
507,599	13,74
508,086	13,91
508,572	14,45
509,058	14,27
509,545	14,75
510,031	14,56
510,517	15,11
511,003	15,27
511,489	15,69
511,974	15,85
512,46	16,28
512,946	16,73
513,431	16,36
513,916	16,96
514,401	17,28
514,887	17,8
515,371	17,87
515,856	18,33
516,341	18,01
516,826	19,09
517,31	19,32
517,795	19,54
518,279	19,26
518,763	20,23
519,247	20,08
519,731	20,69
520,215	20,92
520,699	21,25
521,182	21,59
521,666	21,92
522,149	22,47
522,633	22,59
523,116	22,89
523,599	23,08
524,082	22,96
524,565	23,6
525,048	23,34
525,53	24,22
526,013	24,02
526,495	24,35
526,978	24,98
527,46	25,03
527,942	25,3
528,424	25,54
528,906	25,23
529,388	25,7
529,87	25,69
530,351	25,92
530,833	26,27
531,314	26,46
531,795	26,54
532,277	26,49
532,758	26,65
533,238	26,62
533,719	27,15
534,2	27,42
534,681	27,11
535,161	27,85
535,642	27,38
536,122	27,12
536,602	27,88
537,082	27,59
537,562	27,94
538,042	27,59
538,522	28,26
539,001	27,99
539,481	27,92
539,96	27,93
540,44	27,98
540,919	28,08
541,398	28,28
541,877	28,18
542,356	28,3
542,835	28,55
543,313	28,21
543,792	28,28
544,27	28,19
544,749	28
545,227	28,14
545,705	28,57
546,183	28,42
546,661	28,68
547,139	28,8
547,616	28,63
548,094	28,93
548,571	28,81
549,049	28,62
549,526	29,07
550,003	28,67
550,48	28,33
550,957	28,74
551,434	28,62
551,911	28,44
552,387	28,59
552,864	28,8
553,34	29,2
553,817	28,89
554,293	28,65
554,769	29,1
555,245	29,02
555,721	28,92
556,197	28,74
556,672	29,03
557,148	28,61
557,623	28,74
558,099	28,56
558,574	28,83
559,049	28,63
559,524	28,41
559,999	28,63
560,474	28,15
560,948	28,51
561,423	28,73
561,897	28,51
562,372	28,41
562,846	28,28
563,32	28,27
563,794	27,56
564,268	28,03
564,742	28,1
565,216	27,76
565,69	27,5
566,163	27,9
566,636	27,78
567,11	27,29
567,583	26,99
568,056	27,01
568,529	27,39
569,002	27,13
569,475	26,72
569,947	26,69
570,42	26,36
570,892	26,12
571,365	26,23
571,837	26,13
572,309	26,34
572,781	25,78
573,253	25,45
573,725	25,22
574,197	25,42
574,668	24,88
575,14	24,96
575,611	24,82
576,082	24,77
576,554	24,95
577,025	24,45
577,496	24,14
577,967	24,17
578,437	24,19
578,908	23,81
579,379	23,94
579,849	23,79
580,319	23,7
580,79	23,46
581,26	23,43
581,73	23,57
582,2	22,96
582,669	23,13
583,139	22,95
583,609	23,03
584,078	22,87
584,548	22,68
585,017	22,6
585,486	22,44
585,955	22,71
586,424	22,53
586,893	22,27
587,362	22,06
587,83	22,19
588,299	21,98
588,767	21,89
589,236	22,02
589,704	21,83
590,172	21,76
590,64	21,47
591,108	21,71
591,576	21,51
592,043	21,27
592,511	21,17
592,978	21,45
593,446	21,12
593,913	21,33
594,38	21,1
594,847	21,14
595,314	21,2
595,781	21,07
596,248	20,98
596,715	21,15
597,181	20,84
597,647	20,81
598,114	20,58
598,58	20,82
599,046	20,69
599,512	20,84
599,978	20,77
600,444	20,6
600,91	20,8
601,375	20,47
601,841	20,57
602,306	20,54
602,771	20,48
603,236	20,41
603,702	20,26
604,167	20,18
604,631	20,13
605,096	20,3
605,561	20,12
606,025	19,81
606,49	20,02
606,954	19,68
607,418	19,78
607,882	19,65
608,347	19,79
608,81	19,58
609,274	19,59
609,738	19,5
610,202	19,24
610,665	19,41
611,128	19,25
611,592	19,18
612,055	19,04
612,518	18,76
612,981	18,72
613,444	18,6
613,907	18,62
614,369	18,31
614,832	18,33
615,294	18,25
615,757	18,04
616,219	18,29
616,681	18,02
617,143	18,11
617,605	17,86
618,067	17,66
618,529	17,57
618,99	17,6
619,452	17,8
619,913	17,53
620,375	17,38
620,836	17,28
621,297	17,29
621,758	17,32
622,219	17,23
622,68	17,28
623,14	16,99
623,601	17,16
624,061	17,06
624,522	16,94
624,982	16,96
625,442	16,93
625,902	16,71
626,362	16,99
626,822	16,73
627,282	16,79
627,742	16,91
628,201	16,95
628,661	16,75
629,12	16,82
629,579	16,63
630,038	16,61
630,497	16,63
630,956	16,63
631,415	16,48
631,874	16,58
632,332	16,54
632,791	16,53
633,249	16,3
633,708	16,52
634,166	16,03
634,624	16,22
635,082	16,21
635,54	16,16
635,998	16,09
636,455	16,06
636,913	16,02
637,37	15,79
637,828	15,69
638,285	15,56
638,742	15,4
639,199	15,43
639,656	15,34
640,113	14,95
640,57	14,92
641,027	14,85
641,483	14,65
641,94	14,5
642,396	14,61
642,852	14,39
643,309	14,1
643,765	13,84
644,221	13,68
644,676	13,78
645,132	13,51
645,588	13,3
646,043	13,34
646,499	13,07
646,954	13
647,409	12,92
647,864	12,73
648,319	12,51
648,774	12,41
649,229	12,3
649,684	12,21
650,139	11,98
650,593	12,11
651,047	12,09
651,502	11,89
651,956	11,77
652,41	11,92
652,864	11,75
653,318	11,7
653,772	11,62
654,225	11,59
654,679	11,63
655,133	11,39
655,586	11,41
656,039	11,15
656,492	11,21
656,946	11,16
657,399	11,07
657,851	10,84
658,304	10,78
658,757	10,65
659,209	10,57
659,662	10,65
660,114	10,29
660,567	10,13
661,019	10,08
661,471	9,92
661,923	9,81
662,375	9,72
662,826	9,55
663,278	9,53
663,73	9,34
664,181	9,12
664,632	9,13
665,084	9,02
665,535	9,01
665,986	8,82
666,437	8,89
666,888	8,74
667,338	8,69
667,789	8,65
668,24	8,6
668,69	8,61
669,14	8,45
669,591	8,43
670,041	8,43
670,491	8,37
670,941	8,42
671,391	8,43
671,84	8,28
672,29	8,43
672,74	8,34
673,189	8,38
673,638	8,58
674,088	8,59
674,537	8,53
674,986	8,68
675,435	8,63
675,883	8,65
676,332	8,79
676,781	8,81
677,229	8,75
677,678	8,96
678,126	9,07
678,574	9,28
679,022	9,35
679,47	9,5
679,918	9,49
680,366	9,43
680,814	9,67
681,261	9,75
681,709	9,98
682,156	10,18
682,604	10,32
683,051	10,57
683,498	10,71
683,945	10,83
684,392	10,98
684,839	11,24
685,286	11,49
685,732	11,75
686,179	12,01
686,625	12,33
687,071	12,45
687,518	12,89
687,964	13,15
688,41	13,7
688,856	13,92
689,301	14,29
689,747	14,7
690,193	15,19
690,638	15,68
691,084	16,08
691,529	16,54
691,974	17,11
692,419	17,6
692,864	18,23
693,309	18,8
693,754	19,04
694,199	19,71
694,643	20,2
695,088	20,79
695,532	21,08
695,977	21,84
696,421	22,38
696,865	22,95
697,309	23,32
697,753	23,87
698,197	24,51
698,64	24,87
699,084	24,97
699,527	25,77
699,971	26,28
700,414	26,72
700,857	27,06
701,3	27,6
701,743	27,78
702,186	28,27
702,629	28,77
703,072	29,24
703,515	29,65
703,957	29,78
704,399	30,16
704,842	30,42
705,284	30,88
705,726	31,22
706,168	31,5
706,61	31,68
707,052	32,26
707,494	32,46
707,935	32,69
708,377	33,08
708,818	33,15
709,26	33,34
709,701	33,68
710,142	34,19
710,583	34,09
711,024	34,57
711,465	34,63
711,905	34,93
712,346	34,82
712,787	35,34
713,227	35,52
713,667	35,93
714,108	35,98
714,548	36,38
714,988	36,46
715,428	36,51
715,868	36,84
716,307	36,79
716,747	37,27
717,186	37,54
717,626	37,65
718,065	37,61
718,504	37,67
718,944	37,91
719,383	37,92
719,822	38,34
720,261	38,44
720,699	38,63
721,138	38,6
721,576	38,87
722,015	39,05
722,453	38,77
722,892	39,61
723,33	39,19
723,768	39,5
724,206	39,29
724,644	39,59
725,081	39,31
725,519	39,7
725,957	39,62
726,394	39,85
726,832	40,13
727,269	40
727,706	40,24
728,143	40,19
728,58	40,42
729,017	40,26
729,454	40,34
729,89	40,19
730,327	40,65
730,764	40,43
731,2	40,64
731,636	40,5
732,072	40,66
732,509	40,69
732,945	40,69
733,38	40,75
733,816	40,75
734,252	40,67
734,688	40,82
735,123	40,86
735,559	41,05
735,994	40,97
736,429	40,88
736,864	40,95
737,299	41,01
737,734	40,97
738,169	41,28
738,604	41,11
739,038	41,26
739,473	41,1
739,907	41,11
740,342	41,02
740,776	40,96
741,21	40,99
741,644	41,19
742,078	41,2
742,512	41,23
742,946	40,94
743,379	41,07
743,813	41,19
744,246	40,96
744,68	41,12
745,113	40,96
745,546	41,1
745,979	40,9
746,412	41,18
746,845	41,29
747,278	40,69
747,711	40,9
748,143	40,86
748,576	40,9
749,008	40,72
749,441	40,97
749,873	40,85
750,305	40,87
750,737	40,4
751,169	40,86
751,601	40,91
752,032	40,68
752,464	40,6
752,896	40,43
753,327	40,69
753,758	40,64
754,19	40,5
754,621	40,35
755,052	40,4
755,483	40,3
755,914	40,36
756,344	40,49
756,775	40,24
757,206	40,47
757,636	40,2
758,066	40,56
758,497	40,38
758,927	40,37
759,357	40,19
759,787	40,21
760,217	40,03
760,647	39,98
761,076	39,98
761,506	40,31
761,935	40,21
762,365	39,9
762,794	39,91
763,223	40,01
763,653	40,19
764,082	39,96
764,51	39,98
764,939	39,54
765,368	39,79
765,797	39,85
766,225	39,75
766,654	39,88
767,082	40,05
767,51	39,73
767,938	39,6
768,367	39,45
768,795	39,49
769,222	39,65
769,65	39,58
770,078	39,56
770,505	39,48
770,933	39,53
771,36	39,45
771,788	39,57
772,215	39,64
772,642	39,52
773,069	39,42
773,496	39,38
773,923	39,42
774,349	39,3
774,776	39,26
775,203	39,13
775,629	39,31
776,055	39,2
776,482	39,69
776,908	39,32
777,334	39,5
777,76	39,27
778,186	39,33
778,611	39,27
779,037	39,08
779,463	39,2
779,888	39,39
780,314	39,17
780,739	39,27
781,164	39,22
781,589	39,32
782,014	39,51
782,439	39,21
782,864	39,18
783,289	39,26
783,713	38,88
784,138	39,28
784,562	39,09
784,987	38,93
785,411	38,96
785,835	39,02
786,259	39,02
786,683	39,1
787,107	39,21
787,531	38,89
787,954	39,22
788,378	39,26
788,802	39,06
789,225	38,88
789,648	39,04
790,071	39,1
790,495	39,13
790,918	38,82
791,34	39,07
791,763	39,08
792,186	39,02
792,609	38,96
793,031	39,19
793,454	38,82
793,876	39,09
794,298	39
794,721	38,86
795,143	38,85
795,565	38,93
795,986	38,83
796,408	38,94
796,83	39,1
797,252	38,8
797,673	39,2
798,094	38,91
798,516	38,98
798,937	38,65
799,358	38,94
799,779	38,79
800,2	38,68
800,621	38,91
801,042	38,88
801,462	38,95
801,883	39,01
802,303	38,7
802,724	38,81
803,144	38,97
803,564	38,86
803,984	38,85
804,404	38,71
804,824	38,8
805,244	38,85
805,664	38,84
806,084	38,56
806,503	38,67
806,923	38,97
807,342	38,87
807,761	38,57
808,18	38,74
808,599	38,6
809,018	38,77
809,437	38,72
809,856	38,67
810,275	38,66
810,693	38,63
811,112	38,72
811,53	38,78
811,949	38,66
812,367	38,53
812,785	38,73
813,203	38,66
813,621	38,63
814,039	38,45
814,457	38,63
814,874	38,6
815,292	38,78
815,709	38,77
816,127	38,37
816,544	38,61
816,961	38,73
817,378	38,66
817,795	38,66
818,212	38,64
818,629	38,58
819,046	38,81
819,462	38,61
819,879	38,67
820,295	38,56
820,712	38,61
821,128	38,83
821,544	38,57
821,96	38,67
822,376	38,7
822,792	38,66
823,208	38,68
823,624	38,67
824,039	38,64
824,455	38,84
824,87	38,71
825,286	38,55
825,701	38,54
826,116	38,71
826,531	38,51
826,946	38,53
827,361	38,62
827,776	38,71
828,19	38,52
828,605	38,67
829,02	38,63
829,434	38,56
829,848	38,47
830,263	38,35
830,677	38,53
831,091	38,97
831,505	38,69
831,919	38,33
832,332	38,32
832,746	38,5
833,16	38,29
833,573	38,26
833,987	38,23
834,4	38,66
834,813	38,61
835,226	38,44
835,639	38,29
836,052	38,23
836,465	38,43
836,878	38,47
837,29	38,34
837,703	38,19
838,116	38,45
838,528	38,32
838,94	38,36
839,352	38,38
839,765	38,4
