Data from H_1__Relative__4__00170.txt Node

Date: Mon Jan 29 18:28:03 CET 2024
User: diatiterra
Spectrometer: HDX00911
Trigger mode: 0
Integration Time (sec): 6,000000E-3
Scans to average: 2
Nonlinearity correction enabled: false
Boxcar width: 0
Storing dark spectrum: false
XAxis mode: Wavelengths
Number of Pixels in Spectrum: 2068
>>>>>Begin Spectral Data<<<<<
194,468	61,76
195,025	24,78
195,581	68,09
196,138	54,62
196,694	47,7
197,251	43,11
197,807	38,8
198,363	39,27
198,919	35,23
199,474	36,07
200,03	32,72
200,586	33,33
201,141	37,08
201,696	28,37
202,251	42,44
202,806	32,71
203,361	30,18
203,916	35,27
204,471	31,69
205,025	35
205,58	31,18
206,134	30,74
206,688	34,78
207,242	35,37
207,796	29,15
208,35	25,63
208,904	34,58
209,457	36,82
210,011	27,27
210,564	35,07
211,117	35,92
211,67	36,62
212,223	28,42
212,776	36,7
213,329	31,27
213,881	26,07
214,434	33,79
214,986	35,02
215,538	37
216,09	30,82
216,642	40,37
217,194	36,42
217,746	34,34
218,297	28,19
218,849	38,63
219,4	30,77
219,951	38,91
220,502	32,75
221,053	30,72
221,604	35,57
222,155	40,74
222,705	33,78
223,256	34,17
223,806	42,18
224,356	38,04
224,906	32,59
225,456	29,66
226,006	29,53
226,556	27,37
227,106	25,52
227,655	38,33
228,204	31,25
228,754	38,62
229,303	32,54
229,852	35,29
230,401	35,13
230,949	42,8
231,498	44,78
232,047	35,02
232,595	32,98
233,143	41,29
233,691	35,2
234,239	30,97
234,787	38,46
235,335	34,01
235,883	35,48
236,43	33,33
236,978	34,18
237,525	34,7
238,072	32,1
238,619	32,53
239,166	42,42
239,713	41,64
240,26	34,46
240,806	39,01
241,353	42,05
241,899	31,07
242,445	36,36
242,991	34,15
243,537	34,65
244,083	35,27
244,629	44,59
245,174	36,19
245,72	35,12
246,265	34,28
246,81	40,51
247,355	34,93
247,9	30,1
248,445	41,03
248,99	37,37
249,534	38,92
250,079	39,55
250,623	37,63
251,168	32,55
251,712	43,97
252,256	37,21
252,8	38,54
253,343	43,31
253,887	36,05
254,43	42,01
254,974	39,51
255,517	43,29
256,06	36,3
256,603	41,89
257,146	37,04
257,689	33,54
258,232	33,72
258,774	40,96
259,317	34,8
259,859	34,32
260,401	31,44
260,943	38,81
261,485	35,11
262,027	35,17
262,569	34,21
263,11	34,3
263,652	35,66
264,193	34,29
264,734	40,48
265,275	37,35
265,816	36,69
266,357	37,41
266,898	39,59
267,438	37,25
267,979	34,91
268,519	41,52
269,059	38,65
269,6	42,46
270,14	32,34
270,68	36,4
271,219	44,91
271,759	41,04
272,298	36,73
272,838	38,76
273,377	37,04
273,916	35,02
274,455	39,08
274,994	35,97
275,533	35,84
276,072	33,08
276,61	35,84
277,149	22,83
277,687	37,72
278,225	36,99
278,763	36,59
279,301	33,21
279,839	33,7
280,377	36,86
280,914	38,1
281,452	46,34
281,989	38,57
282,526	41,58
283,064	38,19
283,601	39,77
284,137	37,59
284,674	39,25
285,211	33,45
285,747	40
286,284	36,49
286,82	31,56
287,356	34,71
287,892	36,84
288,428	33,22
288,964	38,27
289,5	43,54
290,035	30,58
290,571	33,58
291,106	32,36
291,641	32,95
292,176	44,36
292,711	39,66
293,246	34,3
293,781	34,57
294,315	39,34
294,85	33,94
295,384	38,15
295,918	27,87
296,453	36,4
296,987	38,62
297,52	35,96
298,054	36,4
298,588	46,46
299,121	38,1
299,655	37,89
300,188	41,44
300,721	39,66
301,254	37,01
301,787	28,86
302,32	44,7
302,853	30,66
303,385	40,66
303,918	35,09
304,45	39,38
304,982	35,06
305,514	41,33
306,046	37,89
306,578	37,5
307,11	37,55
307,641	40
308,173	33,83
308,704	39,08
309,236	34,08
309,767	35
310,298	34,15
310,829	48,67
311,359	36,65
311,89	40,57
312,421	40,94
312,951	42,18
313,481	39,36
314,012	41,76
314,542	38,01
315,072	34,91
315,601	37,72
316,131	32,12
316,661	40,42
317,19	35,94
317,72	43,59
318,249	36,15
318,778	39,16
319,307	40,2
319,836	39,93
320,365	42,02
320,893	34,75
321,422	42,54
321,95	43,7
322,479	43,6
323,007	37,32
323,535	46,42
324,063	43,28
324,591	34
325,118	32,87
325,646	39,62
326,173	44,64
326,701	39,64
327,228	37,7
327,755	35,48
328,282	35,09
328,809	40,74
329,336	38,06
329,862	40,77
330,389	37,2
330,915	33,69
331,441	39,66
331,968	38,14
332,494	33,44
333,02	32,12
333,545	33,57
334,071	34,33
334,597	39,86
335,122	34,45
335,648	39,19
336,173	41,91
336,698	37,33
337,223	41,64
337,748	30,53
338,272	29,04
338,797	41,42
339,322	27,57
339,846	30,47
340,37	29,67
340,894	38,36
341,419	38,26
341,942	35,57
342,466	33,11
342,99	26,77
343,514	22,08
344,037	29,18
344,56	32,6
345,084	29,65
345,607	32,83
346,13	29,54
346,653	26,1
347,175	38,71
347,698	29,76
348,221	31,4
348,743	27,41
349,265	30,36
349,787	29,71
350,309	25,34
350,831	25,97
351,353	33,6
351,875	30,9
352,397	35,26
352,918	31,92
353,439	32,25
353,961	29,01
354,482	28,65
355,003	34,58
355,524	31,38
356,044	26,12
356,565	30,42
357,086	28,75
357,606	27,23
358,126	29,93
358,646	27,86
359,167	29,48
359,687	33,96
360,206	25,78
360,726	21,97
361,246	31,81
361,765	27,19
362,285	28,91
362,804	28
363,323	23,17
363,842	28,81
364,361	28,14
364,88	28,27
365,398	22,74
365,917	28,13
366,435	27,9
366,954	29,26
367,472	31,98
367,99	27,93
368,508	32,23
369,026	25,39
369,544	25,09
370,061	28,82
370,579	27,95
371,096	22,81
371,613	24,59
372,131	25,88
372,648	27,62
373,165	27,73
373,681	26,44
374,198	26,39
374,715	26,22
375,231	23,85
375,747	25,45
376,264	24,12
376,78	26,79
377,296	25
377,812	23
378,327	23,85
378,843	26,59
379,359	22,9
379,874	24,86
380,389	25,17
380,905	26,26
381,42	21,8
381,935	24,67
382,449	24,52
382,964	24,12
383,479	24,39
383,993	23,92
384,508	25,29
385,022	25,2
385,536	20,69
386,05	22,19
386,564	21,2
387,078	21,36
387,592	22,19
388,105	19,17
388,619	21,53
389,132	20,53
389,645	23,65
390,158	20,03
390,671	21,67
391,184	18,66
391,697	19,51
392,21	19,82
392,722	20,29
393,235	19,64
393,747	19,76
394,259	17,55
394,771	19,64
395,283	17,75
395,795	17,39
396,307	16,19
396,818	19,36
397,33	15,99
397,841	18,29
398,353	15,95
398,864	17,69
399,375	15,33
399,886	14,95
400,397	16,32
400,907	16,89
401,418	13,82
401,928	15,52
402,439	15,7
402,949	13,42
403,459	16,04
403,969	15,56
404,479	14,03
404,989	13,54
405,498	13,03
406,008	11,71
406,517	11,67
407,027	12,36
407,536	11,75
408,045	11,09
408,554	10,99
409,063	11,37
409,572	10,64
410,08	10,53
410,589	9,45
411,097	9,64
411,606	9,15
412,114	9,04
412,622	8,38
413,13	8,61
413,638	7,87
414,145	7,59
414,653	7,34
415,16	6,99
415,668	7,37
416,175	7,35
416,682	7,18
417,189	6,95
417,696	6,9
418,203	7,07
418,71	5,86
419,216	6,96
419,723	6,69
420,229	6,81
420,735	6,41
421,242	6,66
421,748	6,72
422,254	6,55
422,759	5,93
423,265	6,42
423,771	6,1
424,276	6,08
424,781	6,02
425,287	6,02
425,792	6,34
426,297	5,98
426,802	5,9
427,306	5,89
427,811	6,17
428,316	6,27
428,82	5,78
429,324	6,07
429,829	6,03
430,333	5,29
430,837	5,46
431,34	5,74
431,844	5,65
432,348	5,36
432,851	5,69
433,355	5,3
433,858	5,52
434,361	5,21
434,864	5,2
435,367	5,36
435,87	5,61
436,373	5,47
436,876	5,35
437,378	5,26
437,88	5,35
438,383	5,18
438,885	5,5
439,387	4,95
439,889	5,2
440,391	5,48
440,892	5,06
441,394	5,26
441,896	5,16
442,397	5,13
442,898	5,09
443,399	5,13
443,9	5,45
444,401	5,34
444,902	5,45
445,403	5,15
445,903	5,27
446,404	5,59
446,904	5,26
447,405	5,54
447,905	5,47
448,405	5,14
448,905	5,28
449,404	5,28
449,904	5,5
450,404	5
450,903	5,4
451,403	5,35
451,902	5,52
452,401	5,54
452,9	5,22
453,399	5,7
453,898	5,37
454,396	5,61
454,895	5,55
455,393	5,54
455,892	5,37
456,39	5,75
456,888	5,45
457,386	5,32
457,884	5,7
458,382	5,68
458,879	5,36
459,377	5,63
459,874	5,51
460,372	5,52
460,869	5,62
461,366	5,63
461,863	5,97
462,36	5,58
462,857	5,61
463,353	5,7
463,85	5,8
464,346	5,32
464,843	5,7
465,339	5,56
465,835	5,29
466,331	5,55
466,827	5,53
467,323	5,37
467,818	5,64
468,314	5,55
468,809	5,52
469,305	5,19
469,8	5,58
470,295	5,8
470,79	5,57
471,285	5,35
471,78	5,58
472,274	5,58
472,769	5,48
473,263	5,71
473,758	5,67
474,252	5,25
474,746	5,58
475,24	5,62
475,734	5,56
476,228	5,5
476,721	5,65
477,215	5,61
477,708	5,75
478,202	5,87
478,695	5,34
479,188	5,57
479,681	5,55
480,174	5,71
480,667	5,52
481,159	5,53
481,652	5,5
482,144	5,52
482,637	5,8
483,129	5,84
483,621	5,5
484,113	5,82
484,605	5,54
485,097	5,58
485,588	5,67
486,08	5,98
486,571	5,96
487,063	5,99
487,554	5,68
488,045	5,77
488,536	5,7
489,027	5,92
489,518	5,84
490,008	5,84
490,499	5,85
490,989	5,97
491,48	6,02
491,97	6,08
492,46	5,79
492,95	6,05
493,44	6,21
493,93	6,1
494,419	6,16
494,909	6,38
495,398	6,13
495,888	6,59
496,377	6,52
496,866	6,58
497,355	6,61
497,844	6,57
498,333	6,37
498,821	6,56
499,31	6,6
499,798	6,88
500,287	6,93
500,775	6,99
501,263	7,11
501,751	6,98
502,239	7,29
502,727	7,36
503,215	7,56
503,702	7,45
504,19	7,68
504,677	7,75
505,164	7,58
505,651	7,69
506,139	8,01
506,625	8,17
507,112	8,05
507,599	8,26
508,086	8,42
508,572	8,32
509,058	8,87
509,545	8,83
510,031	9,31
510,517	9,18
511,003	9,3
511,489	9,68
511,974	9,73
512,46	9,89
512,946	10,17
513,431	10,07
513,916	10,42
514,401	10,69
514,887	10,55
515,371	10,9
515,856	11,3
516,341	11,65
516,826	11,68
517,31	12
517,795	11,95
518,279	12,12
518,763	12,75
519,247	12,53
519,731	12,97
520,215	13,12
520,699	13,36
521,182	13,56
521,666	14,06
522,149	14,01
522,633	14,2
523,116	14,5
523,599	14,56
524,082	15,04
524,565	15,13
525,048	15,2
525,53	15,53
526,013	15,58
526,495	15,81
526,978	16,05
527,46	16,51
527,942	16,39
528,424	16,66
528,906	16,62
529,388	16,86
529,87	17,24
530,351	17,45
530,833	17,53
531,314	17,5
531,795	17,44
532,277	18,01
532,758	17,75
533,238	17,99
533,719	18,13
534,2	18,16
534,681	18,29
535,161	18,39
535,642	18,39
536,122	18,34
536,602	18,46
537,082	18,74
537,562	18,55
538,042	18,56
538,522	18,86
539,001	18,79
539,481	18,61
539,96	18,77
540,44	19,13
540,919	18,87
541,398	18,87
541,877	19,3
542,356	18,87
542,835	19,08
543,313	19,16
543,792	19,18
544,27	19,23
544,749	19,29
545,227	19
545,705	19,24
546,183	19,29
546,661	19,27
547,139	19,33
547,616	19,24
548,094	19,35
548,571	19,45
549,049	19,62
549,526	19,36
550,003	19,5
550,48	19,35
550,957	19,51
551,434	19,61
551,911	19,63
552,387	19,32
552,864	19,6
553,34	19,43
553,817	19,71
554,293	19,28
554,769	19,58
555,245	19,67
555,721	19,62
556,197	19,48
556,672	19,74
557,148	19,53
557,623	19,45
558,099	19,43
558,574	19,4
559,049	19,52
559,524	19,28
559,999	19,16
560,474	19,12
560,948	19,39
561,423	19,23
561,897	19,1
562,372	19,25
562,846	18,83
563,32	19,02
563,794	18,82
564,268	18,68
564,742	18,66
565,216	18,71
565,69	18,39
566,163	18,37
566,636	18,24
567,11	17,96
567,583	18,11
568,056	18,16
568,529	17,79
569,002	17,52
569,475	17,76
569,947	17,65
570,42	17,12
570,892	17,17
571,365	17,15
571,837	17,16
572,309	16,97
572,781	16,81
573,253	16,44
573,725	16,43
574,197	16,55
574,668	16,2
575,14	16,11
575,611	16,13
576,082	15,95
576,554	16,07
577,025	15,8
577,496	15,64
577,967	15,62
578,437	15,5
578,908	15,35
579,379	15,12
579,849	15,21
580,319	15,1
580,79	14,86
581,26	14,83
581,73	14,84
582,2	14,94
582,669	14,59
583,139	14,54
583,609	14,4
584,078	14,48
584,548	14,22
585,017	14,24
585,486	14,18
585,955	14,36
586,424	13,92
586,893	13,93
587,362	13,9
587,83	13,83
588,299	13,8
588,767	13,84
589,236	13,66
589,704	13,77
590,172	13,57
590,64	13,47
591,108	13,44
591,576	13,53
592,043	13,18
592,511	13,21
592,978	13,1
593,446	13,11
593,913	13,22
594,38	13,24
594,847	13,07
595,314	13,26
595,781	12,96
596,248	13,01
596,715	12,89
597,181	13,04
597,647	13,17
598,114	13,03
598,58	12,79
599,046	12,85
599,512	12,97
599,978	12,8
600,444	13,02
600,91	12,79
601,375	12,79
601,841	12,69
602,306	12,84
602,771	12,8
603,236	12,76
603,702	12,78
604,167	12,49
604,631	12,62
605,096	12,5
605,561	12,53
606,025	12,42
606,49	12,38
606,954	12,31
607,418	12,29
607,882	12,23
608,347	11,99
608,81	12,04
609,274	11,99
609,738	12
610,202	11,95
610,665	11,87
611,128	11,72
611,592	11,83
612,055	11,57
612,518	11,62
612,981	11,38
613,444	11,52
613,907	11,48
614,369	11,36
614,832	11,31
615,294	11,13
615,757	11,14
616,219	11,12
616,681	11,02
617,143	10,97
617,605	10,75
618,067	10,77
618,529	10,77
618,99	10,75
619,452	10,74
619,913	10,74
620,375	10,65
620,836	10,46
621,297	10,57
621,758	10,45
622,219	10,35
622,68	10,37
623,14	10,52
623,601	10,31
624,061	10,36
624,522	10,29
624,982	10,34
625,442	10,25
625,902	10,24
626,362	10,3
626,822	10,21
627,282	10,21
627,742	10,23
628,201	9,96
628,661	10,17
629,12	10,06
629,579	9,92
630,038	10,07
630,497	10,09
630,956	10,18
631,415	9,94
631,874	10,04
632,332	9,87
632,791	9,89
633,249	9,84
633,708	9,85
634,166	9,89
634,624	9,86
635,082	9,93
635,54	9,62
635,998	9,66
636,455	9,67
636,913	9,55
637,37	9,55
637,828	9,45
638,285	9,41
638,742	9,28
639,199	9,25
639,656	9,23
640,113	9,07
640,57	8,94
641,027	9,02
641,483	8,9
641,94	8,76
642,396	8,74
642,852	8,48
643,309	8,54
643,765	8,37
644,221	8,16
644,676	8,3
645,132	8,07
645,588	8,1
646,043	8
646,499	7,76
646,954	7,79
647,409	7,61
647,864	7,64
648,319	7,55
648,774	7,45
649,229	7,46
649,684	7,41
650,139	7,28
650,593	7,31
651,047	7,24
651,502	7,3
651,956	7,1
652,41	7,14
652,864	7,13
653,318	7,06
653,772	7,13
654,225	7,04
654,679	7,16
655,133	7,03
655,586	6,91
656,039	6,94
656,492	6,81
656,946	6,78
657,399	6,88
657,851	6,76
658,304	6,66
658,757	6,63
659,209	6,61
659,662	6,58
660,114	6,39
660,567	6,42
661,019	6,49
661,471	6,35
661,923	6,16
662,375	6,19
662,826	6,2
663,278	6,04
663,73	6,1
664,181	6,01
664,632	5,94
665,084	5,83
665,535	5,88
665,986	5,92
666,437	5,94
666,888	5,86
667,338	5,78
667,789	5,93
668,24	5,77
668,69	5,91
669,14	5,88
669,591	5,93
670,041	5,8
670,491	5,9
670,941	5,84
671,391	5,81
671,84	5,91
672,29	5,99
672,74	5,96
673,189	6,06
673,638	6,18
674,088	6,08
674,537	6,06
674,986	6,16
675,435	6,17
675,883	6,27
676,332	6,3
676,781	6,37
677,229	6,45
677,678	6,52
678,126	6,53
678,574	6,64
679,022	6,75
679,47	6,78
679,918	6,82
680,366	6,92
680,814	7
681,261	7,1
681,709	7,18
682,156	7,19
682,604	7,31
683,051	7,42
683,498	7,46
683,945	7,64
684,392	7,62
684,839	7,79
685,286	7,92
685,732	7,92
686,179	8,03
686,625	8,21
687,071	8,35
687,518	8,42
687,964	8,53
688,41	8,77
688,856	8,94
689,301	9,16
689,747	9,38
690,193	9,71
690,638	9,82
691,084	10,03
691,529	10,31
691,974	10,71
692,419	10,86
692,864	11,22
693,309	11,54
693,754	11,85
694,199	12,27
694,643	12,53
695,088	12,9
695,532	13,37
695,977	13,72
696,421	14,08
696,865	14,31
697,309	14,88
697,753	15,29
698,197	15,51
698,64	15,93
699,084	16,24
699,527	16,57
699,971	17,11
700,414	17,54
700,857	17,82
701,3	18,04
701,743	18,34
702,186	18,95
702,629	19,35
703,072	19,42
703,515	19,9
703,957	20,21
704,399	20,57
704,842	20,72
705,284	21,14
705,726	21,44
706,168	21,67
706,61	22,03
707,052	22,35
707,494	22,57
707,935	22,88
708,377	23,33
708,818	23,49
709,26	23,79
709,701	23,99
710,142	24,3
710,583	24,23
711,024	24,82
711,465	24,88
711,905	25,26
712,346	25,42
712,787	25,83
713,227	25,76
713,667	26,31
714,108	26,53
714,548	26,69
714,988	26,79
715,428	26,93
715,868	27,2
716,307	27,58
716,747	27,69
717,186	27,9
717,626	28,14
718,065	28,13
718,504	28,34
718,944	28,61
719,383	28,69
719,822	28,85
720,261	29,25
720,699	29,22
721,138	29,45
721,576	29,64
722,015	29,84
722,453	30,06
722,892	30,24
723,33	29,95
723,768	30,3
724,206	30,37
724,644	30,68
725,081	30,79
725,519	30,8
725,957	30,84
726,394	31,18
726,832	31,27
727,269	31,22
727,706	31,45
728,143	31,25
728,58	31,39
729,017	31,86
729,454	31,7
729,89	31,61
730,327	31,96
730,764	31,8
731,2	32,04
731,636	32,01
732,072	31,89
732,509	32,24
732,945	32,36
733,38	32,7
733,816	32,23
734,252	32,38
734,688	32,27
735,123	32,46
735,559	32,56
735,994	32,5
736,429	32,65
736,864	32,61
737,299	32,79
737,734	32,91
738,169	32,76
738,604	32,84
739,038	32,7
739,473	32,93
739,907	32,82
740,342	32,84
740,776	32,84
741,21	32,83
741,644	33,02
742,078	32,91
742,512	33,01
742,946	32,7
743,379	32,77
743,813	32,87
744,246	33,01
744,68	32,9
745,113	32,81
745,546	32,86
745,979	32,8
746,412	32,85
746,845	32,75
747,278	32,75
747,711	32,85
748,143	32,66
748,576	32,75
749,008	32,82
749,441	32,88
749,873	32,67
750,305	32,68
750,737	32,64
751,169	32,64
751,601	32,67
752,032	32,61
752,464	32,49
752,896	32,55
753,327	32,44
753,758	32,54
754,19	32,48
754,621	32,59
755,052	32,42
755,483	32,48
755,914	32,53
756,344	32,26
756,775	32,7
757,206	32,43
757,636	32,42
758,066	32,35
758,497	32,34
758,927	32,17
759,357	32,33
759,787	32,04
760,217	32,12
760,647	32,05
761,076	32,14
761,506	32,01
761,935	32,17
762,365	31,87
762,794	31,98
763,223	31,91
763,653	32,11
764,082	31,79
764,51	32,02
764,939	31,79
765,368	31,95
765,797	31,96
766,225	32,07
766,654	32,01
767,082	31,94
767,51	31,51
767,938	31,89
768,367	31,45
768,795	31,54
769,222	31,96
769,65	31,54
770,078	31,53
770,505	31,69
770,933	31,71
771,36	31,43
771,788	31,65
772,215	31,82
772,642	31,69
773,069	31,52
773,496	31,29
773,923	31,56
774,349	31,56
774,776	31,39
775,203	31,18
775,629	31,63
776,055	31,16
776,482	31,64
776,908	31,44
777,334	31,41
777,76	31,45
778,186	31,4
778,611	31,38
779,037	31,4
779,463	31,41
779,888	31,29
780,314	31,25
780,739	31,35
781,164	31,23
781,589	31,3
782,014	31,41
782,439	31,31
782,864	31,18
783,289	31,13
783,713	31,3
784,138	31,13
784,562	31,46
784,987	30,93
785,411	31,04
785,835	31,19
786,259	31,07
786,683	31,13
787,107	31,15
787,531	30,99
787,954	31,12
788,378	31,21
788,802	30,95
789,225	30,89
789,648	31,23
790,071	31,11
790,495	31,05
790,918	30,87
791,34	31,02
791,763	31,01
792,186	30,94
792,609	31,1
793,031	31,2
793,454	31,1
793,876	30,88
794,298	31,03
794,721	30,95
795,143	31,06
795,565	30,84
795,986	31,03
796,408	31,01
796,83	31,05
797,252	30,76
797,673	30,94
798,094	30,94
798,516	31,01
798,937	30,77
799,358	30,9
799,779	31,03
800,2	30,9
800,621	30,87
801,042	31,07
801,462	30,8
801,883	30,88
802,303	30,91
802,724	30,78
803,144	30,77
803,564	30,96
803,984	30,8
804,404	30,87
804,824	30,94
805,244	30,84
805,664	31,02
806,084	30,74
806,503	31,04
806,923	30,68
807,342	30,89
807,761	30,63
808,18	30,61
808,599	30,81
809,018	30,65
809,437	30,96
809,856	30,66
810,275	30,75
810,693	30,72
811,112	30,92
811,53	30,86
811,949	30,78
812,367	30,63
812,785	30,75
813,203	30,69
813,621	30,73
814,039	30,75
814,457	30,66
814,874	30,79
815,292	30,81
815,709	30,63
816,127	30,41
816,544	30,77
816,961	30,65
817,378	30,67
817,795	30,56
818,212	30,81
818,629	30,76
819,046	30,96
819,462	30,66
819,879	30,68
820,295	30,59
820,712	30,73
821,128	30,71
821,544	30,62
821,96	30,73
822,376	30,64
822,792	30,67
823,208	30,66
823,624	30,63
824,039	30,68
824,455	30,68
824,87	30,67
825,286	30,65
825,701	30,48
826,116	30,85
826,531	30,64
826,946	30,62
827,361	30,44
827,776	30,68
828,19	30,67
828,605	30,6
829,02	30,51
829,434	30,38
829,848	30,44
830,263	30,67
830,677	30,81
831,091	30,7
831,505	30,76
831,919	30,61
832,332	30,5
832,746	30,48
833,16	30,53
833,573	30,48
833,987	30,35
834,4	30,42
834,813	30,55
835,226	30,63
835,639	30,36
836,052	30,51
836,465	30,3
836,878	30,53
837,29	30,48
837,703	30,57
838,116	30,47
838,528	30,53
838,94	30,41
839,352	30,33
839,765	30,26
840,177	30,59
840,589	30,3
841	30,27
841,412	30,46
841,824	30,35
842,235	30,63
842,647	30,44
843,058	30,45
843,47	30,58
