Data from I_2__Relative__1__00177.txt Node

Date: Mon Jan 29 18:29:21 CET 2024
User: diatiterra
Spectrometer: HDX00911
Trigger mode: 0
Integration Time (sec): 6,000000E-3
Scans to average: 2
Nonlinearity correction enabled: false
Boxcar width: 0
Storing dark spectrum: false
XAxis mode: Wavelengths
Number of Pixels in Spectrum: 2068
>>>>>Begin Spectral Data<<<<<
194,468	91,18
195,025	62,83
195,581	110,64
196,138	72,31
196,694	72,99
197,251	58,67
197,807	66,4
198,363	48
198,919	59,43
199,474	61,07
200,03	56,99
200,586	51,7
201,141	62,92
201,696	54,33
202,251	60,52
202,806	71,05
203,361	57,89
203,916	62,33
204,471	55,99
205,025	55
205,58	49,1
206,134	62,96
206,688	55,8
207,242	54,76
207,796	54,58
208,35	57,04
208,904	60
209,457	54,15
210,011	57,69
210,564	51,04
211,117	58,45
211,67	55,63
212,223	54,79
212,776	65,17
213,329	51,89
213,881	54,29
214,434	53,1
214,986	57,58
215,538	57,51
216,09	56,39
216,642	60,37
217,194	57,95
217,746	56,9
218,297	54,03
218,849	47,66
219,4	59,09
219,951	62,18
220,502	59,93
221,053	55,49
221,604	63,76
222,155	65,02
222,705	55,85
223,256	54,32
223,806	57,82
224,356	57,25
224,906	57,04
225,456	58,97
226,006	48,99
226,556	62,41
227,106	52,8
227,655	56,45
228,204	51,97
228,754	51,03
229,303	56,61
229,852	55,56
230,401	54,84
230,949	69,65
231,498	61,57
232,047	56,57
232,595	54,96
233,143	67,05
233,691	59,2
234,239	58,58
234,787	54,55
235,335	54,42
235,883	58,42
236,43	60
236,978	58,91
237,525	65,3
238,072	53,14
238,619	50,68
239,166	55,22
239,713	55,39
240,26	57,68
240,806	50
241,353	55,12
241,899	53,4
242,445	64,34
242,991	54,36
243,537	57,43
244,083	56,73
244,629	59,46
245,174	64,93
245,72	61,2
246,265	57,95
246,81	61,31
247,355	56,62
247,9	55,02
248,445	66,9
248,99	55,02
249,534	55,7
250,079	57,46
250,623	52,2
251,168	58,39
251,712	64,54
252,256	55,81
252,8	66,32
253,343	59,55
253,887	57,48
254,43	74,72
254,974	59,44
255,517	57,38
256,06	56,85
256,603	67,17
257,146	63,3
257,689	58,23
258,232	58,24
258,774	61,62
259,317	61,17
259,859	58,67
260,401	56,44
260,943	60,82
261,485	64,89
262,027	63,45
262,569	59,4
263,11	59,21
263,652	58,46
264,193	52,14
264,734	68,65
265,275	61,04
265,816	60,07
266,357	56,47
266,898	61,43
267,438	62,75
267,979	59,27
268,519	57,76
269,059	54,26
269,6	56,14
270,14	52,48
270,68	63,22
271,219	60,35
271,759	62,69
272,298	56
272,838	54,65
273,377	59,63
273,916	56,68
274,455	58,24
274,994	55,04
275,533	47,44
276,072	52,63
276,61	57,34
277,149	52,9
277,687	61,57
278,225	53,08
278,763	50,72
279,301	56,23
279,839	59,42
280,377	54,38
280,914	49,82
281,452	68,7
281,989	58,36
282,526	53,76
283,064	54,86
283,601	56,06
284,137	52,55
284,674	54,72
285,211	46,76
285,747	54,58
286,284	54,39
286,82	56,03
287,356	52,58
287,892	58,95
288,428	47,46
288,964	61,73
289,5	51,7
290,035	51,8
290,571	58,58
291,106	58,55
291,641	58,24
292,176	55,64
292,711	54,83
293,246	59,21
293,781	55,02
294,315	58,46
294,85	60,22
295,384	64,81
295,918	51,57
296,453	55,48
296,987	57,59
297,52	54,11
298,054	59,56
298,588	61,42
299,121	48,35
299,655	60,7
300,188	65,78
300,721	55,52
301,254	59,43
301,787	63,82
302,32	65,91
302,853	52,26
303,385	61,17
303,918	52,63
304,45	56,37
304,982	59,76
305,514	54,24
306,046	49,82
306,578	51,79
307,11	59,48
307,641	56,36
308,173	57,25
308,704	63,22
309,236	53,56
309,767	62,5
310,298	54,01
310,829	61,6
311,359	60,14
311,89	55,87
312,421	52,17
312,951	58,18
313,481	61,04
314,012	53,85
314,542	61,3
315,072	49,45
315,601	60,14
316,131	46,72
316,661	62,08
317,19	53,38
317,72	65,2
318,249	50
318,778	62,74
319,307	58,78
319,836	58,72
320,365	54,72
320,893	52,84
321,422	58,96
321,95	53,7
322,479	65,4
323,007	59,42
323,535	55,85
324,063	57,09
324,591	52,33
325,118	52,45
325,646	57,69
326,173	62,14
326,701	54,18
327,228	54,31
327,755	55,91
328,282	55,85
328,809	51,48
329,336	50,52
329,862	58,46
330,389	54,61
330,915	60,64
331,441	50,17
331,968	51,89
332,494	45,82
333,02	52,92
333,545	51,62
334,071	54,67
334,597	49,32
335,122	48,83
335,648	61,17
336,173	56,44
336,698	57,19
337,223	55,63
337,748	51,58
338,272	52,15
338,797	55,02
339,322	44,19
339,846	53,52
340,37	49,08
340,894	52,74
341,419	54,03
341,942	54,36
342,466	49,49
342,99	44,62
343,514	43,18
344,037	45,57
344,56	42,95
345,084	47,32
345,607	50,76
346,13	48,92
346,653	44,65
347,175	54,19
347,698	43,45
348,221	43,31
348,743	44,02
349,265	44,64
349,787	48,57
350,309	47,11
350,831	42,39
351,353	44,18
351,875	46,35
352,397	46,01
352,918	47,18
353,439	48,78
353,961	47,32
354,482	47,19
355,003	46,92
355,524	47,45
356,044	36,94
356,565	39,15
357,086	42,24
357,606	43,13
358,126	45,01
358,646	43,78
359,167	52,09
359,687	41,75
360,206	45,06
360,726	35,77
361,246	50,12
361,765	42,32
362,285	43,36
362,804	41,56
363,323	38,76
363,842	47,14
364,361	46,1
364,88	45,99
365,398	40,62
365,917	40,86
366,435	41,2
366,954	41,28
367,472	39,45
367,99	40,45
368,508	43,95
369,026	40,5
369,544	37,64
370,061	40,6
370,579	39,21
371,096	36,86
371,613	42,2
372,131	40,32
372,648	42,06
373,165	41,25
373,681	39,93
374,198	39,51
374,715	43,4
375,231	40,06
375,747	42,15
376,264	41,69
376,78	39,87
377,296	39,56
377,812	35,61
378,327	35,41
378,843	41,21
379,359	36,52
379,874	36,2
380,389	40,3
380,905	37,8
381,42	36,55
381,935	36
382,449	37,23
382,964	37,15
383,479	37,8
383,993	35,94
384,508	34,54
385,022	36,06
385,536	35,01
386,05	32,89
386,564	36,73
387,078	33,19
387,592	37,71
388,105	32,65
388,619	31,66
389,132	34,6
389,645	35,57
390,158	29,48
390,671	32,46
391,184	29,34
391,697	33,07
392,21	33,28
392,722	28,65
393,235	31,01
393,747	29,17
394,259	30,6
394,771	29,13
395,283	27,07
395,795	29,89
396,307	27,34
396,818	26,93
397,33	26,42
397,841	28
398,353	27,39
398,864	27,01
399,375	26,87
399,886	24,4
400,397	25,2
400,907	26,13
401,418	23,56
401,928	22,59
402,439	24,53
402,949	23,61
403,459	22,01
403,969	24,51
404,479	24,16
404,989	22,14
405,498	20,42
406,008	19,93
406,517	19,71
407,027	19,25
407,536	18,28
408,045	18,57
408,554	16,87
409,063	17,46
409,572	16,7
410,08	16,57
410,589	15,82
411,097	15,45
411,606	15,23
412,114	14,65
412,622	14,72
413,13	13,14
413,638	12,49
414,145	13,7
414,653	12,09
415,16	12,27
415,668	11,96
416,175	12,48
416,682	12,11
417,189	11,53
417,696	11,62
418,203	11
418,71	10,65
419,216	11,07
419,723	10,81
420,229	10,18
420,735	10,3
421,242	10,03
421,748	10,66
422,254	10,01
422,759	10,6
423,265	10,2
423,771	10
424,276	9,98
424,781	10,04
425,287	9,6
425,792	9,51
426,297	9,51
426,802	9,47
427,306	9,34
427,811	9,26
428,316	9,64
428,82	9,13
429,324	9,2
429,829	9,03
430,333	9,36
430,837	9,26
431,34	9,15
431,844	8,34
432,348	8,81
432,851	8,8
433,355	8,81
433,858	8,65
434,361	9,13
434,864	8,81
435,367	8,61
435,87	9,12
436,373	8,57
436,876	8,77
437,378	8,79
437,88	8,84
438,383	8,23
438,885	8,76
439,387	8,65
439,889	8,31
440,391	8,57
440,892	8,44
441,394	8,51
441,896	8,52
442,397	8,16
442,898	8,37
443,399	8,95
443,9	8,93
444,401	8,76
444,902	8,53
445,403	8,55
445,903	8,55
446,404	8,87
446,904	8,82
447,405	8,57
447,905	8,66
448,405	8,25
448,905	8,82
449,404	8,68
449,904	8,82
450,404	8,75
450,903	8,68
451,403	8,78
451,902	8,99
452,401	8,74
452,9	8,9
453,399	8,83
453,898	8,89
454,396	8,82
454,895	9,06
455,393	8,92
455,892	9,01
456,39	9,01
456,888	8,64
457,386	8,76
457,884	9,44
458,382	9,22
458,879	9,03
459,377	8,68
459,874	9,05
460,372	8,67
460,869	9,1
461,366	9,27
461,863	8,98
462,36	9,02
462,857	8,85
463,353	9,05
463,85	9,13
464,346	8,91
464,843	9,02
465,339	8,73
465,835	8,97
466,331	8,98
466,827	8,83
467,323	8,88
467,818	8,8
468,314	9,1
468,809	9,04
469,305	9,03
469,8	9,01
470,295	8,8
470,79	8,94
471,285	8,75
471,78	8,86
472,274	9,13
472,769	9,51
473,263	8,76
473,758	8,89
474,252	8,95
474,746	8,93
475,24	8,89
475,734	8,85
476,228	9,11
476,721	8,92
477,215	9,02
477,708	9,14
478,202	9,21
478,695	8,79
479,188	9,06
479,681	9,13
480,174	9,16
480,667	9,24
481,159	9,19
481,652	9,42
482,144	9,05
482,637	9
483,129	9,32
483,621	8,97
484,113	9,51
484,605	9,28
485,097	9,45
485,588	9,46
486,08	9,58
486,571	9,3
487,063	9,41
487,554	9,51
488,045	9,25
488,536	9,35
489,027	9,38
489,518	9,54
490,008	9,61
490,499	9,49
490,989	9,45
491,48	9,68
491,97	9,63
492,46	9,53
492,95	9,62
493,44	9,66
493,93	9,88
494,419	9,76
494,909	10,2
495,398	9,84
495,888	10,1
496,377	9,93
496,866	10,26
497,355	10,06
497,844	10,47
498,333	10,15
498,821	10,22
499,31	10,64
499,798	10,58
500,287	10,37
500,775	10,81
501,263	10,61
501,751	11,11
502,239	11,16
502,727	11,19
503,215	11,36
503,702	11,44
504,19	11,54
504,677	11,73
505,164	11,79
505,651	12,08
506,139	12,02
506,625	12,29
507,112	12,34
507,599	12,75
508,086	12,64
508,572	12,79
509,058	13,08
509,545	13,25
510,031	13,69
510,517	13,66
511,003	13,8
511,489	14,15
511,974	14,33
512,46	14,59
512,946	15,16
513,431	15,07
513,916	15,54
514,401	15,44
514,887	16,21
515,371	16,32
515,856	16,19
516,341	16,66
516,826	17,33
517,31	17,3
517,795	17,69
518,279	17,87
518,763	18,47
519,247	18,22
519,731	19,09
520,215	19,41
520,699	20,04
521,182	19,99
521,666	20,52
522,149	20,32
522,633	21,11
523,116	21,17
523,599	21,47
524,082	21,78
524,565	22,08
525,048	22,09
525,53	22,77
526,013	23,01
526,495	23,55
526,978	23,7
527,46	24,28
527,942	24,5
528,424	24,73
528,906	24,81
529,388	25,1
529,87	25,08
530,351	25,01
530,833	25,71
531,314	25,78
531,795	26,17
532,277	26,05
532,758	26,29
533,238	26,59
533,719	26,69
534,2	26,88
534,681	27,23
535,161	27,38
535,642	26,94
536,122	27,11
536,602	27,66
537,082	27,6
537,562	28,32
538,042	27,63
538,522	28,09
539,001	27,9
539,481	27,81
539,96	28,19
540,44	27,89
540,919	27,94
541,398	27,54
541,877	27,96
542,356	28,15
542,835	28,34
543,313	28,32
543,792	28,26
544,27	28,07
544,749	28,7
545,227	28,45
545,705	28,68
546,183	28,37
546,661	28,88
547,139	28,54
547,616	28,51
548,094	28,83
548,571	28,49
549,049	29,07
549,526	28,88
550,003	29,17
550,48	28,94
550,957	28,95
551,434	28,87
551,911	29,24
552,387	29,04
552,864	29,27
553,34	28,77
553,817	28,87
554,293	28,96
554,769	29,07
555,245	28,97
555,721	29,06
556,197	29,1
556,672	29,04
557,148	28,61
557,623	29,04
558,099	28,88
558,574	29,08
559,049	28,66
559,524	28,85
559,999	28,88
560,474	28,55
560,948	28,59
561,423	28,79
561,897	28,43
562,372	28,53
562,846	28,06
563,32	28,27
563,794	28,11
564,268	27,69
564,742	27,82
565,216	27,52
565,69	27,39
566,163	27,26
566,636	27,13
567,11	26,9
567,583	26,61
568,056	26,76
568,529	26,48
569,002	26,25
569,475	25,81
569,947	25,91
570,42	25,74
570,892	25,21
571,365	25,19
571,837	25,17
572,309	24,74
572,781	24,69
573,253	24,57
573,725	24,23
574,197	24,31
574,668	23,79
575,14	23,78
575,611	23,48
576,082	23,6
576,554	23,19
577,025	23,16
577,496	23,03
577,967	22,66
578,437	22,87
578,908	22,31
579,379	22,35
579,849	22,32
580,319	22,01
580,79	21,96
581,26	22,04
581,73	21,88
582,2	21,48
582,669	21,68
583,139	21,39
583,609	21,16
584,078	20,89
584,548	21,14
585,017	20,85
585,486	20,61
585,955	20,74
586,424	20,8
586,893	20,23
587,362	20,49
587,83	20,43
588,299	20,07
588,767	20,26
589,236	20,03
589,704	19,95
590,172	19,77
590,64	19,88
591,108	19,61
591,576	19,88
592,043	19,44
592,511	19,73
592,978	19,26
593,446	19,7
593,913	19,37
594,38	19,39
594,847	19,22
595,314	19,23
595,781	19,39
596,248	19,23
596,715	19,13
597,181	18,84
597,647	19,02
598,114	18,9
598,58	18,9
599,046	18,93
599,512	18,85
599,978	18,92
600,444	18,77
600,91	18,56
601,375	18,91
601,841	18,6
602,306	18,87
602,771	18,62
603,236	18,51
603,702	18,58
604,167	18,47
604,631	18,45
605,096	18,38
605,561	18,3
606,025	17,94
606,49	17,94
606,954	17,85
607,418	17,81
607,882	17,8
608,347	17,98
608,81	17,57
609,274	17,43
609,738	17,59
610,202	17,26
610,665	17,3
611,128	17,22
611,592	17,16
612,055	17
612,518	16,89
612,981	16,89
613,444	16,58
613,907	16,79
614,369	16,5
614,832	16,58
615,294	16,31
615,757	16,22
616,219	16,37
616,681	16,01
617,143	15,87
617,605	15,97
618,067	15,82
618,529	15,68
618,99	15,7
619,452	15,63
619,913	15,45
620,375	15,46
620,836	15,24
621,297	15,34
621,758	15,29
622,219	15,14
622,68	15,23
623,14	15,11
623,601	15,13
624,061	15,04
624,522	15,08
624,982	15,12
625,442	14,81
625,902	14,87
626,362	14,99
626,822	15,03
627,282	14,79
627,742	14,83
628,201	14,89
628,661	14,69
629,12	14,66
629,579	14,76
630,038	14,89
630,497	14,63
630,956	14,71
631,415	14,72
631,874	14,71
632,332	14,5
632,791	14,71
633,249	14,58
633,708	14,37
634,166	14,5
634,624	14,33
635,082	14,34
635,54	14,28
635,998	14,41
636,455	14,21
636,913	14,1
637,37	13,95
637,828	13,77
638,285	13,74
638,742	13,67
639,199	13,56
639,656	13,56
640,113	13,44
640,57	13,32
641,027	12,98
641,483	13,08
641,94	12,78
642,396	12,85
642,852	12,7
643,309	12,71
643,765	12,4
644,221	12,34
644,676	12,18
645,132	12,14
645,588	12,06
646,043	11,89
646,499	11,78
646,954	11,73
647,409	11,6
647,864	11,47
648,319	11,39
648,774	11,19
649,229	11,16
649,684	11,32
650,139	11,13
650,593	11,03
651,047	11
651,502	11,07
651,956	10,95
652,41	10,9
652,864	10,89
653,318	10,85
653,772	10,7
654,225	10,78
654,679	10,61
655,133	10,62
655,586	10,59
656,039	10,53
656,492	10,44
656,946	10,36
657,399	10,21
657,851	10,44
658,304	10,21
658,757	10,1
659,209	9,92
659,662	10,05
660,114	9,85
660,567	9,72
661,019	9,79
661,471	9,64
661,923	9,64
662,375	9,56
662,826	9,52
663,278	9,49
663,73	9,37
664,181	9,28
664,632	9,29
665,084	9,18
665,535	9,19
665,986	9,21
666,437	9,26
666,888	9,09
667,338	9,16
667,789	9,06
668,24	9,17
668,69	9,01
669,14	9,04
669,591	9,17
670,041	9,06
670,491	9,15
670,941	9,06
671,391	9,2
671,84	9,18
672,29	9,19
672,74	9,29
673,189	9,16
673,638	9,42
674,088	9,29
674,537	9,47
674,986	9,5
675,435	9,6
675,883	9,63
676,332	9,65
676,781	9,66
677,229	9,67
677,678	9,89
678,126	9,98
678,574	9,98
679,022	10,05
679,47	10,15
679,918	10,22
680,366	10,33
680,814	10,31
681,261	10,52
681,709	10,54
682,156	10,53
682,604	10,72
683,051	10,96
683,498	10,87
683,945	11,06
684,392	11,16
684,839	11,36
685,286	11,4
685,732	11,55
686,179	11,65
686,625	11,84
687,071	12,02
687,518	12,01
687,964	12,33
688,41	12,54
688,856	12,67
689,301	12,85
689,747	13,17
690,193	13,5
690,638	13,79
691,084	14,04
691,529	14,62
691,974	15,01
692,419	15,44
692,864	15,9
693,309	16,47
693,754	16,86
694,199	17,38
694,643	17,95
695,088	18,46
695,532	19
695,977	19,54
696,421	20,18
696,865	20,81
697,309	21,7
697,753	22,02
698,197	22,76
698,64	23,35
699,084	23,89
699,527	24,58
699,971	25,07
700,414	25,92
700,857	26,16
701,3	27,07
701,743	27,45
702,186	28,21
702,629	28,87
703,072	29,39
703,515	29,94
703,957	30,59
704,399	31,27
704,842	31,63
705,284	32,21
705,726	32,96
706,168	33,6
706,61	33,92
707,052	34,71
707,494	35,05
707,935	35,68
708,377	36,26
708,818	36,86
709,26	37,06
709,701	37,41
710,142	38,18
710,583	38,45
711,024	38,98
711,465	39,44
711,905	40,12
712,346	40,1
712,787	40,97
713,227	41,54
713,667	41,95
714,108	42,31
714,548	42,93
714,988	43,32
715,428	43,52
715,868	44,22
716,307	44,29
716,747	45,07
717,186	45,33
717,626	45,93
718,065	45,82
718,504	46,21
718,944	46,96
719,383	47,09
719,822	47,83
720,261	47,83
720,699	48,55
721,138	48,68
721,576	49,08
722,015	49,21
722,453	49,71
722,892	50,04
723,33	50,16
723,768	50,79
724,206	50,8
724,644	50,98
725,081	51,33
725,519	51,63
725,957	51,75
726,394	52,22
726,832	52,42
727,269	52,56
727,706	52,97
728,143	53,32
728,58	53,36
729,017	53,32
729,454	53,48
729,89	53,38
730,327	54,13
730,764	53,96
731,2	54,53
731,636	54,3
732,072	54,32
732,509	54,75
732,945	54,76
733,38	54,77
733,816	55,33
734,252	55,08
734,688	55,28
735,123	55,36
735,559	55,67
735,994	55,84
736,429	55,79
736,864	56
737,299	55,98
737,734	56,21
738,169	56,12
738,604	56,4
739,038	56,41
739,473	56,59
739,907	56,42
740,342	56,34
740,776	56,53
741,21	56,76
741,644	56,85
742,078	56,63
742,512	56,91
742,946	56,49
743,379	57,15
743,813	56,83
744,246	56,65
744,68	56,78
745,113	56,8
745,546	57,04
745,979	57,02
746,412	56,91
746,845	57,03
747,278	56,88
747,711	57,04
748,143	56,86
748,576	56,98
749,008	57,07
749,441	56,9
749,873	56,93
750,305	56,96
750,737	56,54
751,169	56,79
751,601	56,9
752,032	56,91
752,464	56,57
752,896	56,76
753,327	57,26
753,758	56,97
754,19	56,81
754,621	56,78
755,052	56,58
755,483	56,62
755,914	56,7
756,344	56,71
756,775	56,62
757,206	57,17
757,636	56,53
758,066	56,87
758,497	56,73
758,927	56,27
759,357	56,62
759,787	56,46
760,217	56,37
760,647	56,67
761,076	56,5
761,506	56,49
761,935	56,72
762,365	56,32
762,794	56,16
763,223	56,03
763,653	56,63
764,082	56,31
764,51	56,08
764,939	55,98
765,368	56,34
765,797	55,69
766,225	56,06
766,654	55,9
767,082	56,57
767,51	56,14
767,938	55,95
768,367	55,68
768,795	55,91
769,222	56,04
769,65	55,67
770,078	55,94
770,505	55,79
770,933	56,13
771,36	55,6
771,788	55,59
772,215	55,81
772,642	56,09
773,069	55,81
773,496	55,49
773,923	55,92
774,349	56,04
774,776	55,47
775,203	55,6
775,629	55,74
776,055	55,69
776,482	55,82
776,908	55,66
777,334	55,69
777,76	55,52
778,186	55,52
778,611	55,66
779,037	55,6
779,463	55,75
779,888	55,59
780,314	55,51
780,739	55,52
781,164	55,61
781,589	55,45
782,014	55,7
782,439	55,74
782,864	55,34
783,289	55,32
783,713	55,49
784,138	55,38
784,562	55,69
784,987	55,35
785,411	54,84
785,835	55,53
786,259	55,12
786,683	55,41
787,107	55,61
787,531	55,28
787,954	55,57
788,378	55,48
788,802	55,15
789,225	55,08
789,648	55,28
790,071	55,11
790,495	55,53
790,918	54,97
791,34	55,34
791,763	55,17
792,186	55,22
792,609	55,1
793,031	55,29
793,454	55,17
793,876	55,28
794,298	55,17
794,721	55,19
795,143	54,93
795,565	54,67
795,986	54,85
796,408	55,23
796,83	55,08
797,252	55,1
797,673	55,08
798,094	55,09
798,516	54,93
798,937	54,96
799,358	54,99
799,779	55,33
800,2	55,24
800,621	54,98
801,042	55,31
801,462	55,21
801,883	55,21
802,303	54,92
802,724	54,91
803,144	55,12
803,564	55,12
803,984	55,35
804,404	54,7
804,824	55,04
805,244	55,18
805,664	55,16
806,084	55,05
806,503	55,17
806,923	54,95
807,342	54,91
807,761	54,63
808,18	54,76
808,599	54,8
809,018	54,94
809,437	54,82
809,856	54,83
810,275	55,05
810,693	54,95
811,112	55,13
811,53	54,93
811,949	55,09
812,367	54,56
812,785	54,83
813,203	54,98
813,621	55,07
814,039	54,86
814,457	55,23
814,874	54,83
815,292	55,06
815,709	55,16
816,127	54,68
816,544	55,12
816,961	54,78
817,378	55,29
817,795	54,81
818,212	55
818,629	54,89
819,046	55
819,462	54,78
819,879	54,83
820,295	54,72
820,712	54,91
821,128	54,86
821,544	54,83
821,96	54,95
822,376	54,39
822,792	54,57
823,208	54,72
823,624	54,95
824,039	54,83
824,455	54,9
824,87	55,07
825,286	55,06
825,701	54,79
826,116	54,9
826,531	54,57
826,946	54,77
827,361	54,63
827,776	54,91
828,19	54,52
828,605	54,63
829,02	54,63
829,434	54,78
829,848	54,72
830,263	54,73
830,677	54,76
831,091	54,94
831,505	54,56
831,919	54,67
832,332	54,64
832,746	54,7
833,16	54,61
833,573	54,85
833,987	54,31
834,4	54,51
834,813	54,73
835,226	54,55
835,639	54,76
836,052	54,59
836,465	54,6
836,878	54,77
837,29	54,76
837,703	54,68
838,116	54,44
838,528	54,41
838,94	54,42
839,352	54,64
