Data from I_2__Relative__7__00183.txt Node

Date: Mon Jan 29 18:30:00 CET 2024
User: diatiterra
Spectrometer: HDX00911
Trigger mode: 0
Integration Time (sec): 6,000000E-3
Scans to average: 2
Nonlinearity correction enabled: false
Boxcar width: 0
Storing dark spectrum: false
XAxis mode: Wavelengths
Number of Pixels in Spectrum: 2068
>>>>>Begin Spectral Data<<<<<
194,468	57,84
195,025	47,79
195,581	68,09
196,138	61,54
196,694	46,55
197,251	45,33
197,807	51,2
198,363	45,09
198,919	45,2
199,474	46,43
200,03	33,09
200,586	37,07
201,141	38,58
201,696	39,1
202,251	42,8
202,806	43,23
203,361	36,84
203,916	48,29
204,471	42,25
205,025	37,86
205,58	38,35
206,134	38,52
206,688	41,67
207,242	37,41
207,796	37,29
208,35	42,24
208,904	35,93
209,457	47,65
210,011	38,46
210,564	35,07
211,117	33,8
211,67	42,61
212,223	40,07
212,776	40,45
213,329	37,8
213,881	35,71
214,434	45,86
214,986	38,38
215,538	43,96
216,09	33,44
216,642	30
217,194	41,72
217,746	37,04
218,297	35,91
218,849	32,71
219,4	40,91
219,951	49,09
220,502	40,77
221,053	36,36
221,604	44,63
222,155	49,38
222,705	36,45
223,256	37,41
223,806	41,84
224,356	42,39
224,906	38,52
225,456	38,28
226,006	30,87
226,556	35,77
227,106	45,1
227,655	40,42
228,204	40,46
228,754	43,1
229,303	39,66
229,852	39,87
230,401	43,01
230,949	52,92
231,498	46,27
232,047	38,38
232,595	45,39
233,143	53,79
233,691	41,2
234,239	39,93
234,787	38,46
235,335	43,88
235,883	46,59
236,43	42,59
236,978	39,64
237,525	45,52
238,072	37,64
238,619	36,3
239,166	49,16
239,713	47,58
240,26	46,44
240,806	36,88
241,353	45,58
241,899	41,42
242,445	49,3
242,991	43,55
243,537	43,56
244,083	42,55
244,629	35,81
245,174	46,64
245,72	37,46
246,265	43,46
246,81	44,53
247,355	38,97
247,9	39,79
248,445	44,14
248,99	41,18
249,534	44,62
250,079	46,27
250,623	42,03
251,168	44,63
251,712	52,13
252,256	46,84
252,8	51,74
253,343	41,08
253,887	40,14
254,43	45,72
254,974	50,35
255,517	41,61
256,06	40,41
256,603	41,51
257,146	44,78
257,689	41,77
258,232	38,31
258,774	45,76
259,317	47,62
259,859	46,13
260,401	48,11
260,943	43,28
261,485	44,33
262,027	40,34
262,569	43,23
263,11	38,27
263,652	43,01
264,193	38,93
264,734	43,25
265,275	38,96
265,816	46,4
266,357	48,2
266,898	36,86
267,438	43,92
267,979	48
268,519	37,18
269,059	43,26
269,6	42,11
270,14	38,28
270,68	43,68
271,219	42,46
271,759	36,94
272,298	40,73
272,838	38,37
273,377	40,37
273,916	39,71
274,455	36,4
274,994	41,37
275,533	38,23
276,072	35,71
276,61	39,59
277,149	34,42
277,687	46,62
278,225	42,47
278,763	40,58
279,301	43,77
279,839	34,06
280,377	42,34
280,914	41,03
281,452	44,72
281,989	46,08
282,526	41,22
283,064	39,58
283,601	47,73
284,137	41,97
284,674	46,04
285,211	35,61
285,747	42,37
286,284	36,84
286,82	43,97
287,356	42,96
287,892	43,51
288,428	35,25
288,964	43,68
289,5	44,56
290,035	45,68
290,571	42,91
291,106	39,27
291,641	39,08
292,176	39,1
292,711	45,17
293,246	38,99
293,781	44,98
294,315	51,84
294,85	36,86
295,384	42,96
295,918	36,93
296,453	42,4
296,987	44,14
297,52	43,15
298,054	41,91
298,588	41,73
299,121	37,36
299,655	42,46
300,188	48,29
300,721	44,14
301,254	42,35
301,787	36,99
302,32	45,08
302,853	35,19
303,385	46,15
303,918	42,81
304,45	38,61
304,982	43,03
305,514	40,59
306,046	40,35
306,578	36,43
307,11	42,38
307,641	34,18
308,173	45,72
308,704	41,76
309,236	36,33
309,767	37,92
310,298	36,24
310,829	50,57
311,359	45,55
311,89	37,37
312,421	48,19
312,951	44
313,481	46,18
314,012	43,59
314,542	40,75
315,072	41,09
315,601	38,79
316,131	35,4
316,661	42,92
317,19	39,5
317,72	44,32
318,249	36,49
318,778	45,63
319,307	36,49
319,836	40,94
320,365	43,65
320,893	43,62
321,422	39,18
321,95	38,15
322,479	45,33
323,007	42,75
323,535	47,17
324,063	39,93
324,591	36,33
325,118	34,97
325,646	46,54
326,173	40,71
326,701	38,91
327,228	38,98
327,755	44,8
328,282	40,75
328,809	47,41
329,336	42,91
329,862	42,69
330,389	39,93
330,915	43,62
331,441	39,66
331,968	39,52
332,494	33,78
333,02	40,88
333,545	37,91
334,071	40,33
334,597	39,86
335,122	32,44
335,648	39,19
336,173	43,56
336,698	38,36
337,223	44,37
337,748	35,09
338,272	40,26
338,797	44,01
339,322	34,88
339,846	35,55
340,37	36,26
340,894	42,12
341,419	40,94
341,942	45,3
342,466	36,86
342,99	35,38
343,514	37,66
344,037	35,41
344,56	38,87
345,084	31,23
345,607	37,69
346,13	34,77
346,653	31,45
347,175	39,68
347,698	33,63
348,221	34,01
348,743	30,61
349,265	28,57
349,787	38,29
350,309	39,67
350,831	36,72
351,353	39,68
351,875	39,04
352,397	33,06
352,918	35,03
353,439	41,73
353,961	30,99
354,482	33,43
355,003	35,12
355,524	36,22
356,044	32,72
356,565	37,16
357,086	29,26
357,606	31,57
358,126	32,85
358,646	30,85
359,167	35,14
359,687	34,2
360,206	31,81
360,726	34,52
361,246	34,7
361,765	31,58
362,285	38,15
362,804	31,78
363,323	30,96
363,842	37,14
364,361	34,85
364,88	33,97
365,398	34
365,917	33,68
366,435	37,34
366,954	34,07
367,472	37,95
367,99	35,32
368,508	30,66
369,026	33,33
369,544	31,09
370,061	34,09
370,579	33,58
371,096	37,23
371,613	35,96
372,131	32,92
372,648	35,2
373,165	36,92
373,681	29,77
374,198	34,26
374,715	36,63
375,231	29,57
375,747	33,06
376,264	32,59
376,78	35,09
377,296	33,7
377,812	28,19
378,327	31,26
378,843	35,6
379,359	30
379,874	31,28
380,389	33,84
380,905	32,49
381,42	32,11
381,935	31,6
382,449	31,77
382,964	31,06
383,479	31,42
383,993	31,85
384,508	29,63
385,022	30,69
385,536	27,29
386,05	29,58
386,564	28,33
387,078	27,12
387,592	29,48
388,105	29,01
388,619	26,75
389,132	28,04
389,645	28,12
390,158	25,11
390,671	28,38
391,184	24,48
391,697	24,67
392,21	24,86
392,722	25,65
393,235	26,1
393,747	26,52
394,259	26,49
394,771	23,18
395,283	23,89
395,795	24,69
396,307	23,7
396,818	23,83
397,33	22,5
397,841	23,9
398,353	23,02
398,864	20,99
399,375	22,18
399,886	21,69
400,397	20,42
400,907	21,51
401,418	20,68
401,928	20,57
402,439	20,35
402,949	20,49
403,459	19,75
403,969	18,72
404,479	18,15
404,989	16,68
405,498	17,74
406,008	15,12
406,517	15,95
407,027	16,18
407,536	15,06
408,045	14,79
408,554	14,63
409,063	13,21
409,572	12,12
410,08	13,23
410,589	13,62
411,097	13,66
411,606	12,03
412,114	12,08
412,622	11,31
413,13	11,59
413,638	11,37
414,145	10,09
414,653	10,8
415,16	10,23
415,668	9,82
416,175	9,95
416,682	9,7
417,189	9,53
417,696	9
418,203	9,91
418,71	8,94
419,216	8,96
419,723	9
420,229	9,12
420,735	9,16
421,242	8,59
421,748	8,53
422,254	8,25
422,759	8,24
423,265	8,22
423,771	8,01
424,276	8,08
424,781	8,3
425,287	8,18
425,792	8,07
426,297	8,22
426,802	7,92
427,306	7,56
427,811	7,77
428,316	7,86
428,82	7,49
429,324	7,77
429,829	8,36
430,333	7,61
430,837	7,36
431,34	7,28
431,844	7,39
432,348	7,34
432,851	7,01
433,355	7,09
433,858	6,94
434,361	7,15
434,864	6,99
435,367	7,18
435,87	7,22
436,373	7,26
436,876	6,56
437,378	6,86
437,88	7,12
438,383	6,92
438,885	7,22
439,387	6,99
439,889	6,73
440,391	7,07
440,892	7,15
441,394	7,04
441,896	7,18
442,397	7,11
442,898	6,67
443,399	7,59
443,9	7,22
444,401	7,28
444,902	7,08
445,403	7,04
445,903	7,25
446,404	7,47
446,904	7,36
447,405	7,21
447,905	7,24
448,405	7,25
448,905	7,71
449,404	7,55
449,904	7,6
450,404	7,25
450,903	7,64
451,403	7,51
451,902	7,72
452,401	8,06
452,9	7,46
453,399	7,85
453,898	7,84
454,396	7,85
454,895	7,93
455,393	7,61
455,892	8,06
456,39	7,73
456,888	7,75
457,386	8
457,884	8,11
458,382	7,83
458,879	8,27
459,377	7,99
459,874	7,87
460,372	7,76
460,869	8,05
461,366	8,04
461,863	8,09
462,36	8,2
462,857	7,84
463,353	7,94
463,85	8,12
464,346	8,18
464,843	7,71
465,339	8,05
465,835	8,06
466,331	8,12
466,827	7,95
467,323	7,89
467,818	7,86
468,314	8,33
468,809	7,66
469,305	7,87
469,8	7,92
470,295	7,94
470,79	8,32
471,285	7,91
471,78	7,89
472,274	8,03
472,769	8,1
473,263	8,05
473,758	8,22
474,252	8,11
474,746	8,12
475,24	8,14
475,734	8,17
476,228	8,19
476,721	7,95
477,215	8,22
477,708	8,15
478,202	8,05
478,695	8,08
479,188	8,13
479,681	8,22
480,174	8,12
480,667	8
481,159	7,89
481,652	8,07
482,144	8,32
482,637	7,9
483,129	8,38
483,621	8,18
484,113	8,3
484,605	8,42
485,097	8,53
485,588	8,67
486,08	8,52
486,571	8,42
487,063	8,59
487,554	8,73
488,045	8,67
488,536	8,57
489,027	8,77
489,518	8,81
490,008	9,06
490,499	8,91
490,989	9,14
491,48	8,99
491,97	8,94
492,46	9,05
492,95	8,95
493,44	9,29
493,93	9,36
494,419	9,47
494,909	9,35
495,398	9,67
495,888	9,81
496,377	9,42
496,866	9,98
497,355	9,79
497,844	9,93
498,333	10,08
498,821	10,25
499,31	10,42
499,798	10,59
500,287	10,58
500,775	10,75
501,263	10,66
501,751	11,16
502,239	11,18
502,727	11,58
503,215	11,56
503,702	11,47
504,19	11,97
504,677	12,01
505,164	12,04
505,651	12,22
506,139	12,62
506,625	12,76
507,112	12,91
507,599	13,21
508,086	13,49
508,572	13,46
509,058	13,87
509,545	13,8
510,031	14,45
510,517	14,53
511,003	14,68
511,489	14,68
511,974	15,49
512,46	15,68
512,946	15,85
513,431	15,71
513,916	16,34
514,401	16,6
514,887	16,9
515,371	16,95
515,856	17,38
516,341	17,68
516,826	17,78
517,31	18,39
517,795	18,67
518,279	18,98
518,763	18,85
519,247	19,06
519,731	19,58
520,215	19,75
520,699	20,22
521,182	20,39
521,666	20,85
522,149	20,79
522,633	21,65
523,116	21,82
523,599	21,87
524,082	22,19
524,565	22,52
525,048	22,51
525,53	22,64
526,013	23,21
526,495	23,74
526,978	23,45
527,46	24,11
527,942	23,94
528,424	24,11
528,906	24,19
529,388	24,63
529,87	24,36
530,351	24,83
530,833	25,37
531,314	25,42
531,795	25,11
532,277	25,29
532,758	25,68
533,238	25,53
533,719	25,88
534,2	25,93
534,681	25,71
535,161	26,49
535,642	25,95
536,122	25,72
536,602	26,42
537,082	26,31
537,562	26,21
538,042	26,48
538,522	26,95
539,001	26,6
539,481	26,53
539,96	26,26
540,44	26,67
540,919	26,96
541,398	26,88
541,877	26,64
542,356	26,7
542,835	26,57
543,313	26,78
543,792	27,09
544,27	27
544,749	27,01
545,227	26,66
545,705	27,03
546,183	27,02
546,661	27,11
547,139	26,9
547,616	27,42
548,094	27,16
548,571	27,31
549,049	27,48
549,526	27,37
550,003	27,33
550,48	27,18
550,957	27,57
551,434	27,37
551,911	27,49
552,387	26,84
552,864	27,4
553,34	27,63
553,817	27,18
554,293	27,16
554,769	27,19
555,245	27,18
555,721	27,27
556,197	27,56
556,672	27,58
557,148	27,11
557,623	27,36
558,099	26,95
558,574	27,08
559,049	27,28
559,524	27,55
559,999	27,1
560,474	26,85
560,948	27,17
561,423	26,92
561,897	27,23
562,372	27,09
562,846	26,81
563,32	26,84
563,794	26,8
564,268	26,36
564,742	26,19
565,216	26,34
565,69	26,17
566,163	26,46
566,636	26,04
567,11	25,85
567,583	25,49
568,056	25,93
568,529	25,61
569,002	25,47
569,475	25,28
569,947	25,15
570,42	24,92
570,892	24,86
571,365	24,8
571,837	24,6
572,309	24,5
572,781	24,49
573,253	24,53
573,725	23,96
574,197	24,12
574,668	23,7
575,14	23,74
575,611	23,34
576,082	23,3
576,554	23,32
577,025	23,3
577,496	23,07
577,967	22,83
578,437	22,75
578,908	22,61
579,379	22,29
579,849	22,48
580,319	22,37
580,79	22,06
581,26	22,35
581,73	22,06
582,2	21,87
582,669	21,95
583,139	21,82
583,609	21,56
584,078	21,65
584,548	21,24
585,017	21,29
585,486	21,27
585,955	21,15
586,424	21,28
586,893	20,95
587,362	20,93
587,83	20,95
588,299	20,74
588,767	20,9
589,236	20,73
589,704	20,66
590,172	20,58
590,64	20,36
591,108	20,2
591,576	20,33
592,043	20,05
592,511	20,34
592,978	20,04
593,446	20,06
593,913	19,98
594,38	20,06
594,847	19,98
595,314	19,78
595,781	19,81
596,248	19,81
596,715	19,59
597,181	19,56
597,647	19,58
598,114	19,55
598,58	19,75
599,046	19,59
599,512	19,44
599,978	19,67
600,444	19,5
600,91	19,46
601,375	19,76
601,841	19,37
602,306	19,53
602,771	19,37
603,236	19,38
603,702	19,29
604,167	18,86
604,631	19,08
605,096	19,24
605,561	18,91
606,025	19,12
606,49	18,94
606,954	18,94
607,418	18,67
607,882	18,61
608,347	18,7
608,81	18,51
609,274	18,37
609,738	18,48
610,202	18,45
610,665	18,28
611,128	18,12
611,592	17,93
612,055	17,96
612,518	17,99
612,981	17,8
613,444	17,57
613,907	17,6
614,369	17,52
614,832	17,42
615,294	17,12
615,757	17,19
616,219	17,31
616,681	17,02
617,143	17,06
617,605	17
618,067	16,92
618,529	16,5
618,99	16,77
619,452	16,61
619,913	16,71
620,375	16,4
620,836	16,48
621,297	16,36
621,758	16,37
622,219	16,2
622,68	16,07
623,14	16,16
623,601	15,99
624,061	16,18
624,522	16,13
624,982	16,01
625,442	15,88
625,902	16,05
626,362	15,73
626,822	15,9
627,282	15,85
627,742	15,98
628,201	15,82
628,661	15,72
629,12	15,72
629,579	15,55
630,038	15,58
630,497	15,81
630,956	15,69
631,415	15,78
631,874	15,64
632,332	15,58
632,791	15,59
633,249	15,12
633,708	15,36
634,166	15,2
634,624	15,29
635,082	15,34
635,54	15,17
635,998	15,14
636,455	15,15
636,913	15,02
637,37	14,73
637,828	14,57
638,285	14,68
638,742	14,56
639,199	14,61
639,656	14,15
640,113	14,13
640,57	14
641,027	14,16
641,483	13,87
641,94	13,79
642,396	13,58
642,852	13,58
643,309	13,39
643,765	13,16
644,221	13,09
644,676	12,96
645,132	12,92
645,588	12,78
646,043	12,69
646,499	12,38
646,954	12,51
647,409	12,14
647,864	12,02
648,319	12,05
648,774	11,83
649,229	11,83
649,684	11,74
650,139	11,55
650,593	11,58
651,047	11,44
651,502	11,5
651,956	11,28
652,41	11,24
652,864	11,25
653,318	11,12
653,772	11,19
654,225	11,15
654,679	11,06
655,133	11,09
655,586	10,83
656,039	10,78
656,492	10,64
656,946	10,85
657,399	10,57
657,851	10,49
658,304	10,44
658,757	10,35
659,209	10,2
659,662	10,22
660,114	10,07
660,567	9,81
661,019	9,67
661,471	9,63
661,923	9,48
662,375	9,44
662,826	9,33
663,278	9,12
663,73	9,18
664,181	9,02
664,632	9,05
665,084	8,67
665,535	8,7
665,986	8,71
666,437	8,68
666,888	8,62
667,338	8,59
667,789	8,47
668,24	8,45
668,69	8,3
669,14	8,32
669,591	8,21
670,041	8,2
670,491	8,3
670,941	8,25
671,391	8,26
671,84	8,2
672,29	8,21
672,74	8,3
673,189	8,35
673,638	8,21
674,088	8,41
674,537	8,39
674,986	8,37
675,435	8,35
675,883	8,48
676,332	8,51
676,781	8,6
677,229	8,58
677,678	8,74
678,126	8,81
678,574	8,94
679,022	8,93
679,47	8,95
679,918	8,97
680,366	9,34
680,814	9,29
681,261	9,41
681,709	9,55
682,156	9,63
682,604	9,86
683,051	9,82
683,498	9,89
683,945	10,24
684,392	10,29
684,839	10,38
685,286	10,67
685,732	10,93
686,179	11,16
686,625	11,35
687,071	11,52
687,518	11,85
687,964	12,2
688,41	12,45
688,856	12,81
689,301	13,11
689,747	13,49
690,193	13,75
690,638	14,23
691,084	14,48
691,529	15,01
691,974	15,62
692,419	15,96
692,864	16,46
693,309	16,94
693,754	17,47
694,199	17,88
694,643	18,12
695,088	18,8
695,532	19,51
695,977	19,85
696,421	20,18
696,865	20,86
697,309	21,3
697,753	21,88
698,197	22,42
698,64	22,87
699,084	23,32
699,527	23,74
699,971	24,08
700,414	24,69
700,857	25,09
701,3	25,55
701,743	25,76
702,186	26,03
702,629	26,65
703,072	26,83
703,515	27,39
703,957	27,42
704,399	27,97
704,842	28,25
705,284	28,66
705,726	29,04
706,168	29,29
706,61	29,56
707,052	29,97
707,494	30,18
707,935	30,39
708,377	30,87
708,818	31,09
709,26	31,26
709,701	31,34
710,142	31,59
710,583	32,15
711,024	32,21
711,465	32,4
711,905	33,01
712,346	32,79
712,787	33,25
713,227	33,44
713,667	34,03
714,108	33,89
714,548	34,08
714,988	34,41
715,428	34,45
715,868	34,53
716,307	34,82
716,747	35,36
717,186	35,28
717,626	35,5
718,065	35,53
718,504	35,57
718,944	36,08
719,383	36,12
719,822	36,22
720,261	36,34
720,699	36,66
721,138	36,54
721,576	36,91
722,015	36,9
722,453	36,85
722,892	37,47
723,33	37,41
723,768	37,34
724,206	37,62
724,644	37,7
725,081	37,59
725,519	37,79
725,957	37,66
726,394	38,15
726,832	37,97
727,269	38,29
727,706	38,3
728,143	38,3
728,58	38,31
729,017	38,33
729,454	38,6
729,89	38,4
730,327	39,11
730,764	38,68
731,2	39
731,636	38,79
732,072	38,59
732,509	39
732,945	39,05
733,38	38,96
733,816	38,93
734,252	39,21
734,688	39,3
735,123	38,98
735,559	39,13
735,994	39,46
736,429	39,19
736,864	39,08
737,299	39,35
737,734	39,34
738,169	39,36
738,604	39,3
739,038	39,42
739,473	39,61
739,907	39,48
740,342	39,48
740,776	39,44
741,21	39,54
741,644	39,48
742,078	39,14
742,512	39,65
742,946	39,26
743,379	39,42
743,813	39,36
744,246	39,34
744,68	39,42
745,113	39,23
745,546	39,49
745,979	39,43
746,412	39,45
746,845	39,15
747,278	39,22
747,711	39,35
748,143	39,31
748,576	39,49
749,008	39,45
749,441	39,35
749,873	39,19
750,305	39,42
750,737	38,96
751,169	39,2
751,601	39,37
752,032	39,34
752,464	39,09
752,896	39,15
753,327	39,15
753,758	39,41
754,19	38,93
754,621	38,87
755,052	38,91
755,483	38,87
755,914	39,03
756,344	38,91
756,775	38,73
757,206	39,17
757,636	38,85
758,066	38,84
758,497	39
758,927	39,03
759,357	38,92
759,787	39,1
760,217	38,75
760,647	38,86
761,076	38,59
761,506	38,68
761,935	38,86
762,365	38,45
762,794	38,25
763,223	38,56
763,653	38,86
764,082	38,41
764,51	38,49
764,939	38,45
765,368	38,44
765,797	38,42
766,225	38,53
766,654	38,32
767,082	38,64
767,51	38,37
767,938	38,35
768,367	38,34
768,795	37,95
769,222	38,37
769,65	38,28
770,078	38,46
770,505	38,13
770,933	38,38
771,36	37,9
771,788	38,08
772,215	38,2
772,642	38,32
773,069	38,37
773,496	38,02
773,923	38,07
774,349	38,25
774,776	37,84
775,203	37,9
775,629	38,07
776,055	38,18
776,482	38,35
776,908	37,82
777,334	37,93
777,76	38,02
778,186	38,15
778,611	37,8
779,037	37,95
779,463	37,94
779,888	37,95
780,314	37,81
780,739	37,77
781,164	37,87
781,589	38,26
782,014	37,99
782,439	37,91
782,864	37,9
783,289	37,74
783,713	37,76
784,138	37,84
784,562	37,9
784,987	37,82
785,411	37,49
785,835	37,82
786,259	37,77
786,683	37,75
787,107	37,79
787,531	37,81
787,954	37,82
788,378	37,97
788,802	37,72
789,225	37,69
789,648	37,88
790,071	37,78
790,495	37,44
790,918	37,58
791,34	37,67
791,763	37,79
792,186	37,63
792,609	37,69
793,031	37,56
793,454	37,58
793,876	37,72
794,298	37,58
794,721	37,49
795,143	37,5
795,565	37,5
795,986	37,7
796,408	37,75
796,83	37,45
797,252	37,69
797,673	37,66
798,094	37,55
798,516	37,69
798,937	37,54
799,358	37,87
799,779	37,47
800,2	37,57
800,621	37,49
801,042	37,72
801,462	37,58
801,883	37,58
802,303	37,59
802,724	37,43
803,144	37,56
803,564	37,58
803,984	37,52
804,404	37,43
804,824	37,61
805,244	37,71
805,664	37,87
806,084	37,45
806,503	37,51
806,923	37,54
807,342	37,71
807,761	37,25
808,18	37,27
808,599	37,58
809,018	37,48
809,437	37,27
809,856	37,46
810,275	37,64
810,693	37,27
811,112	37,56
811,53	37,45
811,949	37,41
812,367	37,46
812,785	37,73
813,203	37,31
813,621	37,57
814,039	37,24
814,457	37,51
814,874	37,39
815,292	37,48
815,709	37,38
816,127	37,21
816,544	37,57
816,961	37,43
817,378	37,53
817,795	37,22
818,212	37,19
818,629	37,29
819,046	37,69
819,462	37,54
819,879	37,42
820,295	37,37
820,712	37,57
821,128	37,38
821,544	37,42
821,96	37,29
822,376	37,25
822,792	37,36
823,208	37,63
823,624	37,38
824,039	37,38
824,455	37,6
824,87	37,45
825,286	37,43
825,701	37,49
826,116	37,4
826,531	37,44
826,946	37,12
827,361	37,54
827,776	37,39
828,19	37,19
828,605	37,35
829,02	37,25
829,434	37,18
829,848	37,21
830,263	37,13
830,677	37,24
831,091	37,41
831,505	37,2
831,919	37,58
832,332	37,51
832,746	37,23
833,16	37,16
833,573	37,23
833,987	37,33
834,4	37,22
834,813	37,13
835,226	37,36
835,639	37,22
836,052	37,22
836,465	37,21
836,878	37,28
837,29	37,04
837,703	36,98
838,116	37,25
838,528	37,25
838,94	37,05
839,352	36,99
