Data from I_2__Relative__0__00176.txt Node

Date: Mon Jan 29 18:29:18 CET 2024
User: diatiterra
Spectrometer: HDX00911
Trigger mode: 0
Integration Time (sec): 6,000000E-3
Scans to average: 2
Nonlinearity correction enabled: false
Boxcar width: 0
Storing dark spectrum: false
XAxis mode: Wavelengths
Number of Pixels in Spectrum: 2068
>>>>>Begin Spectral Data<<<<<
194,468	77,45
195,025	56,64
195,581	89,36
196,138	53,08
196,694	69,54
197,251	57,78
197,807	59,6
198,363	52,73
198,919	50,89
199,474	50,71
200,03	48,9
200,586	50,34
201,141	58,43
201,696	48,1
202,251	61,62
202,806	62,41
203,361	49,47
203,916	63,36
204,471	53,87
205,025	50,71
205,58	56,27
206,134	55,93
206,688	54,71
207,242	57,14
207,796	55,93
208,35	45,85
208,904	46,78
209,457	54,15
210,011	53,5
210,564	56,94
211,117	44,72
211,67	50,35
212,223	55,14
212,776	62,55
213,329	53,61
213,881	54,64
214,434	50,34
214,986	53,54
215,538	53,48
216,09	56,39
216,642	56,3
217,194	47,02
217,746	47,81
218,297	48,32
218,849	50,78
219,4	51,4
219,951	57,45
220,502	51,57
221,053	54,23
221,604	57,05
222,155	58,44
222,705	56,52
223,256	54,32
223,806	54,76
224,356	59,42
224,906	52,22
225,456	45,86
226,006	55,7
226,556	48,91
227,106	51,4
227,655	47,39
228,204	49,67
228,754	54,83
229,303	61,69
229,852	47,06
230,401	50,9
230,949	71,98
231,498	57,46
232,047	48,82
232,595	53,55
233,143	64,39
233,691	57,6
234,239	52,24
234,787	46,15
235,335	48,98
235,883	53,05
236,43	57,78
236,978	59,64
237,525	54,48
238,072	52,03
238,619	44,86
239,166	52,86
239,713	61,71
240,26	59,55
240,806	51,42
241,353	50,18
241,899	53,07
242,445	57,34
242,991	49,48
243,537	55,12
244,083	57,09
244,629	56,42
245,174	58,96
245,72	54,52
246,265	61,48
246,81	54,01
247,355	49,26
247,9	57,09
248,445	57,24
248,99	53,29
249,534	56,33
250,079	60,82
250,623	49,49
251,168	55,03
251,712	56,74
252,256	54,82
252,8	61,46
253,343	60,83
253,887	54,76
254,43	60,59
254,974	58,74
255,517	65,44
256,06	51,03
256,603	62,26
257,146	50,17
257,689	52,85
258,232	55,17
258,774	59,04
259,317	57,51
259,859	54,61
260,401	54,55
260,943	61,19
261,485	54,26
262,027	53,79
262,569	54,89
263,11	57,4
263,652	55,15
264,193	53,21
264,734	65,08
265,275	65,06
265,816	49,64
266,357	50,72
266,898	49,49
267,438	56,47
267,979	57,45
268,519	54,15
269,059	58,51
269,6	58,95
270,14	53,14
270,68	62,07
271,219	58,25
271,759	56,72
272,298	54,55
272,838	57,36
273,377	56,67
273,916	47,65
274,455	50,57
274,994	54,32
275,533	51,88
276,072	51,5
276,61	55,97
277,149	40,94
277,687	54,09
278,225	54,45
278,763	51,09
279,301	55,09
279,839	55,43
280,377	49,64
280,914	54,95
281,452	61,38
281,989	59,73
282,526	50,54
283,064	58,33
283,601	57,95
284,137	55,84
284,674	60
285,211	43,88
285,747	52,54
286,284	49,47
286,82	59,93
287,356	56,7
287,892	57,89
288,428	52,2
288,964	57,76
289,5	47,28
290,035	50,36
290,571	52,61
291,106	57,82
291,641	55,17
292,176	57,14
292,711	56,9
293,246	54,51
293,781	51,67
294,315	56,25
294,85	59,49
295,384	60
295,918	58,19
296,453	55,48
296,987	57,93
297,52	52,74
298,054	55,51
298,588	59,84
299,121	47,25
299,655	51,23
300,188	50,19
300,721	48,97
301,254	54,8
301,787	50
302,32	55,68
302,853	47,04
303,385	52,38
303,918	52,63
304,45	51,35
304,982	53,78
305,514	55,72
306,046	60,35
306,578	50,36
307,11	53,53
307,641	48
308,173	51,67
308,704	53,64
309,236	47,57
309,767	57,5
310,298	45,3
310,829	51,33
311,359	50,89
311,89	49,11
312,421	56,88
312,951	56
313,481	55,42
314,012	51,65
314,542	49,66
315,072	53,09
315,601	54,09
316,131	47,81
316,661	55,83
317,19	47,69
317,72	51,65
318,249	47,3
318,778	53,23
319,307	39,53
319,836	51,34
320,365	46,58
320,893	50,35
321,422	52,24
321,95	51,11
322,479	62,98
323,007	56,52
323,535	52,45
324,063	52,61
324,591	48,67
325,118	50,35
325,646	55
326,173	52,86
326,701	43,64
327,228	45,37
327,755	53,41
328,282	55,47
328,809	48,15
329,336	51,21
329,862	49,62
330,389	49,83
330,915	51,06
331,441	41,36
331,968	47,77
332,494	43,81
333,02	50,73
333,545	36,82
334,071	50,33
334,597	44,59
335,122	42,81
335,648	56,04
336,173	46,86
336,698	45,55
337,223	57
337,748	43,16
338,272	48,51
338,797	44,98
339,322	39,53
339,846	41,41
340,37	41,39
340,894	47,95
341,419	42,95
341,942	50,67
342,466	50,51
342,99	50,77
343,514	42,21
344,037	44,26
344,56	43,57
345,084	41,96
345,607	44,07
346,13	47,69
346,653	45,91
347,175	54,52
347,698	39,88
348,221	40,7
348,743	42,27
349,265	43,15
349,787	47,43
350,309	46,56
350,831	41,49
351,353	43,12
351,875	45,22
352,397	46,01
352,918	48,87
353,439	49,32
353,961	47,04
354,482	43,82
355,003	45,31
355,524	47,96
356,044	46,17
356,565	47,38
357,086	42,75
357,606	39,76
358,126	44,04
358,646	39,55
359,167	38,82
359,687	42,22
360,206	39,76
360,726	43,93
361,246	44,34
361,765	36,18
362,285	42,42
362,804	39,56
363,323	43,35
363,842	41,9
364,361	43,07
364,88	42,62
365,398	45,47
365,917	41,89
366,435	40,13
366,954	42,89
367,472	41,36
367,99	42,3
368,508	47,07
369,026	43,02
369,544	37,27
370,061	42,88
370,579	36,21
371,096	43,8
371,613	43,3
372,131	42,08
372,648	45,85
373,165	45,93
373,681	38,18
374,198	40
374,715	40,28
375,231	39,9
375,747	43,8
376,264	41,21
376,78	43,54
377,296	40,19
377,812	36,5
378,327	38,67
378,843	42,84
379,359	39,28
379,874	40,85
380,389	40,3
380,905	40,19
381,42	41,91
381,935	36,8
382,449	36,09
382,964	37,64
383,479	37,8
383,993	35,7
384,508	36,3
385,022	38,86
385,536	36,13
386,05	35,65
386,564	36,73
387,078	34,35
387,592	37,4
388,105	33,63
388,619	33,33
389,132	32,6
389,645	35,38
390,158	33,42
390,671	33,82
391,184	33,68
391,697	30,45
392,21	32,7
392,722	29,22
393,235	33,14
393,747	32,42
394,259	32,69
394,771	31,68
395,283	31,21
395,795	32,14
396,307	31,29
396,818	30,41
397,33	29,39
397,841	29,21
398,353	30,93
398,864	29,66
399,375	28,83
399,886	29,63
400,397	27,85
400,907	27,82
401,418	25,4
401,928	24,83
402,439	27,33
402,949	25,72
403,459	26,05
403,969	25
404,479	25,03
404,989	22,35
405,498	22,7
406,008	21,23
406,517	21,29
407,027	20,36
407,536	20,1
408,045	19,69
408,554	19,66
409,063	18,54
409,572	19,07
410,08	17,97
410,589	16,91
411,097	17,52
411,606	17,08
412,114	15,97
412,622	15,88
413,13	15,46
413,638	14,85
414,145	14,48
414,653	13,7
415,16	13,7
415,668	13,17
416,175	12,98
416,682	13,28
417,189	12,55
417,696	12,64
418,203	12,94
418,71	12,36
419,216	11,87
419,723	12,4
420,229	11,47
420,735	12,02
421,242	11,04
421,748	11,85
422,254	11,03
422,759	11,69
423,265	11,17
423,771	11,25
424,276	11,07
424,781	11,31
425,287	10,89
425,792	10,66
426,297	10,93
426,802	10,71
427,306	10,97
427,811	10,42
428,316	10,79
428,82	10,18
429,324	9,81
429,829	10,5
430,333	10,54
430,837	9,81
431,34	10,14
431,844	10,42
432,348	9,91
432,851	9,98
433,355	9,73
433,858	9,97
434,361	10
434,864	9,82
435,367	10,16
435,87	10,03
436,373	10,38
436,876	9,84
437,378	10,07
437,88	9,85
438,383	9,92
438,885	9,63
439,387	9,5
439,889	9,2
440,391	9,77
440,892	9,7
441,394	9,66
441,896	9,72
442,397	9,26
442,898	9,57
443,399	10,18
443,9	9,7
444,401	9,75
444,902	9,52
445,403	9,66
445,903	9,61
446,404	9,97
446,904	9,71
447,405	9,7
447,905	10,05
448,405	9,99
448,905	9,69
449,404	9,94
449,904	9,9
450,404	9,87
450,903	9,77
451,403	9,84
451,902	10,33
452,401	10,29
452,9	10,13
453,399	9,65
453,898	10,37
454,396	10,18
454,895	10,07
455,393	10,31
455,892	9,91
456,39	9,83
456,888	10,45
457,386	9,92
457,884	9,83
458,382	10,22
458,879	10,34
459,377	10,39
459,874	10,06
460,372	10,38
460,869	10,63
461,366	10,37
461,863	9,85
462,36	10,36
462,857	10,7
463,353	10,62
463,85	10,33
464,346	10,11
464,843	10,23
465,339	10,09
465,835	10,15
466,331	10,26
466,827	9,95
467,323	10,22
467,818	10,12
468,314	9,79
468,809	9,93
469,305	10,06
469,8	10,04
470,295	10,21
470,79	10,4
471,285	10,49
471,78	10,19
472,274	10,02
472,769	10,21
473,263	10,48
473,758	10,43
474,252	10,3
474,746	10,4
475,24	10,17
475,734	9,92
476,228	10,28
476,721	10,24
477,215	10,26
477,708	10,4
478,202	10,35
478,695	10,25
479,188	10,2
479,681	10,31
480,174	10,4
480,667	10,67
481,159	10,29
481,652	10,52
482,144	10,19
482,637	10,33
483,129	10,5
483,621	10,23
484,113	10,9
484,605	10,72
485,097	10,69
485,588	10,84
486,08	10,86
486,571	10,31
487,063	10,66
487,554	10,44
488,045	10,81
488,536	10,63
489,027	10,75
489,518	10,98
490,008	10,71
490,499	10,67
490,989	10,74
491,48	10,91
491,97	10,87
492,46	10,92
492,95	11,09
493,44	10,88
493,93	11,06
494,419	11,08
494,909	11,25
495,398	11,68
495,888	11,77
496,377	11,11
496,866	11,39
497,355	11,74
497,844	11,73
498,333	11,53
498,821	11,47
499,31	12,03
499,798	11,82
500,287	12,03
500,775	11,87
501,263	12,36
501,751	12,33
502,239	12,36
502,727	12,7
503,215	12,8
503,702	12,58
504,19	13,05
504,677	13,21
505,164	13,16
505,651	13,5
506,139	13,45
506,625	13,64
507,112	13,95
507,599	14,15
508,086	14,4
508,572	14,18
509,058	14,99
509,545	14,75
510,031	14,88
510,517	15,25
511,003	15,18
511,489	15,35
511,974	16,05
512,46	16,25
512,946	16,54
513,431	16,32
513,916	17,02
514,401	17,15
514,887	17,33
515,371	17,49
515,856	18,13
516,341	18,09
516,826	18,58
517,31	18,9
517,795	19,02
518,279	19,29
518,763	20,11
519,247	19,87
519,731	20,65
520,215	20,99
520,699	21,39
521,182	21,13
521,666	22,1
522,149	22,12
522,633	22,52
523,116	22,44
523,599	23,02
524,082	23,27
524,565	23,49
525,048	24,1
525,53	24,07
526,013	24,75
526,495	24,96
526,978	25,28
527,46	25,55
527,942	25,6
528,424	26,05
528,906	26,24
529,388	26,64
529,87	26,35
530,351	26,79
530,833	27,24
531,314	27,45
531,795	27,62
532,277	27,4
532,758	27,67
533,238	27,71
533,719	27,82
534,2	28,13
534,681	27,96
535,161	28,72
535,642	28,46
536,122	28,43
536,602	28,81
537,082	29,13
537,562	29,24
538,042	28,97
538,522	29,02
539,001	29,11
539,481	28,81
539,96	29,2
540,44	28,86
540,919	29,45
541,398	29,3
541,877	29,66
542,356	29,64
542,835	29,42
543,313	29,39
543,792	29,64
544,27	29,49
544,749	29,83
545,227	29,26
545,705	29,83
546,183	29,49
546,661	29,97
547,139	29,5
547,616	29,88
548,094	30,02
548,571	29,81
549,049	29,53
549,526	30,04
550,003	30,21
550,48	30,03
550,957	30,3
551,434	30,38
551,911	30,23
552,387	30,12
552,864	30,23
553,34	30,2
553,817	30,21
554,293	30,2
554,769	30,1
555,245	30,24
555,721	29,96
556,197	30,43
556,672	30,11
557,148	29,97
557,623	30,13
558,099	29,75
558,574	30,13
559,049	29,88
559,524	29,5
559,999	29,86
560,474	29,35
560,948	29,6
561,423	29,74
561,897	29,52
562,372	29,58
562,846	29,44
563,32	29,45
563,794	29,07
564,268	28,73
564,742	28,88
565,216	28,9
565,69	28,64
566,163	28,41
566,636	28,46
567,11	28,23
567,583	27,95
568,056	27,85
568,529	27,43
569,002	27,65
569,475	27,08
569,947	27,3
570,42	26,96
570,892	26,59
571,365	26,4
571,837	26,11
572,309	26,28
572,781	26,1
573,253	25,55
573,725	25,4
574,197	25,68
574,668	25,52
575,14	25,03
575,611	24,9
576,082	24,87
576,554	24,72
577,025	24,56
577,496	24,26
577,967	24,07
578,437	23,74
578,908	23,77
579,379	23,66
579,849	23,77
580,319	23,38
580,79	23,42
581,26	23,28
581,73	23,13
582,2	22,76
582,669	23,14
583,139	22,74
583,609	22,45
584,078	22,29
584,548	22,11
585,017	22,41
585,486	21,71
585,955	21,95
586,424	21,72
586,893	21,82
587,362	21,88
587,83	21,56
588,299	21,53
588,767	21,69
589,236	21,25
589,704	21,29
590,172	21,25
590,64	20,91
591,108	20,98
591,576	21
592,043	20,73
592,511	21,14
592,978	20,92
593,446	20,78
593,913	20,6
594,38	20,76
594,847	20,76
595,314	20,58
595,781	20,46
596,248	20,4
596,715	20,48
597,181	20,25
597,647	20,43
598,114	20,16
598,58	20,28
599,046	20,24
599,512	19,96
599,978	20,3
600,444	20,41
600,91	20,11
601,375	20,17
601,841	20,09
602,306	20,07
602,771	20,02
603,236	19,69
603,702	19,83
604,167	19,5
604,631	19,44
605,096	19,78
605,561	19,65
606,025	19,22
606,49	19,26
606,954	19,2
607,418	19,49
607,882	19,03
608,347	19,06
608,81	18,94
609,274	18,97
609,738	18,98
610,202	18,99
610,665	18,69
611,128	18,67
611,592	18,59
612,055	18,33
612,518	18,12
612,981	18,11
613,444	17,94
613,907	17,91
614,369	17,93
614,832	17,79
615,294	17,73
615,757	17,38
616,219	17,48
616,681	17,52
617,143	17,15
617,605	17,21
618,067	17,11
618,529	16,89
618,99	16,95
619,452	16,97
619,913	16,89
620,375	16,68
620,836	16,65
621,297	16,7
621,758	16,65
622,219	16,61
622,68	16,52
623,14	16,52
623,601	16,24
624,061	16,14
624,522	16,4
624,982	16,33
625,442	16,32
625,902	16,15
626,362	16,18
626,822	16,27
627,282	16,07
627,742	16,17
628,201	16,23
628,661	16,05
629,12	15,99
629,579	16,12
630,038	15,94
630,497	16,19
630,956	16,09
631,415	16,06
631,874	15,92
632,332	15,73
632,791	15,89
633,249	15,71
633,708	15,68
634,166	15,79
634,624	15,59
635,082	15,68
635,54	15,56
635,998	15,44
636,455	15,44
636,913	15,32
637,37	15,17
637,828	15,21
638,285	15,07
638,742	14,83
639,199	15,03
639,656	14,81
640,113	14,58
640,57	14,38
641,027	14,49
641,483	14,48
641,94	14,05
642,396	14,08
642,852	13,98
643,309	13,87
643,765	13,32
644,221	13,56
644,676	13,6
645,132	13,47
645,588	13,32
646,043	13,19
646,499	12,9
646,954	13,11
647,409	12,74
647,864	12,58
648,319	12,71
648,774	12,43
649,229	12,44
649,684	12,41
650,139	12,18
650,593	12,21
651,047	12,16
651,502	12,16
651,956	12,11
652,41	11,94
652,864	11,97
653,318	12
653,772	11,92
654,225	11,74
654,679	12,07
655,133	11,79
655,586	11,84
656,039	11,69
656,492	11,49
656,946	11,52
657,399	11,48
657,851	11,32
658,304	11,28
658,757	11,22
659,209	11,12
659,662	10,98
660,114	11,18
660,567	11,01
661,019	10,72
661,471	10,72
661,923	10,73
662,375	10,68
662,826	10,59
663,278	10,41
663,73	10,44
664,181	10,45
664,632	10,37
665,084	10,32
665,535	10,29
665,986	10,19
666,437	10,33
666,888	10,28
667,338	10,16
667,789	10,11
668,24	10,22
668,69	10,19
669,14	10,11
669,591	10,26
670,041	10,21
670,491	10,12
670,941	10,22
671,391	10,2
671,84	10,15
672,29	10,17
672,74	10,31
673,189	10,39
673,638	10,34
674,088	10,42
674,537	10,3
674,986	10,49
675,435	10,4
675,883	10,52
676,332	10,54
676,781	10,75
677,229	10,77
677,678	10,81
678,126	10,98
678,574	11,09
679,022	11,04
679,47	11,19
679,918	11,24
680,366	11,26
680,814	11,38
681,261	11,56
681,709	11,6
682,156	11,67
682,604	11,78
683,051	11,86
683,498	11,8
683,945	12,06
684,392	12,23
684,839	12,37
685,286	12,42
685,732	12,69
686,179	12,85
686,625	12,82
687,071	12,96
687,518	13,22
687,964	13,4
688,41	13,73
688,856	13,79
689,301	14,11
689,747	14,47
690,193	14,73
690,638	15,02
691,084	15,25
691,529	15,8
691,974	16,38
692,419	16,48
692,864	17,16
693,309	17,52
693,754	17,97
694,199	18,49
694,643	18,89
695,088	19,62
695,532	20,18
695,977	20,69
696,421	21,39
696,865	21,87
697,309	22,54
697,753	23,24
698,197	23,71
698,64	24,27
699,084	24,67
699,527	25,44
699,971	26
700,414	26,65
700,857	27,23
701,3	27,72
701,743	28,26
702,186	28,89
702,629	29,43
703,072	29,86
703,515	30,79
703,957	31
704,399	31,46
704,842	31,99
705,284	32,52
705,726	33,18
706,168	33,41
706,61	34,03
707,052	34,62
707,494	34,8
707,935	35,53
708,377	36,15
708,818	36,61
709,26	36,81
709,701	37,18
710,142	37,98
710,583	38,27
711,024	38,69
711,465	38,96
711,905	39,49
712,346	39,78
712,787	40,33
713,227	40,97
713,667	41,35
714,108	41,64
714,548	42,14
714,988	42,6
715,428	42,74
715,868	43,08
716,307	43,75
716,747	43,95
717,186	44,24
717,626	44,49
718,065	44,71
718,504	45,14
718,944	45,57
719,383	45,76
719,822	46,18
720,261	46,64
720,699	46,73
721,138	46,93
721,576	47,45
722,015	47,53
722,453	47,85
722,892	48,27
723,33	48,24
723,768	48,7
724,206	48,88
724,644	48,99
725,081	49,28
725,519	49,44
725,957	49,71
726,394	50,07
726,832	50,29
727,269	50,21
727,706	50,9
728,143	50,73
728,58	50,92
729,017	51,12
729,454	50,95
729,89	51,05
730,327	51,61
730,764	51,55
731,2	51,82
731,636	51,84
732,072	51,89
732,509	52,19
732,945	52,36
733,38	52,76
733,816	52,58
734,252	52,59
734,688	52,52
735,123	52,65
735,559	52,79
735,994	53,27
736,429	53,28
736,864	53,08
737,299	53,28
737,734	53,32
738,169	53,47
738,604	53,32
739,038	53,34
739,473	53,71
739,907	53,84
740,342	53,4
740,776	53,85
741,21	53,99
741,644	54,03
742,078	53,68
742,512	53,98
742,946	53,81
743,379	53,85
743,813	53,86
744,246	53,76
744,68	53,74
745,113	53,81
745,546	53,93
745,979	53,69
746,412	54
746,845	53,73
747,278	53,61
747,711	53,8
748,143	53,58
748,576	53,74
749,008	53,72
749,441	53,86
749,873	53,41
750,305	53,76
750,737	53,34
751,169	53,66
751,601	53,89
752,032	53,45
752,464	53,72
752,896	53,71
753,327	53,69
753,758	53,5
754,19	53,27
754,621	53,61
755,052	53,2
755,483	53,64
755,914	53,29
756,344	53,47
756,775	53,34
757,206	53,31
757,636	53,32
758,066	53,57
758,497	53,34
758,927	53,05
759,357	53,36
759,787	53,28
760,217	53,13
760,647	52,99
761,076	53,01
761,506	53,26
761,935	53,23
762,365	52,92
762,794	52,7
763,223	53,03
763,653	53,17
764,082	52,69
764,51	52,93
764,939	52,47
765,368	52,67
765,797	52,39
766,225	52,8
766,654	52,73
767,082	52,81
767,51	52,76
767,938	52,53
768,367	52,22
768,795	52,4
769,222	52,74
769,65	52,42
770,078	52,65
770,505	52,56
770,933	52,25
771,36	52,08
771,788	52
772,215	52,4
772,642	52,6
773,069	52,46
773,496	52,19
773,923	52,62
774,349	52,33
774,776	52,44
775,203	52,29
775,629	52,24
776,055	52,14
776,482	52,34
776,908	52,12
777,334	52,18
777,76	52,11
778,186	51,98
778,611	51,79
779,037	52,17
779,463	51,97
779,888	51,97
780,314	52,12
780,739	51,84
781,164	52,03
781,589	52,18
782,014	52,06
782,439	52,11
782,864	51,66
783,289	51,85
783,713	51,91
784,138	52,09
784,562	51,99
784,987	51,99
785,411	51,8
785,835	51,9
786,259	51,92
786,683	51,89
787,107	52,14
787,531	52,05
787,954	51,89
788,378	51,69
788,802	51,86
789,225	51,6
789,648	51,81
790,071	52,08
790,495	51,78
790,918	51,76
791,34	51,98
791,763	51,91
792,186	51,8
792,609	51,76
793,031	51,92
793,454	51,79
793,876	51,67
794,298	51,64
794,721	52,03
795,143	51,6
795,565	51,46
795,986	51,64
796,408	51,9
796,83	51,42
797,252	51,49
797,673	51,51
798,094	51,7
798,516	52,08
798,937	51
799,358	51,53
799,779	51,46
800,2	51,66
800,621	51,34
801,042	51,77
801,462	51,7
801,883	51,84
802,303	51,43
802,724	51,2
803,144	51,7
803,564	51,39
803,984	51,56
804,404	51,3
804,824	51,93
805,244	51,51
805,664	51,33
806,084	51,29
806,503	51,46
806,923	51,39
807,342	51,4
807,761	51,29
808,18	51,66
808,599	51,4
809,018	51,51
809,437	51,3
809,856	51,46
810,275	51,55
810,693	51,36
811,112	51,48
811,53	51,49
811,949	51,39
812,367	51,26
812,785	51,33
813,203	51,15
813,621	51,1
814,039	51,07
814,457	51,39
814,874	51,23
815,292	51,61
815,709	51,55
816,127	51,04
816,544	51,53
816,961	51,29
817,378	51,67
817,795	51,39
818,212	51,33
818,629	51,12
819,046	51,43
819,462	51,15
819,879	51,41
820,295	51,22
820,712	51,33
821,128	51,37
821,544	50,86
821,96	51,25
822,376	51,08
822,792	51,28
823,208	51,14
823,624	51,09
824,039	50,96
824,455	51,24
824,87	51,38
825,286	51,2
825,701	51,26
826,116	51,15
826,531	50,94
826,946	50,99
827,361	51,35
827,776	51,16
828,19	51,22
828,605	51,01
829,02	51,12
829,434	51
829,848	51,07
830,263	51,15
830,677	51,01
831,091	51,55
831,505	51,04
831,919	51,61
832,332	50,94
832,746	51,2
833,16	50,87
833,573	50,95
833,987	51,16
834,4	51,16
834,813	51,22
835,226	50,97
835,639	51,04
