Data from L_5__Relative__8__00205.txt Node

Date: Mon Jan 29 18:32:53 CET 2024
User: diatiterra
Spectrometer: HDX00911
Trigger mode: 0
Integration Time (sec): 6,000000E-3
Scans to average: 2
Nonlinearity correction enabled: false
Boxcar width: 0
Storing dark spectrum: false
XAxis mode: Wavelengths
Number of Pixels in Spectrum: 2068
>>>>>Begin Spectral Data<<<<<
194,468	50,98
195,025	49,56
195,581	58,51
196,138	42,31
196,694	47,13
197,251	39,56
197,807	32,8
198,363	32
198,919	31,32
199,474	23,57
200,03	29,04
200,586	26,87
201,141	34,83
201,696	27,68
202,251	29,89
202,806	29,32
203,361	27,37
203,916	34,93
204,471	25,35
205,025	22,86
205,58	27,24
206,134	29,63
206,688	22,83
207,242	29,59
207,796	31,53
208,35	29,96
208,904	28,14
209,457	29,96
210,011	29,72
210,564	32,99
211,117	29,93
211,67	32,04
212,223	23,63
212,776	34,83
213,329	22,68
213,881	30
214,434	26,21
214,986	31,31
215,538	30,04
216,09	27,87
216,642	34,81
217,194	28,15
217,746	28,62
218,297	29,87
218,849	28,35
219,4	40,56
219,951	33,45
220,502	25,44
221,053	26,65
221,604	34,56
222,155	26,34
222,705	34,78
223,256	29,86
223,806	36,39
224,356	31,16
224,906	24,44
225,456	27,59
226,006	23,49
226,556	33,94
227,106	27,27
227,655	33,8
228,204	31,91
228,754	29,66
229,303	32,88
229,852	27,12
230,401	30,82
230,949	33,85
231,498	29,85
232,047	27,95
232,595	37,59
233,143	30,68
233,691	30
234,239	27,61
234,787	29,02
235,335	27,55
235,883	28,67
236,43	31,11
236,978	29,82
237,525	36,19
238,072	22,51
238,619	23,97
239,166	27,27
239,713	31,23
240,26	33,33
240,806	28,72
241,353	30,74
241,899	28,8
242,445	34,27
242,991	29,97
243,537	33,33
244,083	32,73
244,629	27,7
245,174	37,69
245,72	30,1
246,265	27,56
246,81	36,13
247,355	26,1
247,9	31,83
248,445	37,59
248,99	32,53
249,534	31,01
250,079	35,82
250,623	23,39
251,168	27,85
251,712	43,26
252,256	35,22
252,8	39,58
253,343	32,48
253,887	26,19
254,43	36,8
254,974	34,27
255,517	35,91
256,06	27,4
256,603	27,92
257,146	34,01
257,689	31,33
258,232	33,72
258,774	27,68
259,317	33,33
259,859	29,15
260,401	32,2
260,943	34,33
261,485	36,88
262,027	34,48
262,569	34,21
263,11	31,05
263,652	29,78
264,193	30,36
264,734	32,94
265,275	27,71
265,816	32,73
266,357	31,29
266,898	22,18
267,438	28,24
267,979	32,36
268,519	33,21
269,059	32,27
269,6	34,74
270,14	31,35
270,68	31,03
271,219	30,18
271,759	25,75
272,298	22,91
272,838	31,78
273,377	31,48
273,916	26,35
274,455	35,25
274,994	21,94
275,533	31,06
276,072	25,19
276,61	34,13
277,149	30,8
277,687	28,47
278,225	27,74
278,763	30,8
279,301	31,7
279,839	26,45
280,377	29,2
280,914	27,84
281,452	40,65
281,989	30,72
282,526	30,82
283,064	36,46
283,601	33,33
284,137	31,39
284,674	40
285,211	21,22
285,747	32,2
286,284	31,58
286,82	29,08
287,356	29,9
287,892	31,58
288,428	29,83
288,964	35,02
289,5	35,03
290,035	29,86
290,571	28,36
291,106	27,27
291,641	31,42
292,176	27,44
292,711	33,1
293,246	33,21
293,781	27,14
294,315	33,82
294,85	36,5
295,384	34,81
295,918	28,22
296,453	24,03
296,987	27,24
297,52	29,45
298,054	20,96
298,588	28,35
299,121	26,01
299,655	28,42
300,188	36,12
300,721	33,1
301,254	27,05
301,787	29,67
302,32	32,95
302,853	30,31
303,385	30,04
303,918	24,21
304,45	32,05
304,982	28,69
305,514	31,73
306,046	31,23
306,578	26,43
307,11	36,43
307,641	34,91
308,173	30,48
308,704	36,02
309,236	32,58
309,767	25
310,298	29,62
310,829	36,5
311,359	32,03
311,89	33,81
312,421	28,62
312,951	40,36
313,481	39,36
314,012	32,97
314,542	34,59
315,072	30,18
315,601	34,52
316,131	27,37
316,661	36,67
317,19	30,25
317,72	27,84
318,249	32,43
318,778	34,6
319,307	35,14
319,836	37,92
320,365	32,57
320,893	33,33
321,422	30,97
321,95	34,44
322,479	35,64
323,007	25,72
323,535	36,23
324,063	42,54
324,591	26,67
325,118	29,02
325,646	31,92
326,173	36,43
326,701	28,36
327,228	30,67
327,755	30,11
328,282	30,94
328,809	28,52
329,336	27,34
329,862	36,15
330,389	32,76
330,915	32,98
331,441	24,75
331,968	28,52
332,494	29,77
333,02	26,28
333,545	25,99
334,071	28
334,597	31,08
335,122	27,42
335,648	35,9
336,173	32,01
336,698	27,4
337,223	34,81
337,748	27,02
338,272	18,48
338,797	30,74
339,322	17,61
339,846	24,61
340,37	22,34
340,894	33,22
341,419	29,53
341,942	33,56
342,466	33,11
342,99	23,08
343,514	17,53
344,037	26,23
344,56	23,2
345,084	24,29
345,607	26,44
346,13	20,62
346,653	24,21
347,175	30,32
347,698	17,56
348,221	27,03
348,743	25,95
349,265	20,83
349,787	19,14
350,309	27
350,831	23,58
351,353	25,4
351,875	26,97
352,397	27
352,918	22,32
353,439	28,73
353,961	22,82
354,482	26,69
355,003	26,01
355,524	26,79
356,044	23,48
356,565	28,43
357,086	19,08
357,606	22,17
358,126	23,11
358,646	19,15
359,167	21,38
359,687	21,93
360,206	22,41
360,726	20,08
361,246	24,34
361,765	19,74
362,285	20,38
362,804	23,11
363,323	18,12
363,842	25,48
364,361	22,29
364,88	18,99
365,398	18,98
365,917	22,79
366,435	18,88
366,954	22,65
367,472	22,81
367,99	17,66
368,508	18,95
369,026	16,09
369,544	17,27
370,061	18,98
370,579	17,82
371,096	19,16
371,613	16,7
372,131	21,13
372,648	16,43
373,165	20,97
373,681	16,99
374,198	16,07
374,715	15,45
375,231	14,79
375,747	18,68
376,264	13,58
376,78	17,7
377,296	14,4
377,812	16,02
378,327	16,89
378,843	18,46
379,359	13,48
379,874	17,21
380,389	17,06
380,905	17,11
381,42	16,45
381,935	15,87
382,449	16,14
382,964	16,32
383,479	17,62
383,993	13,58
384,508	15,57
385,022	14,82
385,536	12,3
386,05	16,56
386,564	15,63
387,078	13,61
387,592	15,21
388,105	12,68
388,619	15,24
389,132	13,12
389,645	13,31
390,158	10,94
390,671	14,51
391,184	11,28
391,697	10,41
392,21	14,62
392,722	10,06
393,235	11,62
393,747	11,8
394,259	10,79
394,771	10,73
395,283	9,16
395,795	11,65
396,307	10,22
396,818	11,65
397,33	10,21
397,841	10,32
398,353	9,26
398,864	10,96
399,375	8,4
399,886	8,99
400,397	8,13
400,907	9,76
401,418	8,01
401,928	8,28
402,439	9,24
402,949	8,24
403,459	8,13
403,969	8,84
404,479	7,1
404,989	7,66
405,498	7,92
406,008	6,95
406,517	6,88
407,027	6,14
407,536	6,45
408,045	6,52
408,554	5,48
409,063	5,44
409,572	5,47
410,08	6,07
410,589	5,57
411,097	5,35
411,606	5,66
412,114	5,64
412,622	4,88
413,13	5,12
413,638	4,23
414,145	4,01
414,653	4,44
415,16	4,69
415,668	4,72
416,175	4,3
416,682	4,39
417,189	3,86
417,696	4,06
418,203	4,06
418,71	3,71
419,216	4,01
419,723	3,5
420,229	3,8
420,735	3,77
421,242	3,35
421,748	3,98
422,254	3,09
422,759	3,55
423,265	3,25
423,771	3,22
424,276	3,83
424,781	3,27
425,287	3,76
425,792	3,41
426,297	3,71
426,802	3,13
427,306	3,29
427,811	3,26
428,316	3,38
428,82	2,72
429,324	3,15
429,829	3,54
430,333	2,75
430,837	2,92
431,34	2,88
431,844	2,9
432,348	2,65
432,851	2,68
433,355	2,57
433,858	2,56
434,361	2,8
434,864	2,86
435,367	2,69
435,87	2,7
436,373	2,77
436,876	2,64
437,378	2,89
437,88	2,49
438,383	2,62
438,885	2,58
439,387	2,63
439,889	2,61
440,391	2,9
440,892	2,68
441,394	2,79
441,896	2,9
442,397	2,44
442,898	2,45
443,399	2,74
443,9	2,75
444,401	2,62
444,902	2,7
445,403	2,4
445,903	2,63
446,404	2,65
446,904	2,64
447,405	2,54
447,905	2,67
448,405	2,59
448,905	2,69
449,404	2,66
449,904	2,78
450,404	2,56
450,903	2,45
451,403	2,68
451,902	2,68
452,401	2,8
452,9	2,68
453,399	2,69
453,898	2,68
454,396	2,76
454,895	2,44
455,393	2,58
455,892	2,93
456,39	2,78
456,888	2,66
457,386	2,55
457,884	2,87
458,382	2,7
458,879	2,64
459,377	2,45
459,874	2,59
460,372	2,49
460,869	2,62
461,366	2,71
461,863	2,73
462,36	2,61
462,857	2,8
463,353	2,63
463,85	2,56
464,346	2,68
464,843	2,47
465,339	2,73
465,835	2,56
466,331	2,55
466,827	2,56
467,323	2,54
467,818	2,69
468,314	2,61
468,809	2,55
469,305	2,42
469,8	2,5
470,295	2,81
470,79	2,74
471,285	2,31
471,78	2,48
472,274	2,52
472,769	2,47
473,263	2,45
473,758	2,64
474,252	2,46
474,746	2,78
475,24	2,69
475,734	2,71
476,228	2,74
476,721	2,67
477,215	2,52
477,708	2,59
478,202	2,73
478,695	2,43
479,188	2,61
479,681	2,68
480,174	2,68
480,667	2,77
481,159	2,61
481,652	2,5
482,144	2,75
482,637	2,68
483,129	2,69
483,621	2,69
484,113	2,77
484,605	2,72
485,097	2,63
485,588	2,62
486,08	2,73
486,571	2,67
487,063	2,78
487,554	2,71
488,045	2,82
488,536	2,64
489,027	2,8
489,518	2,7
490,008	2,87
490,499	2,73
490,989	2,82
491,48	2,74
491,97	2,82
492,46	2,83
492,95	3
493,44	2,93
493,93	2,93
494,419	3,09
494,909	2,96
495,398	2,99
495,888	3,08
496,377	2,98
496,866	3,15
497,355	3,11
497,844	3,33
498,333	3,3
498,821	3,24
499,31	3,43
499,798	3,31
500,287	3,34
500,775	3,39
501,263	3,45
501,751	3,41
502,239	3,47
502,727	3,84
503,215	3,72
503,702	3,84
504,19	3,95
504,677	3,83
505,164	4,04
505,651	4,07
506,139	4,08
506,625	4,12
507,112	4,47
507,599	4,5
508,086	4,75
508,572	4,7
509,058	4,69
509,545	4,86
510,031	5,03
510,517	5,06
511,003	5,23
511,489	5,38
511,974	5,57
512,46	5,63
512,946	5,79
513,431	5,84
513,916	6,07
514,401	6,12
514,887	6,45
515,371	6,41
515,856	6,61
516,341	6,83
516,826	7,13
517,31	7,28
517,795	7,7
518,279	7,48
518,763	7,91
519,247	7,85
519,731	8,24
520,215	8,27
520,699	8,56
521,182	8,6
521,666	9,04
522,149	9,02
522,633	9,24
523,116	9,55
523,599	9,88
524,082	9,69
524,565	10,09
525,048	10,06
525,53	10,37
526,013	10,35
526,495	10,8
526,978	10,85
527,46	10,98
527,942	11,2
528,424	11,19
528,906	11,21
529,388	11,66
529,87	11,69
530,351	11,58
530,833	12,02
531,314	11,99
531,795	11,75
532,277	12,34
532,758	12,35
533,238	12,35
533,719	12,24
534,2	12,63
534,681	12,83
535,161	12,58
535,642	12,75
536,122	12,76
536,602	13,06
537,082	12,88
537,562	12,93
538,042	12,93
538,522	12,87
539,001	13,09
539,481	13,04
539,96	13,11
540,44	13,17
540,919	13,26
541,398	13,16
541,877	13,24
542,356	13,32
542,835	13,35
543,313	13,41
543,792	13,49
544,27	13,52
544,749	13,49
545,227	13,55
545,705	13,52
546,183	13,54
546,661	13,62
547,139	13,5
547,616	13,58
548,094	13,57
548,571	13,73
549,049	13,87
549,526	13,68
550,003	13,72
550,48	13,95
550,957	13,86
551,434	13,56
551,911	13,86
552,387	13,85
552,864	13,82
553,34	13,82
553,817	13,75
554,293	13,84
554,769	13,93
555,245	13,9
555,721	13,95
556,197	13,65
556,672	13,74
557,148	13,66
557,623	13,85
558,099	13,54
558,574	13,51
559,049	13,57
559,524	13,63
559,999	13,46
560,474	13,35
560,948	13,59
561,423	13,42
561,897	13,51
562,372	13,57
562,846	13,34
563,32	13,2
563,794	13,21
564,268	12,9
564,742	12,93
565,216	12,82
565,69	12,86
566,163	12,71
566,636	12,57
567,11	12,61
567,583	12,12
568,056	12,48
568,529	12,42
569,002	12,08
569,475	11,93
569,947	11,95
570,42	12
570,892	11,66
571,365	11,74
571,837	11,55
572,309	11,54
572,781	11,24
573,253	11,36
573,725	11,01
574,197	11,22
574,668	10,91
575,14	11
575,611	10,71
576,082	10,61
576,554	10,61
577,025	10,49
577,496	10,44
577,967	10,38
578,437	10,21
578,908	10,12
579,379	10,11
579,849	9,9
580,319	9,74
580,79	9,86
581,26	10,01
581,73	9,64
582,2	9,46
582,669	9,69
583,139	9,44
583,609	9,3
584,078	9,29
584,548	9,39
585,017	9,29
585,486	9,17
585,955	9,26
586,424	8,96
586,893	9,17
587,362	8,93
587,83	8,96
588,299	8,82
588,767	8,77
589,236	8,74
589,704	8,91
590,172	8,75
590,64	8,64
591,108	8,47
591,576	8,64
592,043	8,49
592,511	8,4
592,978	8,6
593,446	8,54
593,913	8,41
594,38	8,33
594,847	8,4
595,314	8,28
595,781	8,27
596,248	8,32
596,715	8,27
597,181	8,13
597,647	8,15
598,114	8,11
598,58	8,15
599,046	8,12
599,512	8,04
599,978	8,08
600,444	8,2
600,91	8,1
601,375	8,13
601,841	7,94
602,306	7,96
602,771	7,94
603,236	7,97
603,702	8,07
604,167	7,75
604,631	7,83
605,096	7,81
605,561	7,87
606,025	7,82
606,49	7,68
606,954	7,78
607,418	7,66
607,882	7,54
608,347	7,58
608,81	7,46
609,274	7,44
609,738	7,4
610,202	7,32
610,665	7,2
611,128	7,3
611,592	7,27
612,055	7,14
612,518	7,09
612,981	6,9
613,444	6,83
613,907	6,86
614,369	6,86
614,832	6,95
615,294	6,79
615,757	6,53
616,219	6,67
616,681	6,45
617,143	6,59
617,605	6,36
618,067	6,46
618,529	6,39
618,99	6,37
619,452	6,24
619,913	6,31
620,375	6,15
620,836	6,25
621,297	6,24
621,758	6,05
622,219	6,04
622,68	6,11
623,14	6,08
623,601	6,03
624,061	6,01
624,522	6,01
624,982	5,99
625,442	6,08
625,902	5,81
626,362	5,98
626,822	5,86
627,282	5,91
627,742	5,87
628,201	5,98
628,661	5,93
629,12	5,72
629,579	5,89
630,038	5,84
630,497	5,97
630,956	5,91
631,415	5,75
631,874	5,78
632,332	5,8
632,791	5,78
633,249	5,67
633,708	5,77
634,166	5,73
634,624	5,65
635,082	5,59
635,54	5,67
635,998	5,55
636,455	5,61
636,913	5,52
637,37	5,43
637,828	5,29
638,285	5,43
638,742	5,23
639,199	5,16
639,656	5,1
640,113	5,13
640,57	5,04
641,027	4,94
641,483	4,8
641,94	4,83
642,396	4,74
642,852	4,68
643,309	4,7
643,765	4,52
644,221	4,46
644,676	4,4
645,132	4,39
645,588	4,33
646,043	4,24
646,499	4,09
646,954	4,16
647,409	4,01
647,864	4,01
648,319	4
648,774	3,85
649,229	3,88
649,684	3,85
650,139	3,78
650,593	3,85
651,047	3,76
651,502	3,79
651,956	3,68
652,41	3,72
652,864	3,64
653,318	3,6
653,772	3,52
654,225	3,72
654,679	3,53
655,133	3,61
655,586	3,49
656,039	3,51
656,492	3,5
656,946	3,41
657,399	3,43
657,851	3,29
658,304	3,36
658,757	3,32
659,209	3,25
659,662	3,23
660,114	3,16
660,567	3,15
661,019	3,12
661,471	3,08
661,923	3,04
662,375	3,05
662,826	2,94
663,278	2,96
663,73	2,88
664,181	2,91
664,632	2,92
665,084	2,88
665,535	2,84
665,986	2,91
666,437	2,83
666,888	2,78
667,338	2,89
667,789	2,82
668,24	2,87
668,69	2,86
669,14	2,84
669,591	2,84
670,041	2,86
670,491	2,84
670,941	2,99
671,391	2,94
671,84	2,95
672,29	2,99
672,74	2,93
673,189	3,09
673,638	3,13
674,088	3,14
674,537	3,21
674,986	3,21
675,435	3,21
675,883	3,29
676,332	3,38
676,781	3,43
677,229	3,41
677,678	3,56
678,126	3,59
678,574	3,65
679,022	3,73
679,47	3,8
679,918	3,79
680,366	3,9
680,814	3,96
681,261	4,09
681,709	4,05
682,156	4,17
682,604	4,32
683,051	4,35
683,498	4,37
683,945	4,47
684,392	4,53
684,839	4,56
685,286	4,64
685,732	4,71
686,179	4,9
686,625	4,89
687,071	4,88
687,518	5
687,964	5,19
688,41	5,28
688,856	5,38
689,301	5,51
689,747	5,71
690,193	5,82
690,638	5,99
691,084	6,21
691,529	6,44
691,974	6,66
692,419	6,88
692,864	7,18
693,309	7,36
693,754	7,69
694,199	7,99
694,643	8,24
695,088	8,59
695,532	8,87
695,977	9,13
696,421	9,56
696,865	9,87
697,309	10,21
697,753	10,52
698,197	10,78
698,64	11,25
699,084	11,42
699,527	11,92
699,971	12,08
700,414	12,54
700,857	12,86
701,3	13,19
701,743	13,4
702,186	13,8
702,629	14,19
703,072	14,31
703,515	14,69
703,957	14,98
704,399	15,29
704,842	15,52
705,284	15,85
705,726	16,32
706,168	16,4
706,61	16,72
707,052	17,06
707,494	17,09
707,935	17,41
708,377	17,8
708,818	17,93
709,26	18,33
709,701	18,52
710,142	18,69
710,583	18,92
711,024	19,26
711,465	19,27
711,905	19,77
712,346	19,86
712,787	20,2
713,227	20,33
713,667	20,87
714,108	20,78
714,548	21,12
714,988	21,34
715,428	21,4
715,868	21,57
716,307	21,84
716,747	22,21
717,186	22,28
717,626	22,5
718,065	22,56
718,504	22,89
718,944	22,96
719,383	23,15
719,822	23,33
720,261	23,42
720,699	23,55
721,138	23,8
721,576	24,12
722,015	24,13
722,453	24,19
722,892	24,5
723,33	24,43
723,768	24,78
724,206	24,8
724,644	24,98
725,081	25,23
725,519	25,1
725,957	25,33
726,394	25,38
726,832	25,59
727,269	25,75
727,706	25,92
728,143	25,96
728,58	26
729,017	26,42
729,454	26,15
729,89	26,17
730,327	26,41
730,764	26,33
731,2	26,6
731,636	26,65
732,072	26,52
732,509	26,68
732,945	26,72
733,38	27,05
733,816	26,93
734,252	26,84
734,688	27,12
735,123	26,87
735,559	27,09
735,994	27,09
736,429	27,34
736,864	27,38
737,299	27,15
737,734	27,27
738,169	27,24
738,604	27,5
739,038	27,43
739,473	27,38
739,907	27,67
740,342	27,51
740,776	27,54
741,21	27,44
741,644	27,58
742,078	27,71
742,512	27,62
742,946	27,38
743,379	27,55
743,813	27,43
744,246	27,65
744,68	27,61
745,113	27,73
745,546	27,54
745,979	27,63
746,412	27,6
746,845	27,5
747,278	27,49
747,711	27,6
748,143	27,5
748,576	27,5
749,008	27,66
749,441	27,64
749,873	27,53
750,305	27,39
750,737	27,28
751,169	27,36
751,601	27,6
752,032	27,5
752,464	27,46
752,896	27,39
753,327	27,21
753,758	27,52
754,19	27,26
754,621	27,34
755,052	27,32
755,483	27,29
755,914	27,23
756,344	27,32
756,775	27,23
757,206	27,28
757,636	27,1
758,066	27,12
758,497	27,21
758,927	27,01
759,357	27,32
759,787	26,96
760,217	26,83
760,647	27,07
761,076	26,95
761,506	27,06
761,935	27,12
762,365	27,09
762,794	26,89
763,223	26,98
763,653	27,01
764,082	26,75
764,51	26,96
764,939	26,82
765,368	26,89
765,797	26,67
766,225	26,83
766,654	26,98
767,082	26,98
767,51	26,64
767,938	26,77
768,367	26,44
768,795	26,46
769,222	26,68
769,65	26,6
770,078	26,82
770,505	26,82
770,933	26,66
771,36	26,31
771,788	26,65
772,215	26,64
772,642	26,66
773,069	26,71
773,496	26,55
773,923	26,35
774,349	26,48
774,776	26,3
775,203	26,45
775,629	26,39
776,055	26,37
776,482	26,5
776,908	26,39
777,334	26,4
777,76	26,38
778,186	26,62
778,611	26,11
779,037	26,57
779,463	26,35
779,888	26,37
780,314	26,17
780,739	26,25
781,164	26,25
781,589	26,5
782,014	26,43
782,439	26,42
782,864	26,29
783,289	26,2
783,713	26,27
784,138	26,37
784,562	26,36
784,987	26,16
785,411	26
785,835	26,27
786,259	26,09
786,683	26,05
787,107	26,38
787,531	26,05
787,954	26,26
788,378	26,19
788,802	26,2
789,225	26,25
789,648	26,15
790,071	26,2
790,495	26,43
790,918	26,08
791,34	26,12
791,763	26,1
792,186	26,17
792,609	26
793,031	26,26
793,454	26,09
793,876	26,04
794,298	26,09
794,721	26,11
795,143	26,13
795,565	25,89
795,986	26,08
796,408	26,22
796,83	26,14
797,252	26,08
797,673	26,16
798,094	26,05
798,516	26,08
798,937	25,94
799,358	26,05
799,779	26,01
800,2	26,03
800,621	26,15
801,042	26,16
801,462	26
801,883	25,96
802,303	25,87
802,724	25,87
803,144	25,92
803,564	25,92
803,984	25,97
804,404	25,84
804,824	26,17
805,244	25,95
805,664	26,24
806,084	25,83
806,503	25,86
806,923	26,11
807,342	26,07
807,761	25,66
808,18	25,98
808,599	25,99
809,018	25,92
809,437	25,84
809,856	25,77
810,275	26,06
810,693	26,07
811,112	26
811,53	25,95
811,949	25,98
812,367	25,91
812,785	25,97
813,203	25,85
813,621	25,79
814,039	25,89
814,457	26
814,874	25,97
815,292	25,83
815,709	26
816,127	25,67
816,544	25,83
816,961	25,81
817,378	25,98
817,795	25,99
818,212	26
818,629	26,07
819,046	26,02
819,462	25,94
819,879	25,92
820,295	25,64
820,712	26,03
821,128	25,92
821,544	25,62
821,96	25,88
822,376	25,84
822,792	25,82
823,208	25,63
823,624	25,64
824,039	26,02
824,455	25,89
824,87	26,09
825,286	25,79
825,701	25,74
826,116	25,81
826,531	25,86
826,946	25,71
827,361	25,75
827,776	25,81
828,19	25,68
828,605	25,66
829,02	25,63
829,434	25,75
829,848	25,62
830,263	25,67
830,677	25,66
831,091	25,86
831,505	25,95
831,919	25,78
832,332	25,86
832,746	25,61
833,16	25,75
833,573	25,76
833,987	25,53
834,4	25,67
834,813	25,85
835,226	25,87
835,639	25,68
836,052	25,96
836,465	25,57
836,878	25,57
837,29	25,66
837,703	25,83
838,116	25,88
838,528	25,61
838,94	25,74
839,352	25,68
839,765	25,72
840,177	25,88
840,589	25,51
841	25,85
841,412	25,7
841,824	25,62
842,235	25,67
842,647	25,66
843,058	25,71
843,47	25,58
843,881	25,71
844,292	25,72
844,703	25,8
845,114	25,68
845,525	25,75
845,935	25,56
846,346	25,7
846,757	25,53
847,167	25,82
847,577	25,67
847,988	25,66
848,398	25,93
