Data from L_5__Relative__5__00202.txt Node

Date: Mon Jan 29 18:32:25 CET 2024
User: diatiterra
Spectrometer: HDX00911
Trigger mode: 0
Integration Time (sec): 6,000000E-3
Scans to average: 2
Nonlinearity correction enabled: false
Boxcar width: 0
Storing dark spectrum: false
XAxis mode: Wavelengths
Number of Pixels in Spectrum: 2068
>>>>>Begin Spectral Data<<<<<
194,468	74,51
195,025	63,72
195,581	87,23
196,138	66,15
196,694	64,37
197,251	55,11
197,807	65,6
198,363	56
198,919	54,09
199,474	54,64
200,03	55,15
200,586	46,26
201,141	51,69
201,696	49,83
202,251	57,93
202,806	56,02
203,361	53,33
203,916	57,53
204,471	53,17
205,025	50
205,58	56,63
206,134	52,59
206,688	52,54
207,242	48,64
207,796	55,59
208,35	44,04
208,904	48,81
209,457	63,18
210,011	55,59
210,564	55,9
211,117	52,46
211,67	47,54
212,223	49,32
212,776	64,04
213,329	52,58
213,881	45,36
214,434	51,72
214,986	46,13
215,538	53,11
216,09	51,15
216,642	57,78
217,194	52,32
217,746	49,49
218,297	47,65
218,849	47,35
219,4	54,55
219,951	57,45
220,502	50,87
221,053	44,83
221,604	53,36
222,155	53,91
222,705	48,16
223,256	53,24
223,806	58,84
224,356	58,33
224,906	38,52
225,456	48,62
226,006	49,66
226,556	55,47
227,106	50,7
227,655	56,79
228,204	48,68
228,754	50,69
229,303	50,51
229,852	52,61
230,401	53,76
230,949	64,98
231,498	58,96
232,047	54,55
232,595	47,16
233,143	63,26
233,691	55,2
234,239	54,1
234,787	46,85
235,335	47,96
235,883	59,14
236,43	47,41
236,978	63,27
237,525	49,25
238,072	46,86
238,619	44,52
239,166	55,56
239,713	59,48
240,26	62,92
240,806	51,42
241,353	57,6
241,899	52,75
242,445	56,99
242,991	55,75
243,537	53,14
244,083	56,36
244,629	57,77
245,174	61,57
245,72	52,84
246,265	51,59
246,81	58,76
247,355	53,31
247,9	51,21
248,445	57,59
248,99	51,56
249,534	53,8
250,079	60,45
250,623	48,47
251,168	54,03
251,712	61,7
252,256	56,15
252,8	57,64
253,343	55,73
253,887	56,46
254,43	54,28
254,974	54,9
255,517	56,38
256,06	51,03
256,603	58,49
257,146	54,55
257,689	52,53
258,232	53,26
258,774	54,61
259,317	52,38
259,859	51,66
260,401	56,44
260,943	51,87
261,485	56,38
262,027	54,14
262,569	60,53
263,11	52,35
263,652	57,72
264,193	51,79
264,734	57,54
265,275	56,63
265,816	48,2
266,357	58,63
266,898	50,85
267,438	58,43
267,979	55,64
268,519	54,15
269,059	60,64
269,6	54,04
270,14	52,15
270,68	53,26
271,219	52,28
271,759	52,99
272,298	41,09
272,838	53,49
273,377	47,78
273,916	61,37
274,455	57,85
274,994	52,16
275,533	47,44
276,072	55,64
276,61	56,66
277,149	43,48
277,687	49,82
278,225	52,74
278,763	52,9
279,301	61,51
279,839	48,91
280,377	54,38
280,914	48,72
281,452	55,69
281,989	51,54
282,526	54,48
283,064	50
283,601	54,55
284,137	52,92
284,674	52,45
285,211	49,28
285,747	57,97
286,284	49,47
286,82	52,84
287,356	54,64
287,892	49,47
288,428	54,92
288,964	54,51
289,5	45,24
290,035	50,72
290,571	49,63
291,106	45,09
291,641	52,87
292,176	49,62
292,711	53,45
293,246	48,74
293,781	49,44
294,315	50,37
294,85	54,74
295,384	55,19
295,918	49,13
296,453	48,41
296,987	56,55
297,52	49,66
298,054	47,43
298,588	43,7
299,121	50,55
299,655	46,32
300,188	51,33
300,721	57,59
301,254	51,25
301,787	52,44
302,32	53,03
302,853	44,95
303,385	52,38
303,918	51,93
304,45	54,05
304,982	44,62
305,514	54,24
306,046	42,11
306,578	53,21
307,11	50,19
307,641	52,36
308,173	56,51
308,704	52,11
309,236	49,81
309,767	51,67
310,298	44,95
310,829	58,94
311,359	49,11
311,89	51,25
312,421	56,52
312,951	46,55
313,481	62,65
314,012	49,08
314,542	49,66
315,072	49,82
315,601	54,09
316,131	49,27
316,661	55,83
317,19	50,53
317,72	50,18
318,249	49,32
318,778	50,57
319,307	55,74
319,836	52,68
320,365	57,33
320,893	50
321,422	53,36
321,95	54,44
322,479	58,82
323,007	56,16
323,535	57,74
324,063	50,75
324,591	44
325,118	51,4
325,646	47,69
326,173	56,43
326,701	45,82
327,228	53,35
327,755	53,76
328,282	50,19
328,809	48,15
329,336	46,02
329,862	58,46
330,389	49,49
330,915	52,48
331,441	46,78
331,968	50,17
332,494	45,82
333,02	45,99
333,545	47,65
334,071	48,67
334,597	41,89
335,122	49,83
335,648	49,45
336,173	48,18
336,698	51,71
337,223	58,36
337,748	44,91
338,272	45,21
338,797	51,78
339,322	43,52
339,846	44,92
340,37	42,86
340,894	55,14
341,419	41,95
341,942	46,98
342,466	50,85
342,99	42,77
343,514	40,26
344,037	42,3
344,56	41,38
345,084	52,05
345,607	46,2
346,13	42,77
346,653	47,48
347,175	46,77
347,698	47,32
348,221	43,6
348,743	46,06
349,265	40,77
349,787	45,43
350,309	45,45
350,831	44,48
351,353	44,18
351,875	44,38
352,397	39,67
352,918	44,07
353,439	46,07
353,961	42,25
354,482	46,91
355,003	38,07
355,524	43,37
356,044	43,01
356,565	43,89
357,086	38,17
357,606	40,24
358,126	40,15
358,646	41,04
359,167	43,73
359,687	43,63
360,206	45,06
360,726	35,15
361,246	39,28
361,765	37,06
362,285	41,71
362,804	39,78
363,323	41,28
363,842	45,24
364,361	38,74
364,88	41,35
365,398	41,06
365,917	41,07
366,435	42,06
366,954	34,47
367,472	42,43
367,99	43,33
368,508	42,38
369,026	38,95
369,544	38,55
370,061	44,64
370,579	33,4
371,096	42,7
371,613	39,63
372,131	39,26
372,648	44,58
373,165	42,81
373,681	40,11
374,198	38,52
374,715	40,1
375,231	37,04
375,747	43,97
376,264	36,9
376,78	40,67
377,296	38,13
377,812	33,83
378,327	34,96
378,843	39
379,359	36,96
379,874	34,97
380,389	34,25
380,905	35,41
381,42	35,64
381,935	35,07
382,449	35,83
382,964	36,18
383,479	36,53
383,993	35,22
384,508	34,66
385,022	35,01
385,536	31,88
386,05	32,23
386,564	31,37
387,078	30,68
387,592	30,31
388,105	30,09
388,619	28,61
389,132	31,27
389,645	31,66
390,158	27,12
390,671	29,74
391,184	27,86
391,697	27,47
392,21	28,57
392,722	27,27
393,235	28,23
393,747	28,83
394,259	24,8
394,771	26,07
395,283	24,68
395,795	26,71
396,307	26,8
396,818	26,25
397,33	25,76
397,841	25,57
398,353	24,83
398,864	22,49
399,375	21,83
399,886	25,07
400,397	22,56
400,907	21,98
401,418	21,26
401,928	21,55
402,439	20,81
402,949	20,21
403,459	20,3
403,969	19,43
404,479	19,5
404,989	18,63
405,498	19,74
406,008	16,66
406,517	17,57
407,027	17,39
407,536	16,07
408,045	15,29
408,554	15,63
409,063	15,97
409,572	14,49
410,08	13,84
410,589	14,53
411,097	13,23
411,606	13,13
412,114	12,84
412,622	12,56
413,13	11,99
413,638	11,15
414,145	11,36
414,653	11,34
415,16	11,4
415,668	10,65
416,175	10,73
416,682	10,4
417,189	9,83
417,696	10,06
418,203	9,31
418,71	9,65
419,216	9,37
419,723	9,25
420,229	9,58
420,735	9,66
421,242	8,49
421,748	9,46
422,254	8,33
422,759	8,72
423,265	8,67
423,771	8,62
424,276	8,78
424,781	8,99
425,287	7,91
425,792	8,37
426,297	8,58
426,802	8,3
427,306	8,72
427,811	8,51
428,316	8,69
428,82	8,56
429,324	8,06
429,829	8,04
430,333	7,91
430,837	7,97
431,34	7,67
431,844	7,72
432,348	8,02
432,851	7,75
433,355	7,32
433,858	6,92
434,361	7,19
434,864	7,39
435,367	7,46
435,87	7,58
436,373	7,65
436,876	7,05
437,378	7,06
437,88	7,9
438,383	7,37
438,885	7,07
439,387	7,22
439,889	6,93
440,391	7,38
440,892	7,6
441,394	7,17
441,896	7,17
442,397	7,52
442,898	7,42
443,399	7,8
443,9	7,34
444,401	7,39
444,902	7,46
445,403	7,27
445,903	7,29
446,404	7,72
446,904	7,62
447,405	7,35
447,905	7,79
448,405	7,67
448,905	7,92
449,404	7,7
449,904	7,78
450,404	7,34
450,903	7,7
451,403	7,76
451,902	7,91
452,401	7,99
452,9	7,94
453,399	8
453,898	8,16
454,396	7,68
454,895	7,86
455,393	7,77
455,892	8,16
456,39	8,6
456,888	7,86
457,386	8,16
457,884	8,58
458,382	8,14
458,879	8,33
459,377	8,19
459,874	8,11
460,372	7,92
460,869	8,21
461,366	8,2
461,863	8,16
462,36	8,29
462,857	8,16
463,353	8,28
463,85	8,15
464,346	8,37
464,843	8,35
465,339	8,24
465,835	8
466,331	7,94
466,827	8,02
467,323	7,77
467,818	8
468,314	8,17
468,809	7,99
469,305	7,85
469,8	8,32
470,295	8,3
470,79	8,16
471,285	8,1
471,78	8,16
472,274	8,19
472,769	8,21
473,263	8,09
473,758	8,23
474,252	8,44
474,746	8,03
475,24	7,91
475,734	8,33
476,228	8,57
476,721	8,35
477,215	8,08
477,708	8,3
478,202	8,48
478,695	8,04
479,188	8,14
479,681	8,23
480,174	8,41
480,667	8,56
481,159	8,36
481,652	8,46
482,144	8,19
482,637	8,52
483,129	8,61
483,621	8,59
484,113	8,68
484,605	8,71
485,097	8,3
485,588	8,44
486,08	8,84
486,571	8,55
487,063	8,64
487,554	8,57
488,045	8,87
488,536	8,84
489,027	8,92
489,518	8,88
490,008	8,96
490,499	8,76
490,989	8,89
491,48	9,3
491,97	8,93
492,46	9,1
492,95	9,3
493,44	9,37
493,93	9,44
494,419	9,52
494,909	9,66
495,398	9,53
495,888	9,89
496,377	9,93
496,866	9,96
497,355	10,14
497,844	10,17
498,333	10,22
498,821	10,28
499,31	10,33
499,798	10,62
500,287	10,75
500,775	10,85
501,263	11,06
501,751	10,99
502,239	11,6
502,727	11,72
503,215	11,84
503,702	12,07
504,19	12,23
504,677	12,38
505,164	12,78
505,651	12,79
506,139	13,36
506,625	13,13
507,112	13,54
507,599	13,87
508,086	13,93
508,572	14,26
509,058	14,66
509,545	15,06
510,031	15,49
510,517	15,56
511,003	15,92
511,489	16,22
511,974	16,53
512,46	16,88
512,946	17,09
513,431	17,19
513,916	17,39
514,401	18,22
514,887	18,53
515,371	18,86
515,856	19,25
516,341	19,46
516,826	19,89
517,31	20,12
517,795	20,87
518,279	20,82
518,763	21,51
519,247	21,48
519,731	22,47
520,215	22,88
520,699	23,39
521,182	23,54
521,666	24,12
522,149	23,88
522,633	24,91
523,116	25,33
523,599	25,4
524,082	25,59
524,565	26,03
525,048	26,36
525,53	26,36
526,013	27,15
526,495	27,27
526,978	27,45
527,46	27,94
527,942	28,38
528,424	28,51
528,906	28,27
529,388	29,15
529,87	29,3
530,351	29,41
530,833	29,84
531,314	30
531,795	30,45
532,277	30,27
532,758	30,1
533,238	30,71
533,719	30,86
534,2	30,95
534,681	30,93
535,161	31,13
535,642	31,04
536,122	30,97
536,602	31,23
537,082	31,5
537,562	31,3
538,042	31,55
538,522	31,86
539,001	31,7
539,481	31,82
539,96	31,49
540,44	31,95
540,919	32,28
541,398	31,88
541,877	32,31
542,356	32,2
542,835	32,38
543,313	32,02
543,792	32,55
544,27	31,98
544,749	32,71
545,227	32,21
545,705	32,52
546,183	32,4
546,661	32,86
547,139	32,92
547,616	32,77
548,094	33,28
548,571	32,72
549,049	32,71
549,526	32,75
550,003	33,13
550,48	33,11
550,957	33,09
551,434	33
551,911	33,01
552,387	32,63
552,864	33,24
553,34	33,08
553,817	32,76
554,293	33,09
554,769	32,79
555,245	33,43
555,721	33,01
556,197	33,09
556,672	32,56
557,148	33
557,623	33,16
558,099	32,44
558,574	32,97
559,049	32,57
559,524	32,8
559,999	32,71
560,474	32,5
560,948	32,55
561,423	32,69
561,897	32,25
562,372	32,67
562,846	32,33
563,32	32,41
563,794	31,73
564,268	31,84
564,742	31,91
565,216	31,54
565,69	31,33
566,163	31,43
566,636	31,34
567,11	30,81
567,583	30,43
568,056	30,52
568,529	30,58
569,002	30,19
569,475	29,91
569,947	29,78
570,42	29,58
570,892	29,47
571,365	29,39
571,837	29,01
572,309	28,61
572,781	28,71
573,253	28,52
573,725	28,02
574,197	28,02
574,668	27,75
575,14	27,85
575,611	27,23
576,082	27,54
576,554	27,01
577,025	26,94
577,496	26,7
577,967	26,22
578,437	26,26
578,908	26,39
579,379	26,18
579,849	26,05
580,319	25,79
580,79	25,54
581,26	25,76
581,73	25,31
582,2	25,32
582,669	24,94
583,139	25,24
583,609	24,67
584,078	24,82
584,548	24,48
585,017	24,49
585,486	24,37
585,955	24,58
586,424	24,26
586,893	24,06
587,362	23,99
587,83	23,67
588,299	23,78
588,767	23,73
589,236	23,55
589,704	23,48
590,172	23,3
590,64	23,3
591,108	23,05
591,576	23,43
592,043	22,86
592,511	23,08
592,978	22,96
593,446	22,92
593,913	22,85
594,38	22,51
594,847	22,43
595,314	22,57
595,781	22,7
596,248	22,65
596,715	22,56
597,181	22,49
597,647	22,51
598,114	22,34
598,58	22,36
599,046	22,24
599,512	22,46
599,978	22,27
600,444	22,21
600,91	21,87
601,375	22,09
601,841	21,93
602,306	22,06
602,771	21,81
603,236	21,79
603,702	21,74
604,167	21,56
604,631	21,43
605,096	21,43
605,561	21,5
606,025	21,29
606,49	21,2
606,954	21,04
607,418	21,25
607,882	21,11
608,347	20,97
608,81	21,04
609,274	20,88
609,738	20,6
610,202	20,48
610,665	20,39
611,128	20,39
611,592	20,31
612,055	20,13
612,518	19,9
612,981	19,72
613,444	19,51
613,907	19,49
614,369	19,33
614,832	19,58
615,294	19,43
615,757	19,21
616,219	19,1
616,681	18,89
617,143	18,65
617,605	18,62
618,067	18,73
618,529	18,43
618,99	18,53
619,452	18,48
619,913	18,39
620,375	18,38
620,836	18,18
621,297	18,3
621,758	17,85
622,219	17,83
622,68	18,02
623,14	17,85
623,601	17,62
624,061	17,64
624,522	17,67
624,982	17,71
625,442	17,71
625,902	17,67
626,362	17,39
626,822	17,47
627,282	17,39
627,742	17,43
628,201	17,53
628,661	17,32
629,12	17,52
629,579	17,24
630,038	17,24
630,497	17,34
630,956	17,25
631,415	17,32
631,874	17,31
632,332	17,18
632,791	17,14
633,249	16,84
633,708	16,8
634,166	16,84
634,624	16,76
635,082	16,54
635,54	16,58
635,998	16,38
636,455	16,52
636,913	16,19
637,37	16,08
637,828	16,13
638,285	15,9
638,742	15,64
639,199	15,65
639,656	15,58
640,113	15,35
640,57	15,05
641,027	15,03
641,483	14,88
641,94	14,7
642,396	14,76
642,852	14,41
643,309	14,14
643,765	13,84
644,221	13,86
644,676	13,75
645,132	13,48
645,588	13,38
646,043	13,31
646,499	12,98
646,954	12,79
647,409	12,69
647,864	12,65
648,319	12,55
648,774	12,41
649,229	12,16
649,684	12,25
650,139	12,05
650,593	11,96
651,047	12
651,502	11,95
651,956	11,88
652,41	11,78
652,864	11,55
653,318	11,64
653,772	11,63
654,225	11,52
654,679	11,38
655,133	11,5
655,586	11,27
656,039	11,09
656,492	11,1
656,946	11,06
657,399	10,95
657,851	10,83
658,304	10,7
658,757	10,7
659,209	10,55
659,662	10,38
660,114	10,3
660,567	10,2
661,019	9,96
661,471	9,93
661,923	9,8
662,375	9,76
662,826	9,64
663,278	9,48
663,73	9,46
664,181	9,32
664,632	9,21
665,084	9,28
665,535	9,13
665,986	8,92
666,437	8,87
666,888	8,78
667,338	8,92
667,789	8,88
668,24	8,94
668,69	8,8
669,14	8,81
669,591	8,79
670,041	8,67
670,491	8,8
670,941	8,65
671,391	8,82
671,84	8,69
672,29	8,89
672,74	8,91
673,189	8,99
673,638	8,98
674,088	9
674,537	9,12
674,986	9,19
675,435	9,17
675,883	9,46
676,332	9,47
676,781	9,37
677,229	9,55
677,678	9,69
678,126	9,83
678,574	9,95
679,022	9,98
679,47	10,06
679,918	10,26
680,366	10,41
680,814	10,44
681,261	10,65
681,709	10,84
682,156	10,89
682,604	11,06
683,051	11,17
683,498	11,43
683,945	11,56
684,392	11,88
684,839	12,16
685,286	12,25
685,732	12,43
686,179	12,93
686,625	12,95
687,071	13,17
687,518	13,47
687,964	14
688,41	14,14
688,856	14,6
689,301	15,03
689,747	15,49
690,193	15,79
690,638	16,24
691,084	16,92
691,529	17,27
691,974	18
692,419	18,63
692,864	19,11
693,309	19,59
693,754	20,32
694,199	20,99
694,643	21,52
695,088	22,18
695,532	23,04
695,977	23,44
696,421	24,2
696,865	24,8
697,309	25,52
697,753	26,15
698,197	26,76
698,64	27,69
699,084	28,11
699,527	28,52
699,971	29,25
700,414	29,98
700,857	30,38
701,3	31,18
701,743	31,63
702,186	32,3
702,629	32,77
703,072	33,31
703,515	33,93
703,957	34,43
704,399	34,7
704,842	35,29
705,284	35,77
705,726	36,26
706,168	36,56
706,61	37,28
707,052	37,68
707,494	37,92
707,935	38,52
708,377	38,87
708,818	39,19
709,26	39,74
709,701	40,13
710,142	40,39
710,583	40,71
711,024	41,26
711,465	41,52
711,905	42,1
712,346	42,22
712,787	42,79
713,227	42,97
713,667	43,3
714,108	43,49
714,548	44,03
714,988	44,41
715,428	44,57
715,868	44,81
716,307	45,21
716,747	45,58
717,186	45,87
717,626	46,2
718,065	46,23
718,504	46,53
718,944	46,78
719,383	47,21
719,822	47,49
720,261	47,7
720,699	47,87
721,138	48,08
721,576	48,33
722,015	48,46
722,453	48,55
722,892	49,09
723,33	48,89
723,768	49,35
724,206	49,57
724,644	49,64
725,081	49,87
725,519	49,88
725,957	50,09
726,394	50,16
726,832	50,5
727,269	50,63
727,706	50,77
728,143	50,9
728,58	50,97
729,017	50,93
729,454	50,89
729,89	50,84
730,327	51,32
730,764	51,33
731,2	51,47
731,636	51,3
732,072	51,58
732,509	51,85
732,945	52,09
733,38	52,04
733,816	51,91
734,252	52,05
734,688	52,3
735,123	52,08
735,559	52,32
735,994	52,43
736,429	52,36
736,864	52,51
737,299	52,35
737,734	52,66
738,169	52,48
738,604	52,53
739,038	52,53
739,473	52,76
739,907	52,5
740,342	52,52
740,776	52,67
741,21	52,67
741,644	52,65
742,078	52,7
742,512	53,16
742,946	52,54
743,379	52,61
743,813	52,56
744,246	52,76
744,68	52,74
745,113	52,74
745,546	52,61
745,979	52,47
746,412	52,82
746,845	52,55
747,278	52,35
747,711	52,63
748,143	52,56
748,576	52,46
749,008	52,59
749,441	52,59
749,873	52,53
750,305	52,57
750,737	52,32
751,169	52,02
751,601	52,27
752,032	51,99
752,464	51,98
752,896	52,15
753,327	52,43
753,758	52,16
754,19	52,1
754,621	51,98
755,052	51,86
755,483	52,03
755,914	52,09
756,344	51,82
756,775	51,91
757,206	52,12
757,636	51,52
758,066	51,7
758,497	51,9
758,927	51,8
759,357	51,81
759,787	51,63
760,217	51,58
760,647	51,65
761,076	51,64
761,506	51,67
761,935	51,57
762,365	51,47
762,794	51,28
763,223	51,24
763,653	51,46
764,082	51,31
764,51	51,31
764,939	51,06
765,368	51,37
765,797	51,13
766,225	51,29
766,654	51,1
767,082	51,34
767,51	50,91
767,938	51,07
768,367	50,81
768,795	50,65
769,222	50,99
769,65	50,73
770,078	51,1
770,505	50,71
770,933	50,86
771,36	50,76
771,788	50,69
772,215	50,67
772,642	51,02
773,069	51,1
773,496	50,74
773,923	50,66
774,349	50,75
774,776	50,63
775,203	50,31
775,629	50,4
776,055	50,46
776,482	50,45
776,908	50,47
777,334	50,51
777,76	50,35
778,186	50,41
778,611	50,34
779,037	50,24
779,463	50,35
779,888	50,42
780,314	50,55
780,739	50,19
781,164	50,21
781,589	50,36
782,014	50,14
782,439	50,41
782,864	50,39
783,289	50,22
783,713	49,98
784,138	50,25
784,562	50,43
784,987	50,18
785,411	49,79
785,835	50,18
786,259	50,18
786,683	50,34
787,107	50,19
787,531	49,99
787,954	50,11
788,378	50,16
788,802	49,91
789,225	49,91
789,648	50,11
790,071	50,28
790,495	50
790,918	50,09
791,34	50,21
791,763	50,03
792,186	50,01
792,609	49,77
793,031	50,26
793,454	49,64
793,876	50,25
794,298	49,8
794,721	49,8
795,143	49,78
795,565	49,64
795,986	49,89
796,408	49,99
796,83	49,97
797,252	49,82
797,673	49,98
798,094	50,19
798,516	50,15
798,937	49,66
799,358	49,84
799,779	49,96
800,2	49,8
800,621	49,61
801,042	49,89
801,462	49,96
801,883	50,14
802,303	49,61
802,724	49,57
803,144	49,68
803,564	49,59
803,984	50,02
804,404	49,56
804,824	49,81
805,244	49,84
805,664	49,92
806,084	50,04
806,503	49,39
806,923	49,82
807,342	49,91
807,761	49,9
808,18	49,61
808,599	49,6
809,018	49,79
809,437	49,7
809,856	49,73
810,275	49,82
810,693	49,59
811,112	49,81
811,53	49,83
811,949	49,98
812,367	49,51
812,785	49,77
813,203	49,56
813,621	49,85
814,039	49,65
814,457	49,73
814,874	49,68
815,292	49,75
815,709	49,66
816,127	49,23
816,544	49,79
816,961	49,85
817,378	49,67
817,795	49,68
818,212	49,44
818,629	49,61
819,046	49,57
819,462	49,8
819,879	49,76
820,295	49,33
820,712	49,86
821,128	49,67
821,544	49,44
821,96	49,59
822,376	49,49
822,792	49,48
823,208	49,66
823,624	49,54
824,039	49,65
824,455	49,82
824,87	49,61
825,286	49,58
825,701	49,5
826,116	49,8
826,531	49,32
826,946	49,52
827,361	49,48
827,776	49,88
828,19	49,42
828,605	49,65
829,02	49,73
829,434	49,53
829,848	49,51
830,263	49,35
830,677	49,3
831,091	49,68
831,505	49,73
831,919	49,67
832,332	49,56
832,746	49,43
833,16	49,33
833,573	49,15
833,987	49,44
834,4	49,27
834,813	49,26
835,226	49,44
835,639	49,46
836,052	49,32
836,465	49,49
836,878	49,19
837,29	49,05
837,703	49,21
838,116	49,33
838,528	49,38
838,94	49,2
839,352	49,46
