Data from A6__Relative__4__12-17-03-025.txt Node

Date: Fri Feb 02 12:17:03 CET 2024
User: diatiterra
Spectrometer: HDX00911
Trigger mode: 0
Integration Time (sec): 6,000000E-3
Scans to average: 2
Nonlinearity correction enabled: false
Boxcar width: 0
Storing dark spectrum: false
XAxis mode: Wavelengths
Number of Pixels in Spectrum: 2068
>>>>>Begin Spectral Data<<<<<
194,468	84,09
195,025	70,25
195,581	75
196,138	78,26
196,694	72,57
197,251	79,03
197,807	73,43
198,363	70,06
198,919	61,82
199,474	66,33
200,03	65,13
200,586	71,62
201,141	54,72
201,696	64,06
202,251	68,61
202,806	62,42
203,361	70
203,916	66,01
204,471	71,94
205,025	65,84
205,58	69,72
206,134	64,31
206,688	65,97
207,242	65,4
207,796	59,41
208,35	64,16
208,904	61,68
209,457	65,31
210,011	67,42
210,564	65,77
211,117	61,56
211,67	70,12
212,223	64,42
212,776	61,93
213,329	62,54
213,881	66,78
214,434	58,36
214,986	65,3
215,538	63,44
216,09	68,25
216,642	65,9
217,194	62,16
217,746	57,76
218,297	62,42
218,849	64,05
219,4	72,67
219,951	61,33
220,502	62,99
221,053	67,2
221,604	72,09
222,155	60,13
222,705	63,93
223,256	69,44
223,806	62,29
224,356	67,65
224,906	63,43
225,456	70,38
226,006	62,07
226,556	61,42
227,106	60,75
227,655	61,86
228,204	72,15
228,754	66,17
229,303	63,28
229,852	66,87
230,401	62,5
230,949	71,66
231,498	56,31
232,047	64,01
232,595	65,61
233,143	66,13
233,691	64,24
234,239	66,32
234,787	66,34
235,335	66,67
235,883	60,94
236,43	58,49
236,978	60,24
237,525	64,24
238,072	60,68
238,619	66,88
239,166	65,53
239,713	60,66
240,26	64,21
240,806	76,04
241,353	68,9
241,899	64,72
242,445	74,31
242,991	59,05
243,537	60,62
244,083	61,06
244,629	70,07
245,174	68,12
245,72	66,9
246,265	67,77
246,81	73,44
247,355	71,73
247,9	61,83
248,445	62,42
248,99	64,97
249,534	64,81
250,079	68,37
250,623	69,84
251,168	62,8
251,712	65,12
252,256	66,36
252,8	64,44
253,343	66,78
253,887	61,15
254,43	63,23
254,974	61,11
255,517	63,38
256,06	68,73
256,603	57,66
257,146	61,76
257,689	71,23
258,232	67,8
258,774	68,32
259,317	68,79
259,859	74,91
260,401	62,54
260,943	66,78
261,485	64,4
262,027	65,4
262,569	65,37
263,11	65,62
263,652	65,43
264,193	70,03
264,734	59,02
265,275	61,45
265,816	66,17
266,357	70,38
266,898	69,33
267,438	68,2
267,979	60,62
268,519	68,79
269,059	56,57
269,6	61,74
270,14	68,46
270,68	63,02
271,219	64,84
271,759	60,52
272,298	69,31
272,838	65,28
273,377	66,57
273,916	68,23
274,455	62,24
274,994	62,38
275,533	65,51
276,072	68,21
276,61	68,77
277,149	57,23
277,687	61,37
278,225	65,4
278,763	64,88
279,301	69,9
279,839	60,62
280,377	73,42
280,914	66,11
281,452	57,88
281,989	66,9
282,526	61,49
283,064	60,9
283,601	63,11
284,137	67,53
284,674	62,63
285,211	62,03
285,747	59,93
286,284	68,03
286,82	65,89
287,356	62,42
287,892	67,84
288,428	67,75
288,964	62,5
289,5	58,13
290,035	61,25
290,571	67,65
291,106	59,24
291,641	62,54
292,176	55,63
292,711	60,45
293,246	61,01
293,781	68,51
294,315	75,27
294,85	62,54
295,384	55,41
295,918	65,87
296,453	64,86
296,987	56,92
297,52	60,74
298,054	73,33
298,588	64,31
299,121	66,15
299,655	62,99
300,188	64,79
300,721	66,02
301,254	60,31
301,787	58,5
302,32	61,72
302,853	62,75
303,385	56,44
303,918	55,07
304,45	69,48
304,982	61,51
305,514	58,69
306,046	63,19
306,578	62,83
307,11	60,61
307,641	54,52
308,173	55,67
308,704	60,06
309,236	61,59
309,767	68,94
310,298	57,72
310,829	66,22
311,359	58,72
311,89	53,05
312,421	64,63
312,951	58,77
313,481	55,33
314,012	63,39
314,542	61,08
315,072	73,21
315,601	66,78
316,131	63,45
316,661	63,49
317,19	66,24
317,72	57,14
318,249	67,35
318,778	63,23
319,307	58,94
319,836	58,41
320,365	65,1
320,893	67,91
321,422	55,67
321,95	60,46
322,479	57,91
323,007	64,8
323,535	70,79
324,063	59,87
324,591	61,73
325,118	61,46
325,646	65,03
326,173	62,7
326,701	62,67
327,228	59,67
327,755	58,41
328,282	56,62
328,809	55,88
329,336	66,43
329,862	58,25
330,389	55,63
330,915	60,19
331,441	57,83
331,968	63,25
332,494	59,94
333,02	61,4
333,545	55,86
334,071	61,68
334,597	54,46
335,122	56,8
335,648	61,09
336,173	59,87
336,698	54,78
337,223	58,36
337,748	57,69
338,272	50,3
338,797	54,26
339,322	55,09
339,846	47,08
340,37	50,45
340,894	51,9
341,419	51,96
341,942	52,12
342,466	48,4
342,99	48,26
343,514	64,44
344,037	59,17
344,56	50,74
345,084	50,87
345,607	50,9
346,13	46,79
346,653	47,93
347,175	45,97
347,698	47,71
348,221	49,08
348,743	49,08
349,265	47,48
349,787	45,91
350,309	43,78
350,831	47,18
351,353	43,54
351,875	46,03
352,397	41,62
352,918	43,62
353,439	39,66
353,961	40,14
354,482	41,52
355,003	44,84
355,524	40,28
356,044	42,34
356,565	43,48
357,086	36,79
357,606	36,49
358,126	37,28
358,646	40,28
359,167	42,07
359,687	40,13
360,206	36,67
360,726	41,52
361,246	36,44
361,765	40,29
362,285	33,06
362,804	37,47
363,323	37,34
363,842	36,48
364,361	35,23
364,88	32,68
365,398	37,89
365,917	36,99
366,435	32,36
366,954	33,27
367,472	33,85
367,99	30,45
368,508	32,79
369,026	33,08
369,544	32,93
370,061	34,06
370,579	32,77
371,096	31,67
371,613	30,2
372,131	35,54
372,648	29,76
373,165	32,85
373,681	30,82
374,198	36,2
374,715	28,08
375,231	28,36
375,747	30,5
376,264	28,04
376,78	30,06
377,296	29,25
377,812	31,35
378,327	30,48
378,843	26,76
379,359	28,51
379,874	31,15
380,389	31,42
380,905	24,79
381,42	27,17
381,935	26,72
382,449	28,42
382,964	27,41
383,479	26,69
383,993	24,45
384,508	24,73
385,022	26,65
385,536	24,66
386,05	25,55
386,564	22,54
387,078	22,81
387,592	23
388,105	23,48
388,619	22,91
389,132	23,57
389,645	20,8
390,158	22,21
390,671	20,76
391,184	20,83
391,697	20,71
392,21	20,94
392,722	21,16
393,235	20,52
393,747	18,48
394,259	20,54
394,771	20,82
395,283	23,6
395,795	21,5
396,307	18,71
396,818	18,81
397,33	19,09
397,841	19,5
398,353	17,09
398,864	17,83
399,375	17,88
399,886	16,16
400,397	16,57
400,907	16,26
401,418	17,25
401,928	15,93
402,439	16,39
402,949	16,45
403,459	14,71
403,969	14,34
404,479	15,21
404,989	13,88
405,498	14,63
406,008	13,82
406,517	13,09
407,027	12,84
407,536	12,02
408,045	12,29
408,554	11,7
409,063	11,4
409,572	10,2
410,08	10,11
410,589	9,84
411,097	10,34
411,606	9,13
412,114	9,26
412,622	9,28
413,13	9,12
413,638	8,34
414,145	9,13
414,653	8,36
415,16	8,63
415,668	7,94
416,175	7,89
416,682	7,65
417,189	7,17
417,696	6,89
418,203	7,52
418,71	7,38
419,216	7,27
419,723	7,43
420,229	5,93
420,735	6,62
421,242	6,6
421,748	6,51
422,254	6,36
422,759	6,49
423,265	6,3
423,771	6,08
424,276	5,94
424,781	6,21
425,287	5,65
425,792	6,06
426,297	6,16
426,802	5,91
427,306	5,55
427,811	5,79
428,316	5,44
428,82	5,65
429,324	5,31
429,829	5,68
430,333	5,79
430,837	5,45
431,34	5,59
431,844	5,12
432,348	5,23
432,851	5,49
433,355	5,26
433,858	5,12
434,361	5
434,864	5,1
435,367	5,24
435,87	5,1
436,373	5,26
436,876	5,11
437,378	4,98
437,88	4,94
438,383	5,27
438,885	4,94
439,387	4,95
439,889	5,08
440,391	4,78
440,892	5,34
441,394	5,05
441,896	4,91
442,397	5,2
442,898	4,8
443,399	4,76
443,9	5,08
444,401	5,09
444,902	4,74
445,403	4,94
445,903	4,92
446,404	4,96
446,904	4,74
447,405	4,83
447,905	4,92
448,405	4,87
448,905	4,94
449,404	4,79
449,904	4,98
450,404	4,94
450,903	4,91
451,403	4,94
451,902	4,91
452,401	5,17
452,9	5,07
453,399	5,2
453,898	5,1
454,396	5,01
454,895	4,89
455,393	5,07
455,892	5,17
456,39	4,94
456,888	4,76
457,386	5,01
457,884	5,26
458,382	4,86
458,879	4,78
459,377	4,71
459,874	4,88
460,372	5
460,869	4,96
461,366	4,94
461,863	5,28
462,36	4,99
462,857	4,97
463,353	4,96
463,85	4,99
464,346	4,73
464,843	4,74
465,339	4,89
465,835	4,86
466,331	4,89
466,827	4,92
467,323	4,85
467,818	5,02
468,314	5,04
468,809	4,92
469,305	5,05
469,8	5,12
470,295	4,69
470,79	5,1
471,285	4,97
471,78	4,95
472,274	4,91
472,769	4,76
473,263	5,13
473,758	4,95
474,252	4,82
474,746	4,91
475,24	5,2
475,734	5,04
476,228	4,82
476,721	4,85
477,215	5,05
477,708	5,02
478,202	5,1
478,695	5,03
479,188	5,13
479,681	5,08
480,174	4,87
480,667	5
481,159	5,07
481,652	5,01
482,144	5,11
482,637	4,83
483,129	4,75
483,621	4,92
484,113	4,93
484,605	5,03
485,097	5,07
485,588	4,88
486,08	4,94
486,571	5,14
487,063	5,08
487,554	5,24
488,045	4,85
488,536	5
489,027	5,16
489,518	5,15
490,008	5,09
490,499	5,27
490,989	5,15
491,48	5,21
491,97	5,18
492,46	5,37
492,95	5,1
493,44	5,07
493,93	5,18
494,419	5,27
494,909	5,52
495,398	5,29
495,888	5,33
496,377	5,42
496,866	5,46
497,355	5,43
497,844	5,61
498,333	5,63
498,821	5,66
499,31	5,59
499,798	5,77
500,287	5,76
500,775	5,85
501,263	5,99
501,751	5,85
502,239	5,92
502,727	5,93
503,215	6,09
503,702	6,09
504,19	6,23
504,677	6,23
505,164	6,51
505,651	6,47
506,139	6,65
506,625	6,79
507,112	6,65
507,599	7,01
508,086	6,93
508,572	7,1
509,058	7,24
509,545	7,24
510,031	7,38
510,517	7,62
511,003	7,69
511,489	7,93
511,974	7,99
512,46	8,06
512,946	8,17
513,431	8,52
513,916	8,59
514,401	8,76
514,887	8,92
515,371	9,1
515,856	9,41
516,341	9,77
516,826	9,85
517,31	10,01
517,795	10,22
518,279	10,56
518,763	10,6
519,247	11,23
519,731	11,12
520,215	11,5
520,699	11,54
521,182	11,91
521,666	12,22
522,149	12,55
522,633	12,54
523,116	13,02
523,599	13,36
524,082	13,69
524,565	13,9
525,048	14,22
525,53	14,34
526,013	14,66
526,495	14,72
526,978	15,27
527,46	15,26
527,942	15,51
528,424	15,69
528,906	16,12
529,388	16,29
529,87	16,7
530,351	16,83
530,833	17,05
531,314	17,14
531,795	17,43
532,277	17,4
532,758	17,57
533,238	17,65
533,719	18,01
534,2	17,91
534,681	18,01
535,161	18,46
535,642	18,52
536,122	18,27
536,602	18,51
537,082	18,71
537,562	19,12
538,042	18,94
538,522	18,78
539,001	18,84
539,481	19,46
539,96	19,41
540,44	19,18
540,919	19,13
541,398	19,76
541,877	19,64
542,356	19,6
542,835	19,83
543,313	19,49
543,792	19,77
544,27	19,72
544,749	19,54
545,227	19,92
545,705	19,77
546,183	19,84
546,661	19,74
547,139	20,12
547,616	20,1
548,094	20,01
548,571	19,86
549,049	20,06
549,526	20,53
550,003	20,18
550,48	20,21
550,957	20,18
551,434	20,09
551,911	20,4
552,387	20,23
552,864	20,27
553,34	20,61
553,817	20,43
554,293	20,37
554,769	20,56
555,245	20,4
555,721	20,08
556,197	20,27
556,672	20,17
557,148	20,4
557,623	20,1
558,099	20,01
558,574	20,16
559,049	19,88
559,524	19,92
559,999	19,5
560,474	19,58
560,948	19,7
561,423	19,82
561,897	19,38
562,372	19,34
562,846	18,93
563,32	18,72
563,794	18,69
564,268	18,84
564,742	18,53
565,216	18,34
565,69	18,3
566,163	18,29
566,636	18,07
567,11	17,91
567,583	17,59
568,056	17,6
568,529	17,38
569,002	17,18
569,475	17,1
569,947	16,66
570,42	16,49
570,892	16,28
571,365	16,22
571,837	16,07
572,309	15,71
572,781	15,66
573,253	15,55
573,725	15,57
574,197	15,19
574,668	14,98
575,14	14,77
575,611	14,62
576,082	14,54
576,554	14,43
577,025	14,41
577,496	14,17
577,967	14,06
578,437	13,97
578,908	13,81
579,379	13,69
579,849	13,53
580,319	13,55
580,79	13,3
581,26	13,14
581,73	13,12
582,2	13,06
582,669	12,81
583,139	12,79
583,609	12,67
584,078	12,57
584,548	12,63
585,017	12,32
585,486	12,42
585,955	12,31
586,424	12,2
586,893	12,15
587,362	12,16
587,83	11,84
588,299	11,99
588,767	11,78
589,236	11,68
589,704	11,87
590,172	11,73
590,64	11,64
591,108	11,49
591,576	11,55
592,043	11,45
592,511	11,38
592,978	11,41
593,446	11,28
593,913	11,17
594,38	11,11
594,847	11,17
595,314	11,03
595,781	10,99
596,248	11,09
596,715	10,95
597,181	11,02
597,647	11,06
598,114	10,89
598,58	11,05
599,046	10,86
599,512	10,86
599,978	10,91
600,444	10,96
600,91	10,76
601,375	10,62
601,841	10,64
602,306	10,58
602,771	10,74
603,236	10,55
603,702	10,47
604,167	10,54
604,631	10,4
605,096	10,52
605,561	10,33
606,025	10,38
606,49	10,24
606,954	10,25
607,418	9,99
607,882	10,07
608,347	9,94
608,81	9,89
609,274	9,89
609,738	9,97
610,202	9,8
610,665	9,69
611,128	9,64
611,592	9,75
612,055	9,52
612,518	9,33
612,981	9,49
613,444	9,14
613,907	9,12
614,369	9,36
614,832	9,19
615,294	9,12
615,757	8,94
616,219	8,98
616,681	8,98
617,143	9,05
617,605	8,74
618,067	8,87
618,529	8,71
618,99	8,69
619,452	8,74
619,913	8,63
620,375	8,7
620,836	8,56
621,297	8,47
621,758	8,42
622,219	8,51
622,68	8,45
623,14	8,39
623,601	8,36
624,061	8,38
624,522	8,31
624,982	8,28
625,442	8,42
625,902	8,26
626,362	8,17
626,822	8,28
627,282	8,23
627,742	8,32
628,201	8,23
628,661	8,28
629,12	8,21
629,579	8,24
630,038	8,09
630,497	8,15
630,956	8,01
631,415	8,16
631,874	7,95
632,332	8,06
632,791	8,03
633,249	8,11
633,708	8,09
634,166	8,11
634,624	7,89
635,082	8,03
635,54	7,87
635,998	7,76
636,455	7,78
636,913	7,72
637,37	7,64
637,828	7,52
638,285	7,53
638,742	7,41
639,199	7,34
639,656	7,2
640,113	7,31
640,57	7,2
641,027	7,04
641,483	6,97
641,94	6,91
642,396	6,85
642,852	6,85
643,309	6,68
643,765	6,63
644,221	6,55
644,676	6,52
645,132	6,45
645,588	6,34
646,043	6,3
646,499	6,28
646,954	6,12
647,409	6,14
647,864	6,22
648,319	6,12
648,774	6
649,229	6,02
649,684	5,99
650,139	5,86
650,593	5,89
651,047	6,01
651,502	5,92
651,956	5,92
652,41	5,81
652,864	5,85
653,318	5,89
653,772	5,73
654,225	5,87
654,679	5,81
655,133	5,74
655,586	5,68
656,039	5,74
656,492	5,67
656,946	5,65
657,399	5,71
657,851	5,59
658,304	5,69
658,757	5,69
659,209	5,65
659,662	5,62
660,114	5,7
660,567	5,58
661,019	5,61
661,471	5,53
661,923	5,53
662,375	5,53
662,826	5,5
663,278	5,46
663,73	5,41
664,181	5,52
664,632	5,52
665,084	5,54
665,535	5,52
665,986	5,5
666,437	5,49
666,888	5,59
667,338	5,57
667,789	5,61
668,24	5,57
668,69	5,64
669,14	5,65
669,591	5,76
670,041	5,81
670,491	5,78
670,941	5,84
671,391	5,96
671,84	6,08
672,29	6,01
672,74	6,17
673,189	6,18
673,638	6,36
674,088	6,41
674,537	6,45
674,986	6,46
675,435	6,62
675,883	6,62
676,332	6,78
676,781	6,87
677,229	7
677,678	6,95
678,126	7,1
678,574	7,29
679,022	7,23
679,47	7,47
679,918	7,57
680,366	7,73
680,814	7,87
681,261	7,86
681,709	8,14
682,156	8,14
682,604	8,34
683,051	8,33
683,498	8,4
683,945	8,48
684,392	8,49
684,839	8,76
685,286	8,63
685,732	8,68
686,179	8,86
686,625	8,87
687,071	8,95
687,518	8,98
687,964	9
688,41	9,15
688,856	9,26
689,301	9,36
689,747	9,42
690,193	9,58
690,638	9,73
691,084	9,95
691,529	10,26
691,974	10,44
692,419	10,65
692,864	10,99
693,309	11,18
693,754	11,52
694,199	11,97
694,643	12,47
695,088	12,94
695,532	13,27
695,977	13,81
696,421	14,3
696,865	14,85
697,309	15,34
697,753	15,97
698,197	16,55
698,64	17,09
699,084	17,75
699,527	18,43
699,971	19,13
700,414	19,63
700,857	20,25
701,3	20,98
701,743	21,75
702,186	22,3
702,629	23,14
703,072	23,84
703,515	24,45
703,957	25,22
704,399	25,89
704,842	26,66
705,284	27,24
705,726	28
706,168	28,55
706,61	29,48
707,052	30,37
707,494	30,9
707,935	31,5
708,377	32,22
708,818	33,21
709,26	33,92
709,701	34,4
710,142	35,34
710,583	35,8
711,024	36,6
711,465	37,17
711,905	38,29
712,346	38,86
712,787	39,7
713,227	40,25
713,667	40,97
714,108	41,73
714,548	42,1
714,988	43,26
715,428	43,66
715,868	44,67
716,307	45,27
716,747	45,79
717,186	46,51
717,626	47,16
718,065	47,84
718,504	48,68
718,944	49,41
719,383	50,34
719,822	50,79
720,261	51,28
720,699	52,01
721,138	52,56
721,576	53,28
722,015	54,05
722,453	54,54
722,892	55,17
723,33	55,59
723,768	56,27
724,206	56,75
724,644	57,83
725,081	58,32
725,519	58,46
725,957	58,72
726,394	59,45
726,832	60
727,269	60,38
727,706	60,73
728,143	61,37
728,58	62,05
729,017	62,39
729,454	62,78
729,89	63,73
730,327	63,79
730,764	63,97
731,2	64,49
731,636	64,95
732,072	65,33
732,509	65,49
732,945	65,82
733,38	66,18
733,816	66,44
734,252	66,86
734,688	67,28
735,123	67,5
735,559	68,07
735,994	67,87
736,429	68,32
736,864	68,54
737,299	68,79
737,734	68,83
738,169	69,13
738,604	68,88
739,038	69,41
739,473	69,32
739,907	70,07
740,342	69,77
740,776	70,39
741,21	70,41
741,644	70,64
742,078	70,56
742,512	70,74
742,946	71,07
743,379	70,89
743,813	70,82
744,246	71,16
744,68	70,74
745,113	71,51
745,546	71,3
745,979	71,18
746,412	71,31
746,845	71,54
747,278	71,42
747,711	71,44
748,143	71,7
748,576	71,86
749,008	72,14
749,441	71,57
749,873	71,51
750,305	71,75
750,737	71,57
751,169	71,33
751,601	71,83
752,032	71,58
752,464	71,18
752,896	71,87
753,327	71,76
753,758	71,52
754,19	71,75
754,621	72,04
755,052	71,63
755,483	71,65
755,914	71,44
756,344	71,33
756,775	71,64
757,206	71,55
757,636	71,56
758,066	71,44
758,497	71,37
758,927	71,37
759,357	71,32
759,787	71,61
760,217	71,39
760,647	71
761,076	71,16
761,506	70,84
761,935	71,15
762,365	71,04
762,794	71,26
763,223	71,39
763,653	71,3
764,082	70,86
764,51	70,84
764,939	70,97
765,368	70,82
765,797	70,94
766,225	70,9
766,654	70,74
767,082	70,72
767,51	70,6
767,938	70,86
768,367	70,44
768,795	70,49
769,222	70,54
769,65	70,3
770,078	70,49
770,505	70,76
770,933	70,23
771,36	70,11
771,788	70,36
772,215	70,29
772,642	70,48
773,069	70,44
773,496	70,4
773,923	70,36
774,349	70,27
774,776	70,13
775,203	70,06
775,629	69,97
776,055	70,13
776,482	70,03
776,908	69,89
777,334	70,24
777,76	69,9
778,186	69,83
778,611	69,56
779,037	69,83
779,463	69,65
779,888	69,77
780,314	70,21
780,739	70,12
781,164	69,81
781,589	69,84
782,014	69,67
782,439	70,11
782,864	69,68
783,289	69,57
783,713	69,77
784,138	69,97
784,562	69,86
784,987	69,51
785,411	69,84
785,835	69,82
786,259	69,46
786,683	69,73
787,107	69,54
787,531	69,46
787,954	69,79
788,378	69,72
788,802	69,75
789,225	69,48
789,648	69,56
790,071	69,68
790,495	69,57
790,918	69,58
791,34	69,43
791,763	69,69
792,186	69,25
792,609	69,74
793,031	69,34
793,454	69,36
793,876	69,62
794,298	69,59
794,721	69,29
795,143	69,73
795,565	69,39
795,986	69,08
796,408	69,05
796,83	69,45
797,252	69,43
797,673	69,24
798,094	69,27
798,516	69,39
798,937	69,18
799,358	69,33
799,779	69,26
800,2	69,12
800,621	69,13
801,042	69,64
801,462	69,63
801,883	69,29
802,303	69,25
802,724	68,99
803,144	69,53
803,564	69,27
803,984	69,35
804,404	69,58
804,824	69,42
805,244	69,54
805,664	69,11
806,084	69,61
806,503	69,17
806,923	69,07
807,342	69,14
807,761	69,4
808,18	69,21
808,599	69,26
809,018	69,6
809,437	68,97
809,856	69,19
810,275	69,09
810,693	69,17
811,112	69,62
811,53	68,98
811,949	69,29
812,367	68,78
812,785	69,4
813,203	69,12
813,621	68,98
814,039	69,16
814,457	68,96
814,874	69,01
815,292	69,25
815,709	69,13
816,127	69,26
816,544	68,77
816,961	69,13
817,378	68,92
817,795	69,18
818,212	68,84
818,629	69,19
819,046	69,13
819,462	68,88
819,879	68,86
820,295	68,97
820,712	68,95
821,128	69,04
821,544	68,79
821,96	68,85
822,376	68,9
822,792	68,88
823,208	68,84
823,624	68,54
824,039	69,13
824,455	69,18
824,87	68,89
825,286	69,01
825,701	69,09
826,116	69,15
826,531	68,5
826,946	69,28
827,361	69,04
827,776	68,98
828,19	69,26
828,605	69,21
829,02	68,83
829,434	69,16
829,848	68,83
830,263	68,38
830,677	68,94
831,091	68,8
831,505	68,73
831,919	68,89
832,332	68,75
832,746	68,85
833,16	68,74
833,573	68,77
833,987	68,66
834,4	68,98
834,813	68,88
835,226	68,61
835,639	68,76
836,052	68,69
836,465	69,08
836,878	68,96
837,29	68,69
837,703	68,85
838,116	68,67
838,528	68,82
838,94	68,81
839,352	68,81
839,765	68,48
840,177	68,35
840,589	68,75
841	68,75
841,412	68,74
841,824	68,72
842,235	68,5
842,647	68,43
843,058	68,87
843,47	68,74
843,881	68,64
844,292	68,77
