Data from A6__Relative__1__12-16-49-476.txt Node

Date: Fri Feb 02 12:16:49 CET 2024
User: diatiterra
Spectrometer: HDX00911
Trigger mode: 0
Integration Time (sec): 6,000000E-3
Scans to average: 2
Nonlinearity correction enabled: false
Boxcar width: 0
Storing dark spectrum: false
XAxis mode: Wavelengths
Number of Pixels in Spectrum: 2068
>>>>>Begin Spectral Data<<<<<
194,468	65,91
195,025	58,68
195,581	66,13
196,138	62,61
196,694	59,92
197,251	57,66
197,807	57,69
198,363	51,91
198,919	49,09
199,474	60
200,03	47,7
200,586	55,41
201,141	51,26
201,696	54,06
202,251	53,4
202,806	53,73
203,361	58,21
203,916	57,43
204,471	60,97
205,025	52,17
205,58	56,47
206,134	51,38
206,688	50,45
207,242	54,6
207,796	51,18
208,35	47,59
208,904	54,49
209,457	53,06
210,011	50,14
210,564	53,87
211,117	47,75
211,67	50,91
212,223	53,07
212,776	49,24
213,329	54,8
213,881	55,59
214,434	53,26
214,986	53,94
215,538	50,15
216,09	46,98
216,642	54,75
217,194	55,86
217,746	49,43
218,297	52,23
218,849	48,64
219,4	52
219,951	45,92
220,502	49,85
221,053	53,82
221,604	53,82
222,155	49,68
222,705	50,49
223,256	52,82
223,806	57,91
224,356	54,9
224,906	63,43
225,456	56,69
226,006	47,65
226,556	55,25
227,106	46,73
227,655	55,26
228,204	53,02
228,754	51,63
229,303	57,38
229,852	50,77
230,401	50,33
230,949	55,1
231,498	45,23
232,047	50
232,595	54,78
233,143	50,48
233,691	57,91
234,239	49,65
234,787	60,4
235,335	55,87
235,883	51,88
236,43	55,03
236,978	47,71
237,525	48,01
238,072	50,77
238,619	46,75
239,166	56,83
239,713	50,45
240,26	51,84
240,806	61,46
241,353	54,85
241,899	52,1
242,445	52,08
242,991	47,94
243,537	54,37
244,083	48,91
244,629	56,91
245,174	58,39
245,72	58,54
246,265	47,59
246,81	55,08
247,355	59,72
247,9	48,9
248,445	54,78
248,99	57,14
249,534	53,31
250,079	50,16
250,623	52,79
251,168	55,18
251,712	58,02
252,256	52,65
252,8	53,02
253,343	53,42
253,887	49,04
254,43	51,94
254,974	46,53
255,517	52,46
256,06	49,84
256,603	46,85
257,146	52,98
257,689	47,26
258,232	60,34
258,774	58,09
259,317	51,91
259,859	55,05
260,401	53,02
260,943	52,44
261,485	55,11
262,027	45,71
262,569	51,13
263,11	48,44
263,652	55,56
264,193	53,09
264,734	58,03
265,275	47,89
265,816	47,48
266,357	49,83
266,898	58
267,438	53,44
267,979	52,92
268,519	48,99
269,059	54,13
269,6	55,36
270,14	60,4
270,68	52,73
271,219	54,84
271,759	48,22
272,298	60,4
272,838	49,26
273,377	50,15
273,916	58,19
274,455	53,47
274,994	43,89
275,533	61,32
276,072	54,32
276,61	58,04
277,149	50,63
277,687	50,78
278,225	54,29
278,763	54,85
279,301	59,52
279,839	52,81
280,377	56,81
280,914	54,15
281,452	44,37
281,989	58,62
282,526	50,31
283,064	50,32
283,601	50,16
284,137	60,06
284,674	44,98
285,211	58,54
285,747	54,55
286,284	53,29
286,82	53,18
287,356	50
287,892	56,08
288,428	53,42
288,964	49,67
289,5	51,56
290,035	49,83
290,571	64,05
291,106	54,14
291,641	46,82
292,176	53,31
292,711	47,27
293,246	54,87
293,781	41,88
294,315	57,6
294,85	54,4
295,384	46,18
295,918	55,29
296,453	59,8
296,987	49,06
297,52	46,63
298,054	50,53
298,588	56,54
299,121	50,93
299,655	53,02
300,188	52,82
300,721	49,84
301,254	49,23
301,787	49,02
302,32	43,56
302,853	57,84
303,385	51,49
303,918	44,93
304,45	48,7
304,982	53,29
305,514	50,82
306,046	55,56
306,578	49,34
307,11	56,97
307,641	47,49
308,173	52,67
308,704	45,91
309,236	45,36
309,767	51,19
310,298	49,66
310,829	54,05
311,359	52,31
311,89	46,3
312,421	56,12
312,951	49,35
313,481	46,15
314,012	57,29
314,542	42,41
315,072	53,57
315,601	55,59
316,131	50
316,661	51,64
317,19	50,96
317,72	50,79
318,249	56,12
318,778	42,26
319,307	50,33
319,836	42,22
320,365	50
320,893	50,68
321,422	48
321,95	49,35
322,479	52,19
323,007	51,97
323,535	57,04
324,063	50,17
324,591	47,84
325,118	47,84
325,646	50
326,173	44,37
326,701	57,33
327,228	48,67
327,755	45,08
328,282	43,71
328,809	40,2
329,336	53,85
329,862	49,49
330,389	52,41
330,915	57,28
331,441	47,92
331,968	44,58
332,494	48,76
333,02	46,5
333,545	44,74
334,071	48,29
334,597	47,85
335,122	43,49
335,648	45,02
336,173	56,31
336,698	44,27
337,223	42,9
337,748	37,57
338,272	51,83
338,797	38,8
339,322	43,86
339,846	48,62
340,37	35,01
340,894	40,82
341,419	42,9
341,942	46,91
342,466	35,11
342,99	49,71
343,514	46,5
344,037	40,24
344,56	43,66
345,084	43,6
345,607	38,32
346,13	36,63
346,653	38,84
347,175	39,25
347,698	37,74
348,221	32,81
348,743	37,8
349,265	36,34
349,787	37,99
350,309	40,54
350,831	34,05
351,353	37,22
351,875	36,99
352,397	35,14
352,918	34,95
353,439	33,09
353,961	32,48
354,482	34,15
355,003	38,13
355,524	36,3
356,044	36,36
356,565	32,85
357,086	34,31
357,606	27,94
358,126	32,46
358,646	31,62
359,167	33,48
359,687	30,15
360,206	30,98
360,726	30,8
361,246	28,18
361,765	27,97
362,285	25,92
362,804	29,05
363,323	26,58
363,842	34,43
364,361	34,83
364,88	23,68
365,398	29,61
365,917	29,75
366,435	25,78
366,954	26,84
367,472	25,73
367,99	28,65
368,508	26,81
369,026	34,03
369,544	31,01
370,061	25
370,579	26,66
371,096	26,37
371,613	26,85
372,131	26,78
372,648	27,55
373,165	28,34
373,681	25,63
374,198	29,22
374,715	27,09
375,231	25,37
375,747	26,98
376,264	22,32
376,78	25,81
377,296	26
377,812	27,07
378,327	27,78
378,843	23,3
379,359	25,68
379,874	25,27
380,389	25,81
380,905	19,08
381,42	24,03
381,935	22,65
382,449	23,02
382,964	21,57
383,479	20,38
383,993	23,57
384,508	21,75
385,022	21,11
385,536	20,14
386,05	22,43
386,564	21,73
387,078	17,65
387,592	19,44
388,105	18,94
388,619	17,53
389,132	19,82
389,645	20,07
390,158	17,75
390,671	18,2
391,184	18,36
391,697	17,24
392,21	16,62
392,722	17,07
393,235	16,39
393,747	17,47
394,259	16,92
394,771	16,55
395,283	16,67
395,795	16,57
396,307	16,01
396,818	14,31
397,33	17,33
397,841	16,22
398,353	15,35
398,864	14,7
399,375	13,22
399,886	14,34
400,397	14
400,907	13,52
401,418	13,26
401,928	13,16
402,439	12,84
402,949	13,84
403,459	12,47
403,969	12,5
404,479	12,76
404,989	11,47
405,498	11,92
406,008	10,75
406,517	10,34
407,027	10,73
407,536	9,39
408,045	10,46
408,554	8,15
409,063	9,38
409,572	9,63
410,08	8,66
410,589	8,16
411,097	8,71
411,606	7,98
412,114	7,61
412,622	6,92
413,13	7,94
413,638	7,59
414,145	6,93
414,653	6,31
415,16	7,05
415,668	6,29
416,175	5,99
416,682	6,04
417,189	5,09
417,696	5,82
418,203	5,95
418,71	5
419,216	5,67
419,723	5,45
420,229	4,87
420,735	5,25
421,242	4,96
421,748	5,36
422,254	5,21
422,759	4,75
423,265	4,73
423,771	4,55
424,276	4,71
424,781	4,8
425,287	4,51
425,792	4,37
426,297	4,67
426,802	4,46
427,306	4,35
427,811	4,52
428,316	4,48
428,82	4,24
429,324	4,56
429,829	4,24
430,333	4,27
430,837	4,42
431,34	4,41
431,844	3,85
432,348	4,45
432,851	4,22
433,355	4,19
433,858	4,15
434,361	4,4
434,864	4,01
435,367	3,83
435,87	4,18
436,373	3,97
436,876	3,9
437,378	4,22
437,88	4,17
438,383	3,97
438,885	4,11
439,387	3,96
439,889	3,88
440,391	3,95
440,892	4,08
441,394	3,88
441,896	3,84
442,397	3,93
442,898	3,8
443,399	3,91
443,9	3,84
444,401	4,02
444,902	3,54
445,403	3,76
445,903	3,95
446,404	3,86
446,904	4
447,405	3,78
447,905	4,07
448,405	3,95
448,905	3,87
449,404	4,03
449,904	3,85
450,404	3,9
450,903	3,98
451,403	4,02
451,902	3,99
452,401	4,02
452,9	3,97
453,399	3,96
453,898	3,93
454,396	4,13
454,895	3,97
455,393	4,05
455,892	3,82
456,39	3,85
456,888	3,94
457,386	4,05
457,884	4,16
458,382	4,02
458,879	4,21
459,377	3,96
459,874	4,15
460,372	4,32
460,869	4,12
461,366	4,21
461,863	4,14
462,36	4,19
462,857	4,15
463,353	4,14
463,85	4,16
464,346	3,96
464,843	3,95
465,339	3,97
465,835	3,96
466,331	3,89
466,827	4,1
467,323	4,03
467,818	3,93
468,314	3,95
468,809	3,98
469,305	3,89
469,8	4,09
470,295	4,01
470,79	3,79
471,285	3,88
471,78	4,17
472,274	4,21
472,769	3,81
473,263	4,01
473,758	3,92
474,252	3,96
474,746	3,93
475,24	4,07
475,734	4,12
476,228	4,07
476,721	3,97
477,215	4,09
477,708	4,07
478,202	4,12
478,695	4,12
479,188	4,27
479,681	4,23
480,174	4,25
480,667	3,96
481,159	4,07
481,652	3,96
482,144	4,08
482,637	4,04
483,129	4,07
483,621	4,12
484,113	3,99
484,605	4,13
485,097	4
485,588	4,22
486,08	4,3
486,571	4,3
487,063	4,07
487,554	4,29
488,045	4,13
488,536	4,18
489,027	4,2
489,518	4,35
490,008	4,24
490,499	4,32
490,989	4,12
491,48	4,37
491,97	4,53
492,46	4,44
492,95	4,39
493,44	4,48
493,93	4,35
494,419	4,42
494,909	4,52
495,398	4,5
495,888	4,73
496,377	4,67
496,866	4,77
497,355	4,78
497,844	4,62
498,333	4,88
498,821	4,71
499,31	5,08
499,798	5,12
500,287	4,98
500,775	5,21
501,263	5,12
501,751	5,15
502,239	5,27
502,727	5,38
503,215	5,65
503,702	5,55
504,19	5,63
504,677	5,73
505,164	5,84
505,651	5,98
506,139	5,93
506,625	6,1
507,112	6,16
507,599	6,38
508,086	6,57
508,572	6,45
509,058	6,69
509,545	7,09
510,031	7,03
510,517	7,08
511,003	7,33
511,489	7,29
511,974	7,56
512,46	7,72
512,946	8,07
513,431	8,1
513,916	8,13
514,401	8,21
514,887	8,56
515,371	8,74
515,856	8,72
516,341	9,24
516,826	9,4
517,31	9,52
517,795	9,62
518,279	10,27
518,763	10,31
519,247	10,5
519,731	10,57
520,215	11,24
520,699	11,26
521,182	11,31
521,666	11,81
522,149	11,77
522,633	12,07
523,116	12,17
523,599	12,51
524,082	13
524,565	13,05
525,048	13,23
525,53	13,52
526,013	13,8
526,495	13,78
526,978	14,39
527,46	14,17
527,942	14,34
528,424	14,69
528,906	14,83
529,388	15,24
529,87	15,34
530,351	15,12
530,833	15,7
531,314	15,73
531,795	15,86
532,277	16,06
532,758	16,22
533,238	16,01
533,719	16,39
534,2	16,34
534,681	16,54
535,161	16,72
535,642	16,68
536,122	16,75
536,602	16,76
537,082	17,1
537,562	17,09
538,042	16,98
538,522	17,02
539,001	17,07
539,481	17,23
539,96	17,15
540,44	17,26
540,919	17,24
541,398	17,44
541,877	17,31
542,356	17,56
542,835	17,54
543,313	17,52
543,792	17,38
544,27	17,5
544,749	17,48
545,227	17,56
545,705	17,61
546,183	17,78
546,661	17,7
547,139	17,7
547,616	17,95
548,094	17,65
548,571	17,9
549,049	17,95
549,526	18,09
550,003	18,1
550,48	17,69
550,957	18,05
551,434	17,84
551,911	18,01
552,387	17,92
552,864	17,97
553,34	18,45
553,817	18,3
554,293	18,15
554,769	18,15
555,245	18,01
555,721	18,02
556,197	18,05
556,672	18,03
557,148	18,1
557,623	17,86
558,099	17,74
558,574	17,62
559,049	17,91
559,524	18
559,999	17,66
560,474	17,79
560,948	17,43
561,423	17,6
561,897	17,51
562,372	17,44
562,846	17,33
563,32	17,06
563,794	17,12
564,268	17,13
564,742	16,71
565,216	16,78
565,69	16,82
566,163	16,52
566,636	16,3
567,11	16,32
567,583	15,98
568,056	16,1
568,529	16,13
569,002	15,89
569,475	15,93
569,947	15,6
570,42	15
570,892	15,4
571,365	15,04
571,837	14,83
572,309	15,02
572,781	14,58
573,253	14,59
573,725	14,42
574,197	14,25
574,668	14,17
575,14	13,92
575,611	14,05
576,082	13,72
576,554	13,66
577,025	13,7
577,496	13,4
577,967	13,45
578,437	13,16
578,908	12,98
579,379	12,96
579,849	12,96
580,319	12,87
580,79	12,64
581,26	12,78
581,73	12,7
582,2	12,61
582,669	12,46
583,139	12,49
583,609	12,35
584,078	12,32
584,548	12,12
585,017	11,93
585,486	12,05
585,955	11,91
586,424	11,6
586,893	11,7
587,362	11,7
587,83	11,53
588,299	11,69
588,767	11,53
589,236	11,23
589,704	11,29
590,172	11,42
590,64	11,36
591,108	11,13
591,576	11,2
592,043	11,18
592,511	11,23
592,978	11,07
593,446	10,98
593,913	10,93
594,38	11,03
594,847	10,95
595,314	10,83
595,781	10,88
596,248	10,72
596,715	10,74
597,181	10,55
597,647	10,67
598,114	10,65
598,58	10,62
599,046	10,7
599,512	10,59
599,978	10,55
600,444	10,39
600,91	10,53
601,375	10,62
601,841	10,57
602,306	10,38
602,771	10,35
603,236	10,43
603,702	10,36
604,167	10,33
604,631	10,35
605,096	10,17
605,561	10,26
606,025	10,23
606,49	10,09
606,954	10,1
607,418	9,96
607,882	10,03
608,347	9,92
608,81	9,92
609,274	9,83
609,738	9,85
610,202	9,77
610,665	9,55
611,128	9,61
611,592	9,57
612,055	9,45
612,518	9,36
612,981	9,3
613,444	9,26
613,907	9,29
614,369	9,15
614,832	9,21
615,294	9,12
615,757	9,01
616,219	8,95
616,681	8,9
617,143	8,79
617,605	8,75
618,067	8,9
618,529	8,8
618,99	8,71
619,452	8,62
619,913	8,64
620,375	8,66
620,836	8,4
621,297	8,59
621,758	8,45
622,219	8,37
622,68	8,5
623,14	8,26
623,601	8,33
624,061	8,35
624,522	8,4
624,982	8,39
625,442	8,31
625,902	8,28
626,362	8,18
626,822	8,2
627,282	8,18
627,742	8,26
628,201	8,21
628,661	8,37
629,12	8,03
629,579	8,07
630,038	8,1
630,497	8,07
630,956	8,07
631,415	7,99
631,874	8,06
632,332	8
632,791	7,9
633,249	8,03
633,708	7,99
634,166	7,86
634,624	7,81
635,082	7,84
635,54	7,77
635,998	7,69
636,455	7,57
636,913	7,59
637,37	7,58
637,828	7,42
638,285	7,28
638,742	7,31
639,199	7,17
639,656	7,22
640,113	7,08
640,57	6,88
641,027	6,99
641,483	6,82
641,94	6,7
642,396	6,71
642,852	6,68
643,309	6,43
643,765	6,45
644,221	6,25
644,676	6,24
645,132	6,03
645,588	6,13
646,043	5,94
646,499	5,95
646,954	5,97
647,409	5,8
647,864	5,77
648,319	5,82
648,774	5,75
649,229	5,63
649,684	5,59
650,139	5,56
650,593	5,47
651,047	5,51
651,502	5,43
651,956	5,45
652,41	5,34
652,864	5,4
653,318	5,46
653,772	5,39
654,225	5,32
654,679	5,35
655,133	5,27
655,586	5,34
656,039	5,34
656,492	5,27
656,946	5,22
657,399	5,23
657,851	5,22
658,304	5,17
658,757	5,07
659,209	5,06
659,662	5,01
660,114	5
660,567	4,94
661,019	4,93
661,471	4,86
661,923	4,93
662,375	4,81
662,826	4,74
663,278	4,76
663,73	4,7
664,181	4,7
664,632	4,68
665,084	4,61
665,535	4,72
665,986	4,6
666,437	4,66
666,888	4,61
667,338	4,62
667,789	4,62
668,24	4,61
668,69	4,67
669,14	4,6
669,591	4,69
670,041	4,65
670,491	4,72
670,941	4,67
671,391	4,72
671,84	4,7
672,29	4,76
672,74	4,76
673,189	4,81
673,638	4,83
674,088	5,01
674,537	4,94
674,986	5,02
675,435	5,06
675,883	5,18
676,332	5,15
676,781	5,19
677,229	5,22
677,678	5,3
678,126	5,41
678,574	5,52
679,022	5,57
679,47	5,68
679,918	5,76
680,366	5,84
680,814	5,94
681,261	5,97
681,709	6,07
682,156	6,09
682,604	6,18
683,051	6,29
683,498	6,32
683,945	6,47
684,392	6,6
684,839	6,65
685,286	6,73
685,732	6,87
686,179	6,92
686,625	7,02
687,071	7,14
687,518	7,33
687,964	7,38
688,41	7,54
688,856	7,8
689,301	7,88
689,747	8,04
690,193	8,25
690,638	8,47
691,084	8,74
691,529	8,92
691,974	9,24
692,419	9,48
692,864	9,86
693,309	10,13
693,754	10,53
694,199	10,79
694,643	11,21
695,088	11,64
695,532	11,98
695,977	12,4
696,421	12,66
696,865	13,3
697,309	13,61
697,753	14,18
698,197	14,58
698,64	15,27
699,084	15,69
699,527	16,22
699,971	16,62
700,414	17,13
700,857	17,67
701,3	17,97
701,743	18,39
702,186	18,95
702,629	19,67
703,072	19,93
703,515	20,73
703,957	21,03
704,399	21,54
704,842	22,02
705,284	22,58
705,726	23,12
706,168	23,5
706,61	24,21
707,052	24,82
707,494	25,36
707,935	25,73
708,377	26,18
708,818	27,01
709,26	27,25
709,701	27,79
710,142	28,35
710,583	28,73
711,024	29,23
711,465	29,84
711,905	30,44
712,346	31,01
712,787	31,5
713,227	31,81
713,667	32,18
714,108	33,08
714,548	33,41
714,988	34,13
715,428	34,49
715,868	35,2
716,307	35,7
716,747	36,08
717,186	36,37
717,626	36,83
718,065	37,51
718,504	37,94
718,944	38,42
719,383	39,26
719,822	39,66
720,261	40,34
720,699	40,62
721,138	41,05
721,576	41,71
722,015	42,15
722,453	42,46
722,892	42,87
723,33	43,36
723,768	43,77
724,206	44,42
724,644	44,82
725,081	45,24
725,519	45,53
725,957	45,98
726,394	46,12
726,832	46,97
727,269	47,28
727,706	47,58
728,143	47,97
728,58	48,1
729,017	48,75
729,454	49,24
729,89	49,61
730,327	49,77
730,764	49,8
731,2	50,25
731,636	50,87
732,072	51,19
732,509	51,31
732,945	51,51
733,38	51,79
733,816	52,24
734,252	52,49
734,688	52,52
735,123	52,87
735,559	53,19
735,994	53,26
736,429	53,62
736,864	54,02
737,299	53,86
737,734	54,15
738,169	54,29
738,604	54,35
739,038	54,47
739,473	54,73
739,907	55,17
740,342	55,15
740,776	55,44
741,21	55,72
741,644	55,54
742,078	55,92
742,512	55,9
742,946	56
743,379	56,14
743,813	56,62
744,246	56,63
744,68	56,8
745,113	56,91
745,546	56,79
745,979	56,55
746,412	56,5
746,845	56,49
747,278	56,69
747,711	56,83
748,143	57,2
748,576	57,26
749,008	57,24
749,441	56,53
749,873	56,93
750,305	57,06
750,737	57,26
751,169	56,97
751,601	57,24
752,032	57,36
752,464	56,8
752,896	57,4
753,327	57,34
753,758	57,25
754,19	57,31
754,621	57,59
755,052	57,13
755,483	57,48
755,914	57,37
756,344	57,01
756,775	57,42
757,206	57,35
757,636	56,98
758,066	56,98
758,497	57,22
758,927	57,3
759,357	57,17
759,787	57,36
760,217	57,27
760,647	56,95
761,076	57,36
761,506	57,06
761,935	57,03
762,365	56,97
762,794	57,04
763,223	57,02
763,653	56,88
764,082	57,14
764,51	56,78
764,939	57
765,368	56,73
765,797	57
766,225	57,14
766,654	56,64
767,082	56,91
767,51	56,82
767,938	57,02
768,367	56,95
768,795	56,67
769,222	56,85
769,65	56,8
770,078	56,76
770,505	56,61
770,933	56,58
771,36	56,24
771,788	56,99
772,215	56,69
772,642	56,85
773,069	56,78
773,496	56,72
773,923	56,67
774,349	56,73
774,776	56,61
775,203	56,7
775,629	56,35
776,055	56,32
776,482	56,78
776,908	56,46
777,334	56,55
777,76	56,17
778,186	56,17
778,611	56,39
779,037	56,41
779,463	56,24
779,888	56,13
780,314	56,33
780,739	56,09
781,164	56,54
781,589	56,51
782,014	56,24
782,439	56,53
782,864	56,02
783,289	55,96
783,713	56,01
784,138	56,09
784,562	56,18
784,987	56,21
785,411	56,28
785,835	55,86
786,259	56,29
786,683	56,37
787,107	56,08
787,531	56,05
787,954	56,08
788,378	56,34
788,802	55,99
789,225	56,05
789,648	56,27
790,071	56,27
790,495	56,04
790,918	56,17
791,34	56,03
791,763	55,97
792,186	55,89
792,609	56,29
793,031	56,1
793,454	55,93
793,876	56,2
794,298	56,16
794,721	55,9
795,143	56,15
795,565	56,08
795,986	55,72
796,408	56,03
796,83	56,07
797,252	56,07
797,673	56,14
798,094	55,79
798,516	56
798,937	55,7
799,358	55,85
799,779	55,82
800,2	55,94
800,621	56,02
801,042	55,97
801,462	55,83
801,883	56,25
802,303	55,89
802,724	55,75
803,144	56,07
803,564	56,09
803,984	55,73
804,404	56,11
804,824	56,03
805,244	55,9
805,664	55,82
806,084	55,75
806,503	55,84
806,923	55,72
807,342	55,8
807,761	56,2
808,18	55,8
808,599	55,94
809,018	56,02
809,437	55,72
809,856	55,61
810,275	56,03
810,693	55,67
811,112	56,04
811,53	55,95
811,949	55,78
812,367	55,68
812,785	56,06
813,203	55,78
813,621	55,63
814,039	55,75
814,457	56,03
814,874	55,65
815,292	55,87
815,709	55,93
816,127	55,96
816,544	55,74
816,961	55,72
817,378	55,61
817,795	55,78
818,212	55,63
818,629	55,59
819,046	55,52
819,462	55,72
819,879	55,7
820,295	55,89
820,712	55,63
821,128	55,54
821,544	55,56
821,96	55,66
822,376	55,55
822,792	55,51
823,208	56,16
823,624	55,61
824,039	55,92
824,455	55,58
824,87	55,92
825,286	55,62
825,701	55,61
826,116	55,95
826,531	55,28
826,946	55,76
827,361	55,5
827,776	55,83
828,19	55,97
828,605	55,69
829,02	55,49
829,434	55,63
829,848	55,31
830,263	55,49
830,677	55,71
831,091	55,73
831,505	55,4
831,919	55,71
832,332	55,34
832,746	55,74
833,16	55,61
833,573	55,64
833,987	55,49
834,4	55,51
834,813	55,8
835,226	55,56
835,639	55,59
836,052	55,74
836,465	55,7
836,878	55,9
837,29	55,45
837,703	55,53
838,116	55,4
838,528	55,69
838,94	55,7
839,352	55,57
839,765	55,53
840,177	55,23
840,589	55,48
841	55,49
841,412	55,35
841,824	55,63
842,235	55,63
842,647	55,26
843,058	55,68
843,47	55,27
843,881	55,41
844,292	55,82
844,703	55,46
845,114	55,45
845,525	55,21
845,935	55,51
