Data from E2__Relative__1__00001.txt Node

Date: Fri Feb 02 12:30:53 CET 2024
User: diatiterra
Spectrometer: HDX00911
Trigger mode: 0
Integration Time (sec): 6,000000E-3
Scans to average: 2
Nonlinearity correction enabled: false
Boxcar width: 0
Storing dark spectrum: false
XAxis mode: Wavelengths
Number of Pixels in Spectrum: 2068
>>>>>Begin Spectral Data<<<<<
194,468	80,16
195,025	54,48
195,581	78,3
196,138	63,64
196,694	67,34
197,251	72,13
197,807	64,21
198,363	66,88
198,919	57,91
199,474	55,91
200,03	53,67
200,586	57,73
201,141	53,33
201,696	71,74
202,251	63,32
202,806	61,38
203,361	60,94
203,916	57,1
204,471	63,99
205,025	55,62
205,58	56,19
206,134	52,74
206,688	62,46
207,242	55,86
207,796	66,89
208,35	53,5
208,904	59,63
209,457	59,09
210,011	60,71
210,564	57,61
211,117	59,87
211,67	64,37
212,223	55,16
212,776	60,19
213,329	58,2
213,881	63,76
214,434	59,58
214,986	63,58
215,538	65,47
216,09	60,48
216,642	58,94
217,194	55,79
217,746	62,91
218,297	65,53
218,849	58,36
219,4	64,29
219,951	61,86
220,502	58,92
221,053	64,29
221,604	54,95
222,155	62,9
222,705	56,33
223,256	65,4
223,806	62,21
224,356	72,28
224,906	59,49
225,456	60,47
226,006	62,97
226,556	64,74
227,106	55,42
227,655	55,56
228,204	56,21
228,754	64,35
229,303	61
229,852	64,03
230,401	64,67
230,949	66,36
231,498	62,28
232,047	65,88
232,595	63,04
233,143	62,57
233,691	56,41
234,239	63,53
234,787	60,48
235,335	53,59
235,883	63,67
236,43	58,82
236,978	64,14
237,525	59,12
238,072	58,2
238,619	64,69
239,166	59,22
239,713	66,67
240,26	59,01
240,806	60,77
241,353	63,7
241,899	59,62
242,445	63,36
242,991	60,71
243,537	57,89
244,083	60,45
244,629	59,06
245,174	64,74
245,72	59,93
246,265	58,72
246,81	61,72
247,355	58,59
247,9	55,08
248,445	57,1
248,99	59,8
249,534	68,15
250,079	62,17
250,623	58,92
251,168	55,44
251,712	59,09
252,256	61,74
252,8	50
253,343	62,78
253,887	57,41
254,43	57,28
254,974	60,86
255,517	60,67
256,06	55,67
256,603	63,18
257,146	61,11
257,689	60
258,232	67,06
258,774	62,33
259,317	59,74
259,859	68,33
260,401	55,59
260,943	61,77
261,485	60,14
262,027	60,97
262,569	59,74
263,11	52,27
263,652	63,14
264,193	62,46
264,734	66,08
265,275	63,67
265,816	65,88
266,357	59,25
266,898	59,73
267,438	66,44
267,979	58,04
268,519	54,22
269,059	57,79
269,6	57
270,14	63,82
270,68	58,8
271,219	61,74
271,759	60,13
272,298	54,63
272,838	61,09
273,377	58,11
273,916	62,8
274,455	65,85
274,994	68,15
275,533	65,02
276,072	67,59
276,61	70,29
277,149	66,08
277,687	58,8
278,225	65,85
278,763	63,67
279,301	64,75
279,839	60
280,377	60,55
280,914	60,78
281,452	60,14
281,989	65,02
282,526	57,09
283,064	67,74
283,601	58,39
284,137	62,33
284,674	56,82
285,211	55,62
285,747	60,82
286,284	67,12
286,82	57
287,356	66,19
287,892	60,36
288,428	56,69
288,964	65,7
289,5	52,78
290,035	60,81
290,571	64,04
291,106	56,52
291,641	62,59
292,176	56,01
292,711	59,73
293,246	54,78
293,781	53,71
294,315	57,09
294,85	58,36
295,384	50,9
295,918	61,82
296,453	55,21
296,987	59
297,52	55,84
298,054	62,19
298,588	60,27
299,121	54,93
299,655	57,98
300,188	55
300,721	53,54
301,254	63,75
301,787	56,25
302,32	60,14
302,853	57,43
303,385	60,07
303,918	53,15
304,45	60,13
304,982	55,67
305,514	55,13
306,046	56,19
306,578	54,42
307,11	61,99
307,641	54,08
308,173	59,12
308,704	60,34
309,236	55,29
309,767	59,59
310,298	52,06
310,829	52,35
311,359	60,78
311,89	57,59
312,421	48,32
312,951	60,57
313,481	68,54
314,012	57,45
314,542	62,76
315,072	51,46
315,601	55,77
316,131	51,89
316,661	55,7
317,19	56,91
317,72	54,25
318,249	59,03
318,778	61,13
319,307	55,14
319,836	62,32
320,365	63,74
320,893	53,71
321,422	58
321,95	61,72
322,479	56,1
323,007	57,99
323,535	51,78
324,063	45,37
324,591	63,29
325,118	57,88
325,646	56,83
326,173	56,52
326,701	60,56
327,228	54,97
327,755	57,7
328,282	54,1
328,809	52,43
329,336	59,03
329,862	47,34
330,389	48,68
330,915	54,03
331,441	53,79
331,968	51,34
332,494	49,84
333,02	56,46
333,545	56,57
334,071	54,4
334,597	48,4
335,122	49,05
335,648	54,87
336,173	49,51
336,698	47,62
337,223	50
337,748	49,36
338,272	47,19
338,797	54,25
339,322	53,52
339,846	51,79
340,37	53,51
340,894	40,88
341,419	53,18
341,942	51,91
342,466	58,9
342,99	48,17
343,514	44,44
344,037	44,66
344,56	46,49
345,084	48,32
345,607	46,05
346,13	51,6
346,653	41,95
347,175	47,8
347,698	45,94
348,221	46,93
348,743	42,2
349,265	47,47
349,787	41,41
350,309	43,26
350,831	43,81
351,353	42,86
351,875	50,13
352,397	43,04
352,918	41,92
353,439	40,99
353,961	45,68
354,482	41,84
355,003	41,27
355,524	46,29
356,044	42,76
356,565	48,01
357,086	40,98
357,606	39,49
358,126	38,26
358,646	44,29
359,167	42,12
359,687	40,42
360,206	39,77
360,726	45,85
361,246	38,82
361,765	42,58
362,285	42,98
362,804	42,99
363,323	42,06
363,842	38,84
364,361	47,94
364,88	42,42
365,398	40,66
365,917	40,43
366,435	38,08
366,954	40,79
367,472	42,18
367,99	39,81
368,508	40,8
369,026	42,94
369,544	43,31
370,061	36,83
370,579	37,18
371,096	34,72
371,613	39,17
372,131	35,78
372,648	39,66
373,165	40,23
373,681	39,35
374,198	40,72
374,715	39,26
375,231	41,73
375,747	38,25
376,264	37,1
376,78	36,87
377,296	37,86
377,812	35,42
378,327	37,34
378,843	35,65
379,359	32,58
379,874	37,4
380,389	37,72
380,905	33,69
381,42	33,54
381,935	38,48
382,449	33,1
382,964	33,68
383,479	35,94
383,993	32,67
384,508	32,63
385,022	32,32
385,536	32,4
386,05	32,85
386,564	31,6
387,078	34,65
387,592	32,1
388,105	31,19
388,619	32,34
389,132	30,55
389,645	28,87
390,158	27,94
390,671	32,6
391,184	29,59
391,697	30,56
392,21	29,95
392,722	30,09
393,235	28,4
393,747	29,75
394,259	29,98
394,771	27,31
395,283	27,87
395,795	30,09
396,307	26,08
396,818	26,03
397,33	30,04
397,841	26,46
398,353	27,33
398,864	24,95
399,375	24,3
399,886	23,39
400,397	24,93
400,907	23,01
401,418	22,44
401,928	23,23
402,439	25,07
402,949	22,68
403,459	22,49
403,969	20,59
404,479	20,98
404,989	20,74
405,498	18,15
406,008	18,91
406,517	19,17
407,027	18,73
407,536	17,85
408,045	17,64
408,554	17,78
409,063	16,92
409,572	16,98
410,08	14,76
410,589	14,41
411,097	13,9
411,606	13,76
412,114	13,98
412,622	13,15
413,13	12,46
413,638	12,62
414,145	12,03
414,653	12
415,16	11,94
415,668	11,14
416,175	10,64
416,682	10,6
417,189	10,46
417,696	10,6
418,203	10,02
418,71	9,84
419,216	10
419,723	9,66
420,229	9,67
420,735	9,59
421,242	9,79
421,748	9,85
422,254	8,93
422,759	9,76
423,265	9,57
423,771	9,37
424,276	9,24
424,781	8,54
425,287	9
425,792	8,5
426,297	8,52
426,802	8,72
427,306	9,25
427,811	8,91
428,316	8,61
428,82	8,54
429,324	8,51
429,829	8,07
430,333	8,46
430,837	8,5
431,34	8,8
431,844	8,15
432,348	8,63
432,851	8,23
433,355	7,99
433,858	7,97
434,361	8,29
434,864	8,3
435,367	8,5
435,87	8,52
436,373	7,94
436,876	7,9
437,378	8,16
437,88	7,88
438,383	7,95
438,885	7,99
439,387	7,9
439,889	8,04
440,391	7,66
440,892	7,85
441,394	8,13
441,896	7,79
442,397	7,84
442,898	7,86
443,399	7,79
443,9	7,71
444,401	8,22
444,902	7,78
445,403	7,97
445,903	8,1
446,404	7,85
446,904	7,95
447,405	8,06
447,905	8,62
448,405	8,17
448,905	7,94
449,404	8,34
449,904	8,16
450,404	7,95
450,903	8,48
451,403	8,23
451,902	8,79
452,401	8,38
452,9	8,3
453,399	8,44
453,898	8,43
454,396	8,71
454,895	8,65
455,393	8,65
455,892	8,86
456,39	8,69
456,888	8,84
457,386	9,04
457,884	8,61
458,382	8,84
458,879	8,93
459,377	8,84
459,874	8,93
460,372	8,7
460,869	8,9
461,366	9,07
461,863	8,62
462,36	9,2
462,857	8,56
463,353	8,67
463,85	9,1
464,346	8,79
464,843	8,84
465,339	8,89
465,835	8,76
466,331	8,94
466,827	8,81
467,323	8,98
467,818	8,76
468,314	8,78
468,809	8,88
469,305	8,81
469,8	9,01
470,295	8,98
470,79	9,03
471,285	8,86
471,78	8,75
472,274	8,64
472,769	8,58
473,263	8,88
473,758	8,84
474,252	8,77
474,746	8,82
475,24	8,89
475,734	8,67
476,228	8,74
476,721	8,64
477,215	8,7
477,708	9,12
478,202	8,79
478,695	8,99
479,188	8,77
479,681	8,74
480,174	9,09
480,667	8,85
481,159	9
481,652	9,16
482,144	9,04
482,637	9,12
483,129	8,86
483,621	9,17
484,113	9,06
484,605	8,93
485,097	9,11
485,588	9,25
486,08	9,66
486,571	9,22
487,063	9,22
487,554	9,24
488,045	9,26
488,536	9,51
489,027	9,29
489,518	9,63
490,008	9,73
490,499	9,4
490,989	9,63
491,48	9,58
491,97	10,02
492,46	9,77
492,95	9,69
493,44	10,08
493,93	10,04
494,419	10,09
494,909	10,03
495,398	10,12
495,888	10,39
496,377	10,18
496,866	10,64
497,355	10,42
497,844	10,57
498,333	10,92
498,821	10,97
499,31	10,64
499,798	11,06
500,287	11,1
500,775	11,28
501,263	11,33
501,751	11,48
502,239	11,76
502,727	11,61
503,215	12,01
503,702	12,19
504,19	11,94
504,677	12,43
505,164	12,49
505,651	12,51
506,139	12,82
506,625	12,8
507,112	12,87
507,599	12,98
508,086	13,27
508,572	13,32
509,058	13,69
509,545	13,72
510,031	14,01
510,517	14,46
511,003	14,36
511,489	14,43
511,974	14,76
512,46	14,98
512,946	15,63
513,431	15,58
513,916	15,76
514,401	15,83
514,887	16,1
515,371	16,22
515,856	16,62
516,341	16,53
516,826	16,94
517,31	17,26
517,795	17,29
518,279	17,74
518,763	17,73
519,247	18,1
519,731	18,62
520,215	18,41
520,699	18,62
521,182	19,04
521,666	19,28
522,149	19,26
522,633	20,06
523,116	20,04
523,599	20,24
524,082	20,64
524,565	20,72
525,048	20,97
525,53	21,42
526,013	21,74
526,495	21,54
526,978	21,84
527,46	21,88
527,942	22,34
528,424	22,53
528,906	22,79
529,388	22,72
529,87	23,1
530,351	23,15
530,833	23,39
531,314	23,41
531,795	23,62
532,277	23,92
532,758	24,14
533,238	24,06
533,719	24,07
534,2	24,06
534,681	24,33
535,161	24,24
535,642	24,4
536,122	24,22
536,602	24,7
537,082	24,6
537,562	24,69
538,042	24,76
538,522	24,96
539,001	25,25
539,481	25,04
539,96	25,02
540,44	25,09
540,919	25,09
541,398	25,54
541,877	25,25
542,356	25,19
542,835	25,05
543,313	25,19
543,792	25,16
544,27	25,54
544,749	25,38
545,227	25,58
545,705	25,83
546,183	25,12
546,661	25,41
547,139	25,57
547,616	25,82
548,094	25,53
548,571	25,54
549,049	26,04
549,526	25,36
550,003	25,58
550,48	25,9
550,957	25,61
551,434	25,81
551,911	25,83
552,387	25,85
552,864	25,51
553,34	25,98
553,817	25,71
554,293	26
554,769	26,17
555,245	25,65
555,721	25,88
556,197	25,81
556,672	25,63
557,148	25,58
557,623	25,89
558,099	25,92
558,574	25,95
559,049	25,73
559,524	25,93
559,999	25,57
560,474	25,73
560,948	25,64
561,423	25,19
561,897	25,31
562,372	25,29
562,846	25,15
563,32	25,34
563,794	25,12
564,268	24,93
564,742	25,11
565,216	24,73
565,69	24,5
566,163	24,78
566,636	24,44
567,11	24,2
567,583	24,14
568,056	24,08
568,529	24,21
569,002	23,68
569,475	23,61
569,947	23,55
570,42	23,52
570,892	23,31
571,365	23,33
571,837	22,79
572,309	22,92
572,781	22,98
573,253	22,64
573,725	22,44
574,197	22,4
574,668	22,26
575,14	22,41
575,611	21,98
576,082	21,89
576,554	21,81
577,025	21,7
577,496	21,69
577,967	21,52
578,437	21,56
578,908	21,24
579,379	21,13
579,849	21,11
580,319	21,07
580,79	20,57
581,26	20,52
581,73	20,95
582,2	20,34
582,669	20,46
583,139	20,34
583,609	20,03
584,078	20,18
584,548	19,97
585,017	20,06
585,486	19,96
585,955	19,93
586,424	19,65
586,893	19,61
587,362	19,62
587,83	19,65
588,299	19,56
588,767	19,56
589,236	19,39
589,704	19,61
590,172	19,22
590,64	19,45
591,108	19,31
591,576	19,18
592,043	19,31
592,511	18,84
592,978	19,08
593,446	18,83
593,913	18,84
594,38	18,98
594,847	18,71
595,314	18,65
595,781	18,82
596,248	18,66
596,715	18,59
597,181	18,44
597,647	18,63
598,114	18,47
598,58	18,66
599,046	18,65
599,512	18,53
599,978	18,38
600,444	18,46
600,91	18,29
601,375	18,53
601,841	18,61
602,306	18,56
602,771	18,13
603,236	18,3
603,702	18,21
604,167	18,16
604,631	18,28
605,096	18,01
605,561	17,93
606,025	17,63
606,49	17,84
606,954	17,89
607,418	17,82
607,882	17,76
608,347	17,55
608,81	17,69
609,274	17,55
609,738	17,52
610,202	17,5
610,665	17,55
611,128	17,64
611,592	17,27
612,055	17,43
612,518	17,17
612,981	17,13
613,444	16,98
613,907	16,99
614,369	17,02
614,832	16,93
615,294	16,64
615,757	16,76
616,219	16,72
616,681	16,62
617,143	16,49
617,605	16,55
618,067	16,55
618,529	16,46
618,99	16,28
619,452	16,1
619,913	16,23
620,375	16,33
620,836	16,34
621,297	15,95
621,758	16,12
622,219	16,01
622,68	15,99
623,14	15,88
623,601	15,92
624,061	15,79
624,522	15,89
624,982	15,8
625,442	15,74
625,902	15,78
626,362	15,69
626,822	15,64
627,282	15,71
627,742	16,08
628,201	15,66
628,661	15,65
629,12	15,84
629,579	15,56
630,038	15,5
630,497	15,67
630,956	15,7
631,415	15,62
631,874	15,38
632,332	15,29
632,791	15,41
633,249	15,41
633,708	15,29
634,166	15,22
634,624	15,28
635,082	15,06
635,54	15,14
635,998	14,9
636,455	14,8
636,913	14,58
637,37	14,65
637,828	14,59
638,285	14,5
638,742	14,3
639,199	14,33
639,656	14,13
640,113	14,26
640,57	14,05
641,027	13,78
641,483	13,88
641,94	13,74
642,396	13,61
642,852	13,63
643,309	13,37
643,765	13,26
644,221	13,09
644,676	12,94
645,132	12,9
645,588	12,94
646,043	12,71
646,499	12,46
646,954	12,54
647,409	12,43
647,864	12,44
648,319	12,23
648,774	12,24
649,229	12,13
649,684	12,08
650,139	12,01
650,593	11,96
651,047	11,81
651,502	11,84
651,956	11,88
652,41	11,66
652,864	11,65
653,318	11,7
653,772	11,71
654,225	11,75
654,679	11,67
655,133	11,74
655,586	11,63
656,039	11,44
656,492	11,38
656,946	11,46
657,399	11,4
657,851	11,25
658,304	11,38
658,757	11,28
659,209	11,24
659,662	11,1
660,114	10,91
660,567	10,87
661,019	10,9
661,471	10,86
661,923	10,79
662,375	10,58
662,826	10,55
663,278	10,39
663,73	10,45
664,181	10,35
664,632	10,13
665,084	10,23
665,535	10,19
665,986	10,05
666,437	9,93
666,888	9,91
667,338	9,98
667,789	9,95
668,24	9,8
668,69	9,84
669,14	9,81
669,591	9,87
670,041	9,73
670,491	9,75
670,941	9,8
671,391	9,77
671,84	9,83
672,29	9,83
672,74	9,76
673,189	9,82
673,638	9,86
674,088	9,84
674,537	10,02
674,986	10,02
675,435	10,04
675,883	9,97
676,332	10,1
676,781	10,24
677,229	10,19
677,678	10,54
678,126	10,38
678,574	10,55
679,022	10,49
679,47	10,67
679,918	10,73
680,366	10,84
680,814	10,96
681,261	11,08
681,709	11,2
682,156	11,29
682,604	11,49
683,051	11,58
683,498	11,71
683,945	11,98
684,392	12,12
684,839	12,22
685,286	12,44
685,732	12,64
686,179	12,66
686,625	12,91
687,071	13,19
687,518	13,4
687,964	13,5
688,41	13,77
688,856	14,19
689,301	14,31
689,747	14,58
690,193	14,93
690,638	15,21
691,084	15,49
691,529	15,86
691,974	16,02
692,419	16,34
692,864	16,79
693,309	17,28
693,754	17,52
694,199	17,8
694,643	18,32
695,088	18,81
695,532	19,18
695,977	19,42
696,421	19,94
696,865	20,28
697,309	20,67
697,753	20,93
698,197	21,61
698,64	21,99
699,084	22,54
699,527	22,9
699,971	23,38
700,414	23,87
700,857	24,47
701,3	24,83
701,743	25,29
702,186	25,72
702,629	26,11
703,072	26,61
703,515	27,04
703,957	27,35
704,399	27,88
704,842	28,27
705,284	28,78
705,726	29,38
706,168	29,76
706,61	30,19
707,052	30,74
707,494	31,08
707,935	31,6
708,377	31,98
708,818	32,55
709,26	33,04
709,701	33,52
710,142	34,22
710,583	34,38
711,024	34,84
711,465	35,48
711,905	35,94
712,346	36,33
712,787	36,77
713,227	37,26
713,667	37,71
714,108	38,33
714,548	39,01
714,988	39,58
715,428	39,99
715,868	40,14
716,307	40,82
716,747	41,72
717,186	41,99
717,626	42,53
718,065	42,85
718,504	43,86
718,944	43,95
719,383	44,71
719,822	45,36
720,261	45,92
720,699	46,04
721,138	46,9
721,576	47,24
722,015	47,63
722,453	48,28
722,892	48,86
723,33	48,83
723,768	49,84
724,206	50,2
724,644	50,97
725,081	51,37
725,519	51,39
725,957	52
726,394	52,68
726,832	53,03
727,269	53,69
727,706	53,97
728,143	54,63
728,58	55,14
729,017	55,65
729,454	55,94
729,89	56,53
730,327	56,89
730,764	57,29
731,2	57,78
731,636	58,03
732,072	58,57
732,509	59,12
732,945	59,26
733,38	59,83
733,816	59,78
734,252	60,09
734,688	60,65
735,123	60,7
735,559	61,54
735,994	62,03
736,429	61,9
736,864	62,19
737,299	62,47
737,734	62,72
738,169	62,91
738,604	63,35
739,038	63,8
739,473	64,02
739,907	64,13
740,342	64,48
740,776	64,7
741,21	64,8
741,644	64,91
742,078	65,35
742,512	65,45
742,946	65,98
743,379	66,15
743,813	65,85
744,246	66,16
744,68	66,23
745,113	66,33
745,546	66,75
745,979	67
746,412	66,84
746,845	67,33
747,278	67,06
747,711	67,04
748,143	67,58
748,576	67,44
749,008	67,64
749,441	67,78
749,873	67,8
750,305	67,65
750,737	67,65
751,169	67,68
751,601	67,72
752,032	68,03
752,464	67,59
752,896	68,03
753,327	67,8
753,758	68,15
754,19	68,59
754,621	68,17
755,052	68,57
755,483	68,79
755,914	68,22
756,344	68,35
756,775	68,52
757,206	68,21
757,636	68,64
758,066	68,61
758,497	68,69
758,927	68,8
759,357	68,77
759,787	68,74
760,217	68,5
760,647	68,44
761,076	68,95
761,506	68,4
761,935	68,77
762,365	68,62
762,794	68,56
763,223	68,56
763,653	68,49
764,082	68,86
764,51	68,46
764,939	68,39
765,368	68,78
765,797	68,51
766,225	68,52
766,654	68,16
767,082	68,69
767,51	68,67
767,938	68,57
768,367	68,57
768,795	68,36
769,222	68,73
769,65	68,61
770,078	68,81
770,505	68,14
770,933	68,67
771,36	68,48
771,788	68,81
772,215	68,54
772,642	68,82
773,069	68,32
773,496	68,62
773,923	68,15
774,349	68,27
774,776	68,75
775,203	68,33
775,629	68,35
776,055	68,56
776,482	68,82
776,908	68,09
777,334	68,55
777,76	68,54
778,186	68,3
778,611	68,32
779,037	68,69
779,463	68,47
779,888	68,14
780,314	68,3
780,739	68,15
781,164	68,25
781,589	67,93
782,014	68,11
782,439	68,29
782,864	68,52
783,289	68,12
783,713	68,22
784,138	68,17
784,562	68,18
784,987	68,22
785,411	68,22
785,835	68,11
786,259	68,03
786,683	68,13
787,107	68,02
787,531	68,02
787,954	68,41
788,378	68,57
788,802	68,46
789,225	68,02
789,648	68,19
790,071	68,32
790,495	68,6
790,918	68,16
791,34	68,66
791,763	68,12
792,186	68,37
792,609	68,35
793,031	67,81
793,454	68,1
793,876	67,76
794,298	68,21
794,721	68,43
795,143	68,06
795,565	68,07
795,986	68,19
796,408	68,24
796,83	68,02
797,252	68,13
797,673	68,34
798,094	68,28
798,516	67,89
798,937	68,12
799,358	68,38
799,779	67,95
800,2	67,67
800,621	68,6
801,042	67,84
801,462	68
801,883	68,14
802,303	67,86
802,724	67,91
803,144	68,5
803,564	67,92
803,984	67,93
804,404	68,38
804,824	68,21
805,244	68,47
805,664	68,27
806,084	67,97
806,503	67,9
806,923	68,09
807,342	68,03
807,761	68,02
808,18	68,72
808,599	67,92
809,018	67,61
809,437	68,21
809,856	67,9
810,275	67,84
810,693	68,13
811,112	67,79
811,53	68,24
811,949	68,34
812,367	67,88
812,785	67,9
813,203	68,21
813,621	68,42
814,039	68,05
814,457	68,37
814,874	68,11
815,292	68,22
815,709	67,71
816,127	67,79
816,544	67,99
816,961	68,31
817,378	67,82
817,795	67,73
818,212	68,13
818,629	67,93
819,046	68,08
819,462	67,89
819,879	68,22
820,295	67,94
820,712	68,13
821,128	68,01
821,544	67,88
821,96	68,17
822,376	67,95
822,792	67,96
823,208	67,84
823,624	67,92
824,039	68,26
824,455	67,99
824,87	67,85
825,286	67,82
825,701	68,21
826,116	67,91
826,531	67,83
826,946	67,66
827,361	68,12
827,776	68,02
828,19	68,08
828,605	67,9
829,02	67,81
829,434	67,7
829,848	67,92
830,263	67,79
830,677	67,54
831,091	67,85
831,505	67,69
831,919	67,84
832,332	67,76
832,746	67,62
833,16	67,68
833,573	67,38
833,987	67,73
834,4	67,99
834,813	67,99
835,226	68,05
835,639	67,82
836,052	67,67
836,465	68,1
836,878	68,03
837,29	67,62
837,703	68,07
838,116	67,63
838,528	67,73
838,94	67,73
