Data from E6__Relative__1__00009.txt Node

Date: Fri Feb 02 12:32:42 CET 2024
User: diatiterra
Spectrometer: HDX00911
Trigger mode: 0
Integration Time (sec): 6,000000E-3
Scans to average: 2
Nonlinearity correction enabled: false
Boxcar width: 0
Storing dark spectrum: false
XAxis mode: Wavelengths
Number of Pixels in Spectrum: 2068
>>>>>Begin Spectral Data<<<<<
194,468	90,48
195,025	86,21
195,581	102,83
196,138	78,79
196,694	84,92
197,251	91,39
197,807	88,19
198,363	81,25
198,919	72,15
199,474	75,08
200,03	71,25
200,586	75,08
201,141	67,62
201,696	71,74
202,251	71,79
202,806	62,25
203,361	71,56
203,916	70,41
204,471	74,28
205,025	65,38
205,58	70,39
206,134	71,65
206,688	70,99
207,242	61,73
207,796	79,05
208,35	72,64
208,904	66,97
209,457	69,81
210,011	74,03
210,564	72,17
211,117	69,91
211,67	77,54
212,223	70,32
212,776	75,55
213,329	74,92
213,881	75,17
214,434	70,36
214,986	75,08
215,538	71,66
216,09	68,38
216,642	78,81
217,194	69,51
217,746	73,84
218,297	70,31
218,849	71,48
219,4	75,36
219,951	67,57
220,502	67,68
221,053	82,86
221,604	78,39
222,155	69,03
222,705	67,72
223,256	79,93
223,806	72,96
224,356	86,32
224,906	74,37
225,456	73,75
226,006	70,25
226,556	72,76
227,106	66,87
227,655	73,77
228,204	65,09
228,754	65,93
229,303	75
229,852	78,42
230,401	76,34
230,949	73,83
231,498	78,55
232,047	78,72
232,595	70,96
233,143	69,76
233,691	69,55
234,239	74,16
234,787	73,54
235,335	65,36
235,883	73,36
236,43	69,61
236,978	77,63
237,525	69,5
238,072	62,54
238,619	76,25
239,166	70,23
239,713	71,53
240,26	70,19
240,806	72,99
241,353	76,9
241,899	76,6
242,445	69,86
242,991	74,03
243,537	72,63
244,083	64,63
244,629	64,38
245,174	70,51
245,72	73,62
246,265	73,49
246,81	71,29
247,355	75,76
247,9	74,43
248,445	72,26
248,99	79,74
249,534	75,68
250,079	73,36
250,623	70,37
251,168	76,87
251,712	67,86
252,256	71,14
252,8	76,88
253,343	72,24
253,887	68,77
254,43	75,17
254,974	61,84
255,517	72,33
256,06	81,67
256,603	74,66
257,146	73,53
257,689	68,14
258,232	87,3
258,774	75,68
259,317	72,4
259,859	74,33
260,401	74,01
260,943	65,87
261,485	76,16
262,027	71,61
262,569	71,62
263,11	65,26
263,652	72,35
264,193	76,45
264,734	79,72
265,275	68,86
265,816	65,88
266,357	65,07
266,898	73,49
267,438	70,59
267,979	74,83
268,519	75
269,059	74,74
269,6	69,67
270,14	72,35
270,68	74,65
271,219	67,11
271,759	73,75
272,298	69,97
272,838	76,85
273,377	75,34
273,916	67,58
274,455	78,4
274,994	83,7
275,533	75,97
276,072	78,66
276,61	77,54
277,149	69,61
277,687	66,78
278,225	76,66
278,763	69,9
279,301	72,66
279,839	66,67
280,377	69,9
280,914	77,03
281,452	62,5
281,989	84,03
282,526	73,05
283,064	81,36
283,601	63,04
284,137	78,77
284,674	67,21
285,211	68,39
285,747	66,32
286,284	71,92
286,82	76,79
287,356	82,21
287,892	75,27
288,428	70,07
288,964	67,87
289,5	71,18
290,035	69,26
290,571	70,55
291,106	65,55
291,641	71,77
292,176	70,79
292,711	73,49
293,246	61,15
293,781	68,9
294,315	66,28
294,85	68,85
295,384	67,74
295,918	68,92
296,453	67,36
296,987	60,67
297,52	74,45
298,054	72,08
298,588	69,18
299,121	67,61
299,655	63,84
300,188	80
300,721	63,64
301,254	74,5
301,787	67,01
302,32	70,1
302,853	71,96
303,385	80,22
303,918	76,22
304,45	72,35
304,982	64,89
305,514	81,75
306,046	68,9
306,578	76,33
307,11	72,32
307,641	68,37
308,173	75,55
308,704	72,2
309,236	60,75
309,767	71,92
310,298	67,62
310,829	73,29
311,359	68,3
311,89	71,72
312,421	66,78
312,951	63,09
313,481	81,65
314,012	69,45
314,542	73,79
315,072	69,88
315,601	71,79
316,131	72,16
316,661	71,81
317,19	74,01
317,72	72,55
318,249	68,06
318,778	74,91
319,307	65,73
319,836	66,67
320,365	76,19
320,893	79,86
321,422	76,67
321,95	63,1
322,479	66,9
323,007	74,65
323,535	69,26
324,063	70,61
324,591	75,87
325,118	62,38
325,646	71,58
326,173	71,57
326,701	73,94
327,228	71,85
327,755	69,51
328,282	68,52
328,809	69,79
329,336	72,57
329,862	68,03
330,389	71,71
330,915	65,1
331,441	64,83
331,968	63,09
332,494	74,43
333,02	67,35
333,545	66,36
334,071	69,5
334,597	67,63
335,122	64,24
335,648	69,81
336,173	68,4
336,698	66,03
337,223	64,52
337,748	67,95
338,272	57,19
338,797	70,92
339,322	64,53
339,846	63,21
340,37	61,99
340,894	57,23
341,419	65,29
341,942	61,46
342,466	66,26
342,99	57,32
343,514	60
344,037	58,15
344,56	55,56
345,084	56,7
345,607	58,16
346,13	56,85
346,653	58,05
347,175	57,42
347,698	68,07
348,221	59,22
348,743	52,96
349,265	54,93
349,787	49,01
350,309	57,3
350,831	55,45
351,353	52,3
351,875	51,17
352,397	52,41
352,918	48,48
353,439	51,6
353,961	56,79
354,482	55,87
355,003	54,68
355,524	51,15
356,044	47,2
356,565	53,73
357,086	50,78
357,606	48,5
358,126	49,06
358,646	48,33
359,167	47,73
359,687	46,32
360,206	50,45
360,726	46,72
361,246	42,41
361,765	48,09
362,285	47,23
362,804	45,52
363,323	47,84
363,842	40,91
364,361	49,02
364,88	40,98
365,398	48,87
365,917	47,53
366,435	43,99
366,954	41,39
367,472	44,63
367,99	44,63
368,508	43,45
369,026	46,7
369,544	43,13
370,061	38,79
370,579	40,28
371,096	42,14
371,613	41,49
372,131	42,4
372,648	42,02
373,165	40,23
373,681	40,16
374,198	36,95
374,715	38,34
375,231	38,74
375,747	40,19
376,264	36,49
376,78	39,09
377,296	40,03
377,812	35,97
378,327	42,61
378,843	38,64
379,359	35,81
379,874	35,28
380,389	40,76
380,905	36,33
381,42	36,96
381,935	34,92
382,449	36,9
382,964	33,45
383,479	31,32
383,993	30,44
384,508	32,52
385,022	29,38
385,536	33,44
386,05	30,65
386,564	31,6
387,078	30,61
387,592	29,94
388,105	31,29
388,619	29,25
389,132	26,95
389,645	26,94
390,158	26,5
390,671	26,13
391,184	27,18
391,697	30,73
392,21	28,05
392,722	30,33
393,235	27,49
393,747	26,5
394,259	27,61
394,771	24,67
395,283	25,28
395,795	25,15
396,307	24,37
396,818	24,15
397,33	23,66
397,841	24,19
398,353	23,64
398,864	23,89
399,375	22,44
399,886	21,47
400,397	22,73
400,907	22,38
401,418	20,56
401,928	20,06
402,439	21,8
402,949	18,87
403,459	19,97
403,969	18,94
404,479	17,92
404,989	17,67
405,498	18,01
406,008	17,67
406,517	17,01
407,027	16,57
407,536	16,58
408,045	14,88
408,554	14,84
409,063	14,82
409,572	14,32
410,08	14,9
410,589	13,64
411,097	13,01
411,606	12,5
412,114	12,32
412,622	11,8
413,13	12,11
413,638	11,1
414,145	10,54
414,653	10,82
415,16	10,7
415,668	10,16
416,175	10,06
416,682	9,71
417,189	9,84
417,696	9,83
418,203	9,17
418,71	8,55
419,216	9,25
419,723	8,95
420,229	8,63
420,735	8,79
421,242	8,6
421,748	8,73
422,254	8,35
422,759	8,59
423,265	8,14
423,771	8,01
424,276	8,03
424,781	7,95
425,287	8,02
425,792	8,1
426,297	7,71
426,802	7,92
427,306	8,11
427,811	7,88
428,316	7,84
428,82	7,7
429,324	7,51
429,829	7,7
430,333	7,62
430,837	7,35
431,34	7,66
431,844	7,22
432,348	7,23
432,851	7
433,355	7,05
433,858	7,09
434,361	7,21
434,864	7,54
435,367	7
435,87	7,61
436,373	7,04
436,876	6,87
437,378	7,29
437,88	7,01
438,383	6,9
438,885	7,06
439,387	6,95
439,889	7,04
440,391	6,7
440,892	7,18
441,394	7,05
441,896	7,23
442,397	7,26
442,898	6,71
443,399	7,23
443,9	6,89
444,401	7,07
444,902	6,81
445,403	7,07
445,903	6,98
446,404	7,06
446,904	7,02
447,405	7,2
447,905	7,24
448,405	7,16
448,905	7,12
449,404	7,28
449,904	7,07
450,404	7,07
450,903	7,05
451,403	7,07
451,902	7,07
452,401	7,05
452,9	6,98
453,399	7,28
453,898	7,17
454,396	7,08
454,895	6,96
455,393	7,17
455,892	7,29
456,39	6,95
456,888	7,49
457,386	7,27
457,884	7,28
458,382	7,53
458,879	7,11
459,377	7,29
459,874	7,26
460,372	7,38
460,869	7
461,366	7,31
461,863	7,26
462,36	7,44
462,857	7,32
463,353	7,3
463,85	6,96
464,346	7,22
464,843	7,16
465,339	7,17
465,835	7,12
466,331	7,15
466,827	7,37
467,323	6,95
467,818	7,47
468,314	7,31
468,809	7,31
469,305	7,52
469,8	7,16
470,295	6,92
470,79	7,39
471,285	7,47
471,78	7,45
472,274	7,11
472,769	7,02
473,263	7,13
473,758	7,02
474,252	7,07
474,746	7,08
475,24	7,57
475,734	7,03
476,228	7,3
476,721	7,28
477,215	7,15
477,708	7,43
478,202	6,88
478,695	7,19
479,188	7,39
479,681	7,29
480,174	7,3
480,667	7,35
481,159	7,13
481,652	7,25
482,144	7,22
482,637	7,21
483,129	7,42
483,621	7,33
484,113	7,51
484,605	7,5
485,097	7,38
485,588	7,52
486,08	7,31
486,571	7,35
487,063	7,31
487,554	7,3
488,045	7,26
488,536	7,72
489,027	7,33
489,518	7,46
490,008	7,56
490,499	7,42
490,989	7,78
491,48	7,75
491,97	7,59
492,46	7,65
492,95	7,7
493,44	7,71
493,93	7,61
494,419	7,73
494,909	7,96
495,398	7,8
495,888	7,82
496,377	7,84
496,866	7,88
497,355	7,88
497,844	8,34
498,333	8,14
498,821	8,34
499,31	8,35
499,798	8,38
500,287	8,47
500,775	8,32
501,263	8,56
501,751	8,53
502,239	8,89
502,727	8,85
503,215	8,73
503,702	8,81
504,19	9,08
504,677	9,08
505,164	9,2
505,651	9,52
506,139	9,63
506,625	9,33
507,112	9,68
507,599	9,94
508,086	10,02
508,572	10,08
509,058	10,31
509,545	10,19
510,031	10,26
510,517	10,51
511,003	10,95
511,489	11,11
511,974	10,96
512,46	11,32
512,946	11,6
513,431	11,74
513,916	11,91
514,401	11,92
514,887	12,27
515,371	12,41
515,856	12,53
516,341	12,58
516,826	12,64
517,31	13,17
517,795	13,48
518,279	13,77
518,763	13,68
519,247	14,16
519,731	14,22
520,215	14,56
520,699	14,9
521,182	15,07
521,666	15,03
522,149	15,66
522,633	15,71
523,116	15,97
523,599	16,04
524,082	16,42
524,565	16,45
525,048	16,86
525,53	17,06
526,013	17,2
526,495	17,12
526,978	17,51
527,46	17,76
527,942	18,32
528,424	18,14
528,906	18,45
529,388	18,75
529,87	18,7
530,351	19,11
530,833	19,06
531,314	19,33
531,795	19,47
532,277	19,66
532,758	19,72
533,238	19,56
533,719	19,98
534,2	19,79
534,681	20,09
535,161	20,24
535,642	20,18
536,122	20,52
536,602	20,58
537,082	20,41
537,562	20,48
538,042	20,47
538,522	20,58
539,001	20,87
539,481	20,54
539,96	20,85
540,44	20,95
540,919	21
541,398	21,09
541,877	21,09
542,356	20,88
542,835	20,95
543,313	21,09
543,792	21,26
544,27	21,43
544,749	21,39
545,227	21,62
545,705	21,31
546,183	21,28
546,661	21,63
547,139	21,51
547,616	21,47
548,094	21,55
548,571	21,8
549,049	21,78
549,526	22,12
550,003	21,65
550,48	21,85
550,957	21,76
551,434	21,99
551,911	22,03
552,387	21,95
552,864	22,15
553,34	21,9
553,817	21,87
554,293	21,92
554,769	22,07
555,245	22,16
555,721	21,96
556,197	22,16
556,672	22,27
557,148	22,13
557,623	22,05
558,099	21,98
558,574	22,02
559,049	21,93
559,524	22,07
559,999	22,07
560,474	21,89
560,948	21,97
561,423	21,79
561,897	21,76
562,372	21,63
562,846	21,33
563,32	21,59
563,794	21,49
564,268	20,99
564,742	20,82
565,216	21,1
565,69	20,7
566,163	20,99
566,636	20,72
567,11	20,53
567,583	20,61
568,056	20,31
568,529	20,06
569,002	20,15
569,475	19,99
569,947	19,96
570,42	19,55
570,892	19,49
571,365	19,43
571,837	19,4
572,309	19,29
572,781	19,07
573,253	18,77
573,725	18,68
574,197	18,42
574,668	18,42
575,14	18,52
575,611	18,24
576,082	18,14
576,554	18,2
577,025	18,02
577,496	17,94
577,967	17,76
578,437	17,51
578,908	17,51
579,379	17,39
579,849	17,37
580,319	17,31
580,79	17,03
581,26	17,09
581,73	16,87
582,2	16,69
582,669	16,82
583,139	16,48
583,609	16,46
584,078	16,51
584,548	16,4
585,017	16,28
585,486	16,43
585,955	16,17
586,424	16,14
586,893	16,05
587,362	16,07
587,83	15,8
588,299	15,89
588,767	15,99
589,236	15,81
589,704	15,69
590,172	15,46
590,64	15,56
591,108	15,53
591,576	15,38
592,043	15,33
592,511	15,35
592,978	15,28
593,446	15,29
593,913	15,21
594,38	15,05
594,847	14,89
595,314	15,01
595,781	14,98
596,248	14,9
596,715	14,97
597,181	14,91
597,647	14,93
598,114	15,16
598,58	15
599,046	14,81
599,512	15,04
599,978	14,88
600,444	14,75
600,91	14,58
601,375	14,69
601,841	14,91
602,306	14,87
602,771	14,59
603,236	14,62
603,702	14,51
604,167	14,5
604,631	14,57
605,096	14,56
605,561	14,53
606,025	14,36
606,49	14,35
606,954	14,29
607,418	14,25
607,882	13,9
608,347	14,1
608,81	13,86
609,274	13,89
609,738	13,84
610,202	13,9
610,665	13,94
611,128	13,88
611,592	13,69
612,055	13,64
612,518	13,84
612,981	13,4
613,444	13,28
613,907	13,27
614,369	13,21
614,832	13,42
615,294	13,24
615,757	13,23
616,219	13,17
616,681	12,91
617,143	12,84
617,605	12,94
618,067	12,9
618,529	12,89
618,99	12,73
619,452	12,42
619,913	12,77
620,375	12,6
620,836	12,67
621,297	12,48
621,758	12,51
622,219	12,43
622,68	12,53
623,14	12,19
623,601	12,12
624,061	12,23
624,522	12,1
624,982	12,39
625,442	12,26
625,902	12,25
626,362	12,21
626,822	12,07
627,282	12,14
627,742	12,15
628,201	12,12
628,661	12,1
629,12	12,07
629,579	12,03
630,038	12,07
630,497	11,98
630,956	12,18
631,415	12,12
631,874	12,02
632,332	11,73
632,791	12,02
633,249	11,94
633,708	11,79
634,166	11,72
634,624	11,72
635,082	11,57
635,54	11,47
635,998	11,49
636,455	11,33
636,913	11,45
637,37	11,25
637,828	11,24
638,285	11,21
638,742	11,1
639,199	10,89
639,656	10,93
640,113	10,89
640,57	10,69
641,027	10,6
641,483	10,43
641,94	10,42
642,396	10,4
642,852	10,39
643,309	9,99
643,765	10,19
644,221	10,05
644,676	9,95
645,132	9,8
645,588	9,78
646,043	9,74
646,499	9,53
646,954	9,37
647,409	9,38
647,864	9,3
648,319	9,29
648,774	9,16
649,229	9,16
649,684	9,12
650,139	8,96
650,593	8,95
651,047	9,01
651,502	8,9
651,956	9,04
652,41	8,87
652,864	8,76
653,318	8,84
653,772	8,85
654,225	8,75
654,679	8,9
655,133	8,83
655,586	8,73
656,039	8,77
656,492	8,58
656,946	8,6
657,399	8,63
657,851	8,49
658,304	8,47
658,757	8,36
659,209	8,42
659,662	8,36
660,114	8,36
660,567	8,29
661,019	8,26
661,471	8,17
661,923	8,21
662,375	8,03
662,826	8
663,278	7,91
663,73	7,88
664,181	7,94
664,632	8,02
665,084	7,87
665,535	7,84
665,986	7,75
666,437	7,64
666,888	7,79
667,338	7,73
667,789	7,71
668,24	7,67
668,69	7,6
669,14	7,74
669,591	7,72
670,041	7,73
670,491	7,71
670,941	7,85
671,391	7,73
671,84	7,88
672,29	7,89
672,74	7,97
673,189	7,97
673,638	8
674,088	8,12
674,537	8,18
674,986	8,04
675,435	8,2
675,883	8,22
676,332	8,31
676,781	8,37
677,229	8,43
677,678	8,51
678,126	8,71
678,574	8,74
679,022	8,82
679,47	8,98
679,918	9,11
680,366	9,1
680,814	9,3
681,261	9,33
681,709	9,48
682,156	9,47
682,604	9,67
683,051	9,72
683,498	9,89
683,945	10,04
684,392	10,03
684,839	10,18
685,286	10,38
685,732	10,28
686,179	10,45
686,625	10,71
687,071	10,87
687,518	10,9
687,964	11,11
688,41	11,27
688,856	11,41
689,301	11,45
689,747	11,68
690,193	12
690,638	12,32
691,084	12,55
691,529	12,97
691,974	13,24
692,419	13,51
692,864	13,83
693,309	14,16
693,754	14,61
694,199	15,03
694,643	15,52
695,088	15,81
695,532	16,23
695,977	16,76
696,421	17,26
696,865	17,74
697,309	18,34
697,753	18,61
698,197	19,25
698,64	19,83
699,084	20,43
699,527	20,7
699,971	21,57
700,414	21,94
700,857	22,41
701,3	23,18
701,743	23,74
702,186	24,14
702,629	24,85
703,072	25,53
703,515	26,19
703,957	26,51
704,399	27,06
704,842	27,61
705,284	28,06
705,726	28,86
706,168	29,41
706,61	29,97
707,052	30,45
707,494	31,11
707,935	31,63
708,377	32,08
708,818	32,88
709,26	33,33
709,701	33,88
710,142	34,69
710,583	35,23
711,024	35,59
711,465	36,4
711,905	36,93
712,346	37,15
712,787	37,98
713,227	38,68
713,667	39,2
714,108	39,8
714,548	40,34
714,988	40,98
715,428	41,55
715,868	42,44
716,307	42,99
716,747	43,5
717,186	44
717,626	44,68
718,065	45,03
718,504	46,02
718,944	46,75
719,383	47,36
719,822	47,67
720,261	48,5
720,699	48,84
721,138	49,35
721,576	50,13
722,015	50,3
722,453	51,23
722,892	51,51
723,33	52,18
723,768	52,61
724,206	53,38
724,644	53,65
725,081	54,36
725,519	54,59
725,957	55,25
726,394	56,01
726,832	56,41
727,269	56,86
727,706	57,39
728,143	57,67
728,58	58,37
729,017	58,87
729,454	59,14
729,89	59,51
730,327	60,29
730,764	60,28
731,2	60,97
731,636	61,11
732,072	61,67
732,509	62,06
732,945	62,19
733,38	62,46
733,816	63,07
734,252	63,41
734,688	64,01
735,123	64,07
735,559	64,43
735,994	64,78
736,429	65,21
736,864	65,14
737,299	65,59
737,734	65,72
738,169	66,18
738,604	66,48
739,038	66,89
739,473	67,37
739,907	67,02
740,342	67,32
740,776	67,37
741,21	67,54
741,644	67,47
742,078	67,71
742,512	68,41
742,946	68,23
743,379	68,93
743,813	68,6
744,246	68,84
744,68	69,21
745,113	68,74
745,546	69,41
745,979	69,68
746,412	69,54
746,845	69,82
747,278	69,77
747,711	69,63
748,143	70
748,576	69,78
749,008	70,22
749,441	70,19
749,873	70,47
750,305	70,3
750,737	70,2
751,169	70,34
751,601	70,26
752,032	70,59
752,464	70,63
752,896	70,8
753,327	70,55
753,758	70,55
754,19	71,08
754,621	70,93
755,052	71,01
755,483	71,18
755,914	71,07
756,344	71,24
756,775	71,38
757,206	70,96
757,636	71,05
758,066	71,25
758,497	70,82
758,927	71,46
759,357	71,42
759,787	70,93
760,217	71,39
760,647	71,38
761,076	71,52
761,506	71,07
761,935	70,96
762,365	71,4
762,794	71,58
763,223	71,55
763,653	71,41
764,082	71,6
764,51	71,7
764,939	71,43
765,368	71,88
765,797	71,75
766,225	72,03
766,654	71,35
767,082	71,93
767,51	71,76
767,938	71,41
768,367	71,64
768,795	71,8
769,222	71,8
769,65	71,78
770,078	71,93
770,505	71,23
770,933	71,63
771,36	71,45
771,788	71,9
772,215	71,71
772,642	72,06
773,069	71,88
773,496	71,83
773,923	71,67
774,349	72,47
774,776	72,04
775,203	71,86
775,629	71,85
776,055	72,4
776,482	72,36
776,908	71,9
777,334	72,34
777,76	72,35
778,186	72,07
778,611	72,34
779,037	72,32
779,463	72,02
779,888	72,14
780,314	72,45
780,739	71,98
781,164	72,2
781,589	71,98
782,014	72,4
782,439	72,48
782,864	72,17
783,289	72,34
783,713	72,49
784,138	72,24
784,562	72,49
784,987	72,46
785,411	72,88
785,835	72,3
786,259	72,22
786,683	72,14
787,107	72,48
787,531	72,98
787,954	72,96
788,378	72,77
788,802	72,95
789,225	72,75
789,648	72,78
790,071	72,89
790,495	73,12
790,918	73,17
791,34	72,97
791,763	73,07
792,186	73,08
792,609	73,13
793,031	73,13
793,454	73,12
793,876	72,93
794,298	73,44
794,721	73,33
795,143	73,33
795,565	73,26
795,986	73,13
796,408	73,27
796,83	73,5
797,252	73,35
797,673	72,9
798,094	73,68
798,516	73,33
798,937	73,81
799,358	73,33
799,779	73,53
800,2	73,07
800,621	73,99
801,042	73,5
801,462	73,38
801,883	73,56
802,303	73,27
802,724	73,51
803,144	73,71
803,564	73,68
803,984	74,05
804,404	73,94
804,824	74,22
805,244	73,98
805,664	74,01
806,084	73,97
806,503	73,95
806,923	73,82
807,342	74,1
807,761	73,99
808,18	74,27
808,599	73,83
809,018	74,03
809,437	74,46
809,856	73,93
810,275	73,86
810,693	74,31
811,112	74,03
811,53	74,17
811,949	74,22
812,367	74,02
812,785	74,53
813,203	74,76
813,621	74,5
814,039	74,39
814,457	74,76
814,874	74,65
815,292	75,23
815,709	74,44
816,127	74,55
816,544	74,56
816,961	74,82
817,378	74,43
817,795	74,37
818,212	74,76
818,629	74,65
819,046	74,34
819,462	74,73
819,879	74,53
820,295	74,42
820,712	74,85
821,128	74,49
821,544	74,84
821,96	74,84
822,376	75,2
822,792	74,84
823,208	74,41
823,624	75,2
824,039	74,89
824,455	74,96
824,87	74,99
825,286	75,26
825,701	75,39
826,116	74,59
826,531	74,86
826,946	75,16
827,361	74,83
827,776	75,3
828,19	75,05
828,605	75,01
829,02	74,97
829,434	75,08
829,848	75,44
830,263	75,05
830,677	74,97
831,091	75,2
831,505	74,84
831,919	75,21
832,332	75,22
832,746	75,17
833,16	75,12
833,573	75,59
833,987	75,09
834,4	75,71
834,813	75,31
835,226	75,31
835,639	75,36
836,052	75,39
836,465	75,49
836,878	75,52
837,29	75,14
837,703	75,6
838,116	75,59
838,528	75,23
838,94	75,75
839,352	75,63
839,765	75,25
840,177	75,63
840,589	75,47
841	75,52
841,412	75,65
