Data from F5__Relative__1__00013.txt Node

Date: Fri Feb 02 12:33:37 CET 2024
User: diatiterra
Spectrometer: HDX00911
Trigger mode: 0
Integration Time (sec): 6,000000E-3
Scans to average: 2
Nonlinearity correction enabled: false
Boxcar width: 0
Storing dark spectrum: false
XAxis mode: Wavelengths
Number of Pixels in Spectrum: 2068
>>>>>Begin Spectral Data<<<<<
194,468	89,68
195,025	71,72
195,581	89,62
196,138	76,52
196,694	80,9
197,251	81,56
197,807	76,01
198,363	70,31
198,919	68,35
199,474	68,05
200,03	67,41
200,586	64,04
201,141	60,63
201,696	74,22
202,251	70,85
202,806	58,5
203,361	67,19
203,916	65,09
204,471	69,45
205,025	64,2
205,58	63,75
206,134	67,68
206,688	72,01
207,242	64,2
207,796	75
208,35	64,13
208,904	70,03
209,457	68,18
210,011	72,4
210,564	61,49
211,117	64,58
211,67	65,87
212,223	73,55
212,776	65,83
213,329	66,88
213,881	73,15
214,434	70,06
214,986	64,22
215,538	71,34
216,09	67,7
216,642	70,2
217,194	68,6
217,746	68,54
218,297	73,72
218,849	67,87
219,4	73,57
219,951	69,67
220,502	71,04
221,053	73,93
221,604	80,59
222,155	71,61
222,705	79,43
223,256	83,04
223,806	71,01
224,356	71,58
224,906	66,46
225,456	68,77
226,006	66,77
226,556	61,86
227,106	61,3
227,655	70,99
228,204	65,38
228,754	71,61
229,303	73
229,852	76,62
230,401	72,24
230,949	65,73
231,498	68,17
232,047	73,99
232,595	59,08
233,143	61,98
233,691	65,38
234,239	65,65
234,787	71,48
235,335	65,03
235,883	67,13
236,43	69,28
236,978	75,66
237,525	65,72
238,072	65,02
238,619	60,94
239,166	65,05
239,713	69,1
240,26	63,04
240,806	68,17
241,353	68,98
241,899	72,76
242,445	66,78
242,991	69,48
243,537	69,47
244,083	64,63
244,629	68,12
245,174	72,44
245,72	61,56
246,265	67,79
246,81	73,6
247,355	74,75
247,9	65,9
248,445	70,97
248,99	68,3
249,534	73,97
250,079	69,74
250,623	69,7
251,168	70,41
251,712	68,18
252,256	66,44
252,8	63,75
253,343	58,68
253,887	64,98
254,43	68,21
254,974	65,79
255,517	70,67
256,06	71,67
256,603	66,22
257,146	64,71
257,689	70,17
258,232	75,79
258,774	71,23
259,317	70,13
259,859	73,67
260,401	74,67
260,943	77,13
261,485	67,97
262,027	66,77
262,569	70,63
263,11	66,56
263,652	78,5
264,193	71,33
264,734	73,08
265,275	71,63
265,816	71,62
266,357	67,47
266,898	68,79
267,438	69,2
267,979	72,73
268,519	76,3
269,059	73,36
269,6	68,33
270,14	70,99
270,68	67,25
271,219	63,76
271,759	66,45
272,298	66,77
272,838	65,92
273,377	61,15
273,916	79,18
274,455	75,96
274,994	74,81
275,533	68,55
276,072	77,08
276,61	71,01
277,149	72,08
277,687	64,45
278,225	67,6
278,763	69,2
279,301	72,66
279,839	60,33
280,377	73,01
280,914	75,27
281,452	69,59
281,989	76,81
282,526	66,67
283,064	77,06
283,601	63,04
284,137	73,63
284,674	68,83
285,211	65,96
285,747	77,32
286,284	71,58
286,82	69,28
287,356	77,94
287,892	72
288,428	74,65
288,964	76,9
289,5	73,26
290,035	70,27
290,571	67,81
291,106	63,55
291,641	70,75
292,176	73,88
292,711	67,45
293,246	67,52
293,781	66,43
294,315	70,5
294,85	66,56
295,384	67,74
295,918	66,55
296,453	68,06
296,987	67,33
297,52	78,83
298,054	76,33
298,588	63,36
299,121	70,77
299,655	69,38
300,188	66,43
300,721	65,99
301,254	73,31
301,787	68,06
302,32	70,1
302,853	73,65
303,385	79,14
303,918	73,08
304,45	61,74
304,982	65,6
305,514	75,67
306,046	65,55
306,578	71,38
307,11	70,48
307,641	66,33
308,173	63,5
308,704	70,17
309,236	64,16
309,767	65,41
310,298	64,76
310,829	58,12
311,359	66,34
311,89	64,48
312,421	63,09
312,951	60,88
313,481	69,29
314,012	69,45
314,542	71,03
315,072	65,79
315,601	64,42
316,131	71,82
316,661	65,1
317,19	70,72
317,72	63,73
318,249	66,67
318,778	71,73
319,307	59,5
319,836	71,38
320,365	71,06
320,893	65,37
321,422	65,67
321,95	65,86
322,479	68,64
323,007	71,18
323,535	63,75
324,063	59,11
324,591	74,48
325,118	62,38
325,646	82,37
326,173	63,88
326,701	69,72
327,228	70,2
327,755	66,89
328,282	55,74
328,809	63,54
329,336	64,93
329,862	65,52
330,389	60,86
330,915	60,74
331,441	69,31
331,968	64,77
332,494	57,05
333,02	64,63
333,545	63,61
334,071	59,75
334,597	58,01
335,122	60,44
335,648	62,66
336,173	50,49
336,698	54,92
337,223	60,65
337,748	69,23
338,272	61,25
338,797	63,4
339,322	59,33
339,846	60,71
340,37	58,67
340,894	57,55
341,419	60,19
341,942	62,74
342,466	58,9
342,99	53,66
343,514	53,06
344,037	54,78
344,56	53,22
345,084	49,44
345,607	54,21
346,13	55,1
346,653	49,14
347,175	54,95
347,698	53,5
348,221	51,68
348,743	51,34
349,265	53,6
349,787	43,66
350,309	51,97
350,831	47,28
351,353	51,53
351,875	54,55
352,397	50,13
352,918	44,5
353,439	42,72
353,961	43,46
354,482	45,15
355,003	48,86
355,524	48,34
356,044	43,22
356,565	48,01
357,086	47,22
357,606	49,19
358,126	45,31
358,646	49,05
359,167	46
359,687	44,63
360,206	43,86
360,726	44,32
361,246	48,52
361,765	43,64
362,285	43,4
362,804	47,13
363,323	48,04
363,842	42,36
364,361	45,55
364,88	45,29
365,398	45,59
365,917	45,56
366,435	38,63
366,954	42,38
367,472	39,74
367,99	37,41
368,508	41,56
369,026	39,74
369,544	41,55
370,061	37,37
370,579	33,39
371,096	35,06
371,613	38,02
372,131	35,06
372,648	38,32
373,165	39,73
373,681	37,58
374,198	34,43
374,715	33,74
375,231	37,48
375,747	40,84
376,264	31,91
376,78	34,81
377,296	33,67
377,812	30,69
378,327	34,11
378,843	34,56
379,359	32,72
379,874	30,77
380,389	34,05
380,905	34,21
381,42	27,72
381,935	31,83
382,449	30,11
382,964	30,92
383,479	27,76
383,993	27,11
384,508	28,98
385,022	27,53
385,536	30,42
386,05	27,3
386,564	28,54
387,078	29,19
387,592	30,04
388,105	27,13
388,619	24,9
389,132	24,41
389,645	25,97
390,158	24,56
390,671	26,3
391,184	24,69
391,697	23,63
392,21	24,09
392,722	25,54
393,235	23,11
393,747	24,45
394,259	25,08
394,771	24,36
395,283	22,32
395,795	26,6
396,307	22,8
396,818	21,4
397,33	23,87
397,841	21,37
398,353	21,63
398,864	19,84
399,375	20,84
399,886	21,04
400,397	19,66
400,907	19,7
401,418	20,4
401,928	19,16
402,439	19,52
402,949	18,02
403,459	18,43
403,969	18,13
404,479	16,89
404,989	17,77
405,498	16,57
406,008	17,35
406,517	16,97
407,027	17,08
407,536	16,71
408,045	16,2
408,554	16,44
409,063	15,08
409,572	14,93
410,08	14,38
410,589	15,28
411,097	14,34
411,606	13,58
412,114	14,01
412,622	12,78
413,13	14,16
413,638	12,22
414,145	12,48
414,653	12,27
415,16	11,89
415,668	11,79
416,175	11,76
416,682	11,52
417,189	11,03
417,696	12
418,203	11,94
418,71	11,64
419,216	11,41
419,723	11
420,229	11,01
420,735	10,83
421,242	10,66
421,748	10,96
422,254	10,01
422,759	10,75
423,265	10,73
423,771	11,21
424,276	10,34
424,781	10,92
425,287	10,34
425,792	10,9
426,297	9,99
426,802	10,56
427,306	10,66
427,811	10,39
428,316	10,34
428,82	10,84
429,324	10,67
429,829	10,22
430,333	10,48
430,837	9,85
431,34	10,29
431,844	9,96
432,348	10,17
432,851	9,68
433,355	9,95
433,858	10,07
434,361	10,05
434,864	9,92
435,367	9,82
435,87	9,94
436,373	10,04
436,876	9,35
437,378	9,8
437,88	9,84
438,383	10,03
438,885	9,7
439,387	9,41
439,889	9,86
440,391	9,42
440,892	9,73
441,394	9,71
441,896	9,73
442,397	10,11
442,898	9,51
443,399	9,28
443,9	10,01
444,401	10,05
444,902	9,87
445,403	9,57
445,903	9,9
446,404	9,27
446,904	9,11
447,405	9,36
447,905	9,77
448,405	9,61
448,905	9,12
449,404	9,65
449,904	9,34
450,404	9,68
450,903	9,5
451,403	9,8
451,902	9,49
452,401	9,27
452,9	9,58
453,399	9,33
453,898	9,6
454,396	9,61
454,895	9,53
455,393	9,59
455,892	9,59
456,39	9,56
456,888	9,83
457,386	9,34
457,884	9,47
458,382	9,41
458,879	9,8
459,377	9,88
459,874	9,66
460,372	9,75
460,869	9,35
461,366	9,5
461,863	9,54
462,36	9,39
462,857	9,53
463,353	9,51
463,85	9,64
464,346	9,57
464,843	9,79
465,339	9,79
465,835	9,41
466,331	9,67
466,827	9,51
467,323	9,58
467,818	9,5
468,314	9,57
468,809	9,56
469,305	9,53
469,8	9,81
470,295	9,25
470,79	9,74
471,285	9,73
471,78	9,48
472,274	9,8
472,769	9,66
473,263	9,54
473,758	9,48
474,252	9,42
474,746	9,51
475,24	9,77
475,734	9,42
476,228	9,75
476,721	9,83
477,215	9,44
477,708	9,83
478,202	9,33
478,695	9,71
479,188	9,48
479,681	9,5
480,174	9,24
480,667	9,62
481,159	9,8
481,652	9,75
482,144	9,62
482,637	9,7
483,129	9,47
483,621	9,63
484,113	9,87
484,605	9,77
485,097	9,84
485,588	9,78
486,08	9,48
486,571	9,64
487,063	9,55
487,554	9,64
488,045	9,81
488,536	9,81
489,027	9,91
489,518	9,67
490,008	9,93
490,499	9,83
490,989	9,72
491,48	9,6
491,97	10,17
492,46	9,79
492,95	9,45
493,44	9,83
493,93	10,03
494,419	10,04
494,909	9,84
495,398	10,05
495,888	10,01
496,377	9,7
496,866	10
497,355	10,23
497,844	10,24
498,333	10,07
498,821	10,04
499,31	10,1
499,798	10,18
500,287	10,28
500,775	10,19
501,263	10,37
501,751	10,29
502,239	10,3
502,727	10,32
503,215	10,49
503,702	10,48
504,19	10,7
504,677	10,79
505,164	11,08
505,651	10,89
506,139	10,68
506,625	11,1
507,112	11,15
507,599	11,43
508,086	11,08
508,572	11,65
509,058	11,62
509,545	11,61
510,031	11,38
510,517	12,05
511,003	12,17
511,489	12,3
511,974	12,34
512,46	12,1
512,946	12,85
513,431	12,89
513,916	13,24
514,401	13,05
514,887	13,61
515,371	13,28
515,856	13,49
516,341	13,65
516,826	13,92
517,31	14,17
517,795	14,24
518,279	14,82
518,763	14,74
519,247	15,24
519,731	15,42
520,215	15,13
520,699	15,89
521,182	15,94
521,666	15,79
522,149	16,38
522,633	16,64
523,116	17,07
523,599	17,31
524,082	17,11
524,565	17,28
525,048	18,15
525,53	18,2
526,013	18,33
526,495	18,67
526,978	18,72
527,46	18,79
527,942	19,45
528,424	19,6
528,906	19,72
529,388	19,95
529,87	20,08
530,351	20,11
530,833	20,41
531,314	20,55
531,795	20,81
532,277	20,91
532,758	21,55
533,238	21,08
533,719	21,21
534,2	21,29
534,681	21,32
535,161	21,67
535,642	21,74
536,122	21,91
536,602	21,96
537,082	22,07
537,562	21,97
538,042	22,04
538,522	22,17
539,001	22,27
539,481	22,18
539,96	22,58
540,44	22,37
540,919	22,69
541,398	22,72
541,877	22,79
542,356	22,69
542,835	22,3
543,313	22,56
543,792	23,02
544,27	22,71
544,749	22,93
545,227	22,68
545,705	23,12
546,183	22,72
546,661	23
547,139	23
547,616	23,01
548,094	23
548,571	23,08
549,049	23,21
549,526	23,32
550,003	23,29
550,48	23,43
550,957	23,18
551,434	23,4
551,911	23,16
552,387	23,32
552,864	23,6
553,34	23,37
553,817	23,38
554,293	23,37
554,769	23,61
555,245	23,42
555,721	23,34
556,197	23,2
556,672	23,14
557,148	23,24
557,623	23,54
558,099	23,08
558,574	23,43
559,049	22,83
559,524	22,79
559,999	23,01
560,474	22,58
560,948	22,81
561,423	22,72
561,897	22,68
562,372	22,2
562,846	22,26
563,32	22,27
563,794	22,28
564,268	21,91
564,742	21,82
565,216	21,77
565,69	21,48
566,163	21,44
566,636	21,23
567,11	21,05
567,583	21,09
568,056	20,82
568,529	20,7
569,002	20,65
569,475	20,44
569,947	20,35
570,42	20,17
570,892	19,89
571,365	19,96
571,837	19,58
572,309	19,45
572,781	19,38
573,253	19,14
573,725	18,93
574,197	19,04
574,668	18,59
575,14	18,74
575,611	18,39
576,082	18,46
576,554	18,45
577,025	18,11
577,496	17,89
577,967	17,72
578,437	17,8
578,908	17,69
579,379	17,46
579,849	17,57
580,319	17,37
580,79	17,32
581,26	17,08
581,73	17,28
582,2	17,11
582,669	16,96
583,139	17,09
583,609	16,71
584,078	16,75
584,548	16,48
585,017	16,62
585,486	16,45
585,955	16,35
586,424	16,27
586,893	16,19
587,362	16,17
587,83	15,99
588,299	16,14
588,767	15,99
589,236	15,77
589,704	15,84
590,172	15,94
590,64	15,85
591,108	15,86
591,576	15,91
592,043	15,64
592,511	15,74
592,978	15,43
593,446	15,67
593,913	15,5
594,38	15,67
594,847	15,41
595,314	15,51
595,781	15,33
596,248	15,33
596,715	15,46
597,181	15,22
597,647	15,11
598,114	15,04
598,58	15,22
599,046	15,18
599,512	15,27
599,978	15,15
600,444	15,05
600,91	15,09
601,375	15,14
601,841	15,05
602,306	15,09
602,771	14,93
603,236	14,91
603,702	14,95
604,167	14,82
604,631	14,81
605,096	14,84
605,561	14,75
606,025	14,7
606,49	14,6
606,954	14,61
607,418	14,58
607,882	14,52
608,347	14,48
608,81	14,29
609,274	14,22
609,738	14,35
610,202	14,35
610,665	14,22
611,128	14,22
611,592	14,04
612,055	14,18
612,518	13,99
612,981	13,88
613,444	13,82
613,907	13,79
614,369	13,84
614,832	13,81
615,294	13,59
615,757	13,55
616,219	13,63
616,681	13,48
617,143	13,55
617,605	13,29
618,067	13,43
618,529	13,44
618,99	13,42
619,452	13,17
619,913	13,16
620,375	13,11
620,836	13,22
621,297	12,97
621,758	12,89
622,219	12,88
622,68	13,02
623,14	12,91
623,601	12,77
624,061	12,95
624,522	12,73
624,982	12,78
625,442	12,74
625,902	12,84
626,362	12,79
626,822	12,69
627,282	12,91
627,742	12,83
628,201	12,78
628,661	12,93
629,12	12,87
629,579	12,74
630,038	12,69
630,497	12,78
630,956	12,71
631,415	12,7
631,874	12,74
632,332	12,71
632,791	12,71
633,249	12,62
633,708	12,56
634,166	12,53
634,624	12,58
635,082	12,45
635,54	12,6
635,998	12,43
636,455	12,37
636,913	12,23
637,37	12,29
637,828	12,22
638,285	12,15
638,742	11,96
639,199	11,89
639,656	11,84
640,113	11,94
640,57	11,81
641,027	11,83
641,483	11,75
641,94	11,59
642,396	11,54
642,852	11,62
643,309	11,3
643,765	11,38
644,221	11,18
644,676	11,25
645,132	11,1
645,588	11,18
646,043	11,05
646,499	10,96
646,954	10,95
647,409	10,9
647,864	11
648,319	10,69
648,774	10,75
649,229	10,83
649,684	10,71
650,139	10,8
650,593	10,67
651,047	10,6
651,502	10,68
651,956	10,8
652,41	10,59
652,864	10,57
653,318	10,63
653,772	10,68
654,225	10,65
654,679	10,64
655,133	10,72
655,586	10,51
656,039	10,61
656,492	10,63
656,946	10,5
657,399	10,49
657,851	10,58
658,304	10,37
658,757	10,36
659,209	10,47
659,662	10,4
660,114	10,25
660,567	10,29
661,019	10,38
661,471	10,29
661,923	10,42
662,375	10,33
662,826	10,35
663,278	10,34
663,73	10,38
664,181	10,3
664,632	10,29
665,084	10,26
665,535	10,26
665,986	10,23
666,437	10,38
666,888	10,28
667,338	10,31
667,789	10,45
668,24	10,36
668,69	10,51
669,14	10,37
669,591	10,43
670,041	10,49
670,491	10,61
670,941	10,62
671,391	10,7
671,84	10,76
672,29	10,66
672,74	10,65
673,189	10,69
673,638	10,89
674,088	10,99
674,537	11,1
674,986	10,99
675,435	11,12
675,883	11,15
676,332	11,25
676,781	11,26
677,229	11,46
677,678	11,58
678,126	11,67
678,574	11,71
679,022	11,77
679,47	11,91
679,918	12
680,366	11,99
680,814	12,16
681,261	12,16
681,709	12,27
682,156	12,46
682,604	12,58
683,051	12,52
683,498	12,58
683,945	12,71
684,392	12,69
684,839	12,75
685,286	12,77
685,732	12,81
686,179	13,03
686,625	13,01
687,071	13,13
687,518	13,14
687,964	13,29
688,41	13,29
688,856	13,5
689,301	13,32
689,747	13,63
690,193	13,82
690,638	13,97
691,084	14,08
691,529	14,42
691,974	14,52
692,419	14,87
692,864	15,07
693,309	15,58
693,754	15,78
694,199	16,18
694,643	16,53
695,088	17,05
695,532	17,46
695,977	17,93
696,421	18,31
696,865	18,78
697,309	19,31
697,753	19,68
698,197	20,48
698,64	20,81
699,084	21,21
699,527	21,85
699,971	22,38
700,414	23,19
700,857	23,99
701,3	24,49
701,743	25,01
702,186	25,47
702,629	26,16
703,072	26,83
703,515	27,85
703,957	28,11
704,399	28,88
704,842	29,49
705,284	29,82
705,726	30,82
706,168	31,44
706,61	31,72
707,052	32,52
707,494	33,46
707,935	33,91
708,377	34,69
708,818	35,34
709,26	35,94
709,701	36,62
710,142	37,4
710,583	37,88
711,024	38,69
711,465	39,44
711,905	39,88
712,346	40,33
712,787	41,35
713,227	42,2
713,667	42,61
714,108	43,27
714,548	43,91
714,988	44,85
715,428	45,46
715,868	46,19
716,307	46,69
716,747	47,53
717,186	48,03
717,626	48,6
718,065	49,27
718,504	50,41
718,944	50,85
719,383	51,5
719,822	52,1
720,261	52,75
720,699	53,4
721,138	54,27
721,576	54,89
722,015	55,1
722,453	55,82
722,892	56,27
723,33	56,86
723,768	57,58
724,206	58,55
724,644	58,87
725,081	59,51
725,519	59,5
725,957	60,2
726,394	60,83
726,832	61,39
727,269	61,88
727,706	62,43
728,143	62,68
728,58	63,43
729,017	64,16
729,454	64,49
729,89	64,69
730,327	64,95
730,764	65,8
731,2	65,96
731,636	66,38
732,072	66,76
732,509	67,19
732,945	67,38
733,38	67,78
733,816	68,18
734,252	68,48
734,688	68,74
735,123	69,09
735,559	69,3
735,994	69,7
736,429	69,69
736,864	70,14
737,299	70,59
737,734	70,6
738,169	71,02
738,604	70,91
739,038	71,61
739,473	71,82
739,907	72,07
740,342	72,1
740,776	72,16
741,21	71,91
741,644	72,04
742,078	72,32
742,512	72,64
742,946	72,94
743,379	73,25
743,813	73,04
744,246	73,06
744,68	73,59
745,113	73,47
745,546	73,47
745,979	73,81
746,412	73,61
746,845	74,03
747,278	74
747,711	73,72
748,143	73,7
748,576	74,06
749,008	74,18
749,441	74,18
749,873	74,55
750,305	74,49
750,737	74,13
751,169	74,09
751,601	74,24
752,032	74,46
752,464	74,32
752,896	74,61
753,327	73,92
753,758	74,27
754,19	74,66
754,621	73,99
755,052	74,59
755,483	74,46
755,914	74,33
756,344	74,49
756,775	74,58
757,206	74,2
757,636	74,53
758,066	74,22
758,497	74,23
758,927	74,38
759,357	74,67
759,787	74,29
760,217	74,53
760,647	74,26
761,076	74,32
761,506	74,42
761,935	74,28
762,365	74,04
762,794	74,49
763,223	74,47
763,653	74,21
764,082	74,42
764,51	74,04
764,939	73,92
765,368	74,42
765,797	74,1
766,225	74,14
766,654	73,86
767,082	74,78
767,51	73,8
767,938	73,76
768,367	74,22
768,795	73,78
769,222	73,95
769,65	74
770,078	73,72
770,505	73,76
770,933	73,77
771,36	73,86
771,788	74,19
772,215	73,87
772,642	73,84
773,069	73,8
773,496	73,72
773,923	73,73
774,349	74,16
774,776	73,64
775,203	73,43
775,629	73,87
776,055	73,99
776,482	73,88
776,908	73,74
777,334	73,63
777,76	73,91
778,186	73,6
778,611	73,67
779,037	73,72
779,463	73,19
779,888	73,42
780,314	73,67
780,739	73,46
781,164	73,36
781,589	73,44
782,014	73,36
782,439	73,69
782,864	73,34
783,289	73,67
783,713	73,55
784,138	73,55
784,562	73,71
784,987	73,37
785,411	73,37
785,835	73,21
786,259	73,27
786,683	73,04
787,107	73,32
787,531	73,49
787,954	73,34
788,378	73,64
788,802	73,67
789,225	73,23
789,648	73,39
790,071	73,46
790,495	73,81
790,918	73,43
791,34	73,73
791,763	73,39
792,186	73,51
792,609	73,63
793,031	73,64
793,454	73,31
793,876	73,21
794,298	73,31
794,721	73,57
795,143	73,19
795,565	73,16
795,986	73,56
796,408	73,33
796,83	73,21
797,252	73,53
797,673	73,27
798,094	73,26
798,516	73
798,937	73,3
799,358	73,2
799,779	73,22
800,2	73,13
800,621	73,85
801,042	73,25
801,462	73,25
801,883	73,22
802,303	72,99
802,724	72,89
803,144	73,27
803,564	72,96
803,984	73,45
804,404	73,34
804,824	73,49
805,244	73,18
805,664	73,17
806,084	73,23
806,503	73,24
806,923	73,31
807,342	72,99
807,761	73,22
808,18	73,57
808,599	73,14
809,018	72,89
809,437	73,44
809,856	73,04
810,275	73,07
810,693	73,34
811,112	73,21
811,53	73,3
811,949	73,01
812,367	72,97
812,785	73,34
813,203	73,13
813,621	72,61
814,039	73,14
814,457	73,34
814,874	73,18
815,292	73,78
815,709	73
816,127	73,1
816,544	73,32
816,961	73,35
817,378	72,94
817,795	73,09
818,212	73,1
818,629	73,01
819,046	72,95
819,462	73,03
819,879	72,87
820,295	72,65
820,712	73,21
821,128	73
821,544	73,14
821,96	72,83
822,376	73,21
822,792	73,07
823,208	73,12
823,624	73,42
824,039	73,08
824,455	73,16
824,87	73,13
825,286	73,61
825,701	73,22
826,116	72,77
826,531	73,05
826,946	72,87
827,361	73,31
827,776	73,21
828,19	73,21
828,605	72,91
829,02	72,95
829,434	73,07
829,848	73,28
830,263	72,91
830,677	72,8
831,091	73,07
831,505	73,37
831,919	73,11
832,332	72,98
832,746	72,78
833,16	72,8
833,573	72,85
833,987	72,58
834,4	73,08
834,813	72,95
835,226	72,94
835,639	73,22
836,052	72,91
836,465	72,87
836,878	73
837,29	72,32
837,703	73,05
