Data from I2__Relative__0__00029.txt Node

Date: Fri Feb 02 12:36:24 CET 2024
User: diatiterra
Spectrometer: HDX00911
Trigger mode: 0
Integration Time (sec): 6,000000E-3
Scans to average: 2
Nonlinearity correction enabled: false
Boxcar width: 0
Storing dark spectrum: false
XAxis mode: Wavelengths
Number of Pixels in Spectrum: 2068
>>>>>Begin Spectral Data<<<<<
194,468	101,59
195,025	71,72
195,581	94,34
196,138	90,91
196,694	79,4
197,251	84,43
197,807	78,23
198,363	66,56
198,919	68,04
199,474	64,54
200,03	67,41
200,586	65,3
201,141	57,78
201,696	64,29
202,251	75,24
202,806	61,1
203,361	70
203,916	59,17
204,471	67,2
205,025	64,79
205,58	66,16
206,134	70,43
206,688	65,53
207,242	62,65
207,796	74,32
208,35	65,35
208,904	65,75
209,457	69,48
210,011	70,13
210,564	65,05
211,117	63,64
211,67	67,07
212,223	69,03
212,776	66,14
213,329	65,59
213,881	71,14
214,434	61,08
214,986	72,52
215,538	65,47
216,09	64,26
216,642	66,23
217,194	73,17
217,746	60,26
218,297	70,65
218,849	63,61
219,4	61,79
219,951	68,47
220,502	61,62
221,053	71,43
221,604	79,49
222,155	70,97
222,705	71,84
223,256	74,74
223,806	67,1
224,356	72,63
224,906	64,56
225,456	68,77
226,006	67,09
226,556	65,71
227,106	68,11
227,655	66,98
228,204	63,31
228,754	63,41
229,303	63
229,852	71,22
230,401	70,66
230,949	66,67
231,498	73,36
232,047	74,66
232,595	61,72
233,143	59,28
233,691	68,59
234,239	70,52
234,787	71,48
235,335	66,01
235,883	74,05
236,43	64,38
236,978	73,68
237,525	68,24
238,072	59,75
238,619	73,75
239,166	71,2
239,713	69,79
240,26	72,67
240,806	75,56
241,353	70,63
241,899	58,97
242,445	75,34
242,991	74,35
243,537	70,53
244,083	62,7
244,629	69,38
245,174	74,68
245,72	70,03
246,265	74,5
246,81	74,59
247,355	69,36
247,9	68,85
248,445	63,23
248,99	70,59
249,534	80,48
250,079	67,43
250,623	75,76
251,168	69,05
251,712	71,43
252,256	70,13
252,8	64,06
253,343	75,08
253,887	67,19
254,43	68,54
254,974	68,42
255,517	78
256,06	71,67
256,603	70,61
257,146	64,38
257,689	69,15
258,232	83,73
258,774	72,6
259,317	62,66
259,859	71,67
260,401	65,46
260,943	70,31
261,485	72,6
262,027	70,65
262,569	68,98
263,11	61,69
263,652	73,38
264,193	76,45
264,734	72,03
265,275	60,55
265,816	68,92
266,357	70,89
266,898	71,14
267,438	70,93
267,979	71,68
268,519	74,35
269,059	67,82
269,6	73
270,14	72,35
270,68	74,3
271,219	69,46
271,759	65,45
272,298	65,18
272,838	71,06
273,377	65,88
273,916	67,24
274,455	66,2
274,994	73,33
275,533	66,78
276,072	77,87
276,61	76,09
277,149	69,96
277,687	68,11
278,225	73,17
278,763	70,24
279,301	70,5
279,839	72
280,377	63,67
280,914	66,78
281,452	75,34
281,989	78,33
282,526	71,28
283,064	79,21
283,601	62,73
284,137	74,66
284,674	66,23
285,211	61,09
285,747	72,85
286,284	75,34
286,82	68,26
287,356	69,75
287,892	65,45
288,428	65,49
288,964	71,84
289,5	67,01
290,035	70,61
290,571	72,6
291,106	73,58
291,641	72,79
292,176	61,51
292,711	72,82
293,246	63,06
293,781	63,6
294,315	70,88
294,85	59,67
295,384	72,4
295,918	68,24
296,453	68,06
296,987	69
297,52	76,28
298,054	68,55
298,588	71,58
299,121	67,96
299,655	68,4
300,188	71,79
300,721	59,93
301,254	77,29
301,787	71,88
302,32	69,76
302,853	72,64
303,385	73,02
303,918	76,57
304,45	70,74
304,982	60,28
305,514	71,48
306,046	69,23
306,578	66,78
307,11	71,96
307,641	67,35
308,173	69,34
308,704	68,47
309,236	62,46
309,767	67,47
310,298	65,71
310,829	64,98
311,359	72,55
311,89	64,48
312,421	63,09
312,951	63,09
313,481	76,03
314,012	67,27
314,542	68,28
315,072	65,79
315,601	63,14
316,131	70,1
316,661	65,77
317,19	72,04
317,72	57,19
318,249	67,01
318,778	67,14
319,307	63,55
319,836	70,65
320,365	60,44
320,893	59,01
321,422	70
321,95	72,76
322,479	60,28
323,007	68,4
323,535	72,82
324,063	60,7
324,591	68,53
325,118	62,7
325,646	74,1
326,173	68,23
326,701	64,44
327,228	72,52
327,755	64,59
328,282	68,52
328,809	60,07
329,336	68,4
329,862	61,13
330,389	68,09
330,915	65,77
331,441	63,45
331,968	63,42
332,494	67,21
333,02	63,61
333,545	62,08
334,071	65,41
334,597	58,97
335,122	55,06
335,648	71,75
336,173	61,89
336,698	60,95
337,223	66,77
337,748	60,9
338,272	58,44
338,797	60,46
339,322	57,49
339,846	59,29
340,37	59,78
340,894	55,03
341,419	62,42
341,942	53,5
342,466	56,75
342,99	52,13
343,514	57,22
344,037	57,58
344,56	53,8
345,084	49,44
345,607	61,32
346,13	55,69
346,653	62,36
347,175	52,47
347,698	60,22
348,221	54,47
348,743	46,24
349,265	50,93
349,787	49,01
350,309	53,37
350,831	47,28
351,353	46,43
351,875	46,75
352,397	40,51
352,918	44,96
353,439	48,15
353,961	50,86
354,482	48,72
355,003	48,35
355,524	47,31
356,044	47,66
356,565	55,47
357,086	46,77
357,606	42,03
358,126	46,24
358,646	48,81
359,167	41,25
359,687	45,05
360,206	43,86
360,726	45,85
361,246	38,61
361,765	42,58
362,285	42,77
362,804	42,53
363,323	40,62
363,842	35,12
364,361	42,52
364,88	40,16
365,398	41,48
365,917	40,43
366,435	35,86
366,954	39,01
367,472	37,85
367,99	35,93
368,508	34,35
369,026	35,22
369,544	36,97
370,061	35,05
370,579	34,25
371,096	33,85
371,613	34,38
372,131	33,99
372,648	33,28
373,165	33,06
373,681	30,16
374,198	31,45
374,715	30,37
375,231	30,08
375,747	30,63
376,264	26,26
376,78	29,06
377,296	29,34
377,812	29,03
378,327	32,94
378,843	31,02
379,359	24,3
379,874	25,07
380,389	29,11
380,905	27,48
381,42	25,57
381,935	26,01
382,449	26,21
382,964	26,09
383,479	28,11
383,993	23,67
384,508	22,46
385,022	23,29
385,536	24,69
386,05	22,59
386,564	23,96
387,078	22,42
387,592	19,14
388,105	21,58
388,619	20,75
389,132	19,58
389,645	17,52
390,158	18,2
390,671	19,91
391,184	19,95
391,697	18,55
392,21	19,36
392,722	18,12
393,235	18,73
393,747	17,72
394,259	19,33
394,771	17,38
395,283	18
395,795	18,69
396,307	16,17
396,818	16,27
397,33	17,71
397,841	16,98
398,353	16,41
398,864	15,53
399,375	15,91
399,886	13,86
400,397	13,48
400,907	14,12
401,418	14,22
401,928	12,59
402,439	14,25
402,949	11,96
403,459	12,51
403,969	13,21
404,479	12,71
404,989	11,53
405,498	11,2
406,008	11,5
406,517	11,06
407,027	11,42
407,536	11,03
408,045	11,35
408,554	9,89
409,063	8,96
409,572	9,61
410,08	8,82
410,589	8,45
411,097	7,97
411,606	7,96
412,114	8,15
412,622	7,67
413,13	8,19
413,638	6,96
414,145	6,82
414,653	6,53
415,16	6,79
415,668	6,63
416,175	6,18
416,682	5,89
417,189	5,81
417,696	6,39
418,203	5,79
418,71	5,84
419,216	5,62
419,723	5,55
420,229	5,04
420,735	5,66
421,242	5,48
421,748	5,3
422,254	5,01
422,759	5,14
423,265	5,26
423,771	5,42
424,276	5,11
424,781	5,08
425,287	5,03
425,792	5,05
426,297	4,67
426,802	4,52
427,306	4,73
427,811	4,61
428,316	4,9
428,82	4,55
429,324	4,76
429,829	4,59
430,333	4,74
430,837	4,13
431,34	4,6
431,844	4,44
432,348	4,38
432,851	4,36
433,355	4,06
433,858	4,49
434,361	4,37
434,864	4,43
435,367	4,27
435,87	4,42
436,373	4,32
436,876	4,18
437,378	4,08
437,88	4,19
438,383	3,99
438,885	4,25
439,387	4,13
439,889	4,33
440,391	3,89
440,892	3,88
441,394	3,97
441,896	3,97
442,397	3,97
442,898	3,78
443,399	4,19
443,9	3,7
444,401	4,07
444,902	3,83
445,403	4,1
445,903	3,92
446,404	4,02
446,904	3,61
447,405	3,84
447,905	3,76
448,405	3,94
448,905	3,76
449,404	3,67
449,904	3,92
450,404	3,72
450,903	3,87
451,403	4,14
451,902	3,85
452,401	3,69
452,9	3,63
453,399	4,24
453,898	3,64
454,396	3,66
454,895	3,9
455,393	3,99
455,892	4,28
456,39	3,83
456,888	4,06
457,386	3,81
457,884	3,7
458,382	3,76
458,879	3,76
459,377	4,02
459,874	3,88
460,372	3,92
460,869	3,61
461,366	3,7
461,863	3,78
462,36	3,88
462,857	3,9
463,353	3,77
463,85	3,68
464,346	3,77
464,843	3,74
465,339	3,71
465,835	3,74
466,331	3,84
466,827	3,86
467,323	3,78
467,818	3,51
468,314	3,63
468,809	3,58
469,305	3,79
469,8	3,7
470,295	3,73
470,79	3,77
471,285	3,69
471,78	3,62
472,274	3,57
472,769	3,48
473,263	3,71
473,758	3,78
474,252	3,85
474,746	3,5
475,24	3,39
475,734	3,47
476,228	3,52
476,721	3,6
477,215	3,49
477,708	3,46
478,202	3,47
478,695	3,76
479,188	3,53
479,681	3,63
480,174	3,51
480,667	3,58
481,159	3,63
481,652	3,73
482,144	3,63
482,637	3,57
483,129	3,65
483,621	3,7
484,113	3,79
484,605	3,84
485,097	3,78
485,588	3,64
486,08	3,89
486,571	3,55
487,063	3,5
487,554	3,61
488,045	3,72
488,536	3,57
489,027	3,66
489,518	3,52
490,008	3,73
490,499	3,7
490,989	3,64
491,48	3,75
491,97	3,68
492,46	3,74
492,95	3,65
493,44	3,71
493,93	3,8
494,419	3,71
494,909	3,82
495,398	3,73
495,888	3,79
496,377	3,69
496,866	3,77
497,355	3,64
497,844	3,99
498,333	3,97
498,821	3,93
499,31	3,73
499,798	3,88
500,287	3,94
500,775	4,01
501,263	3,93
501,751	4,08
502,239	4,1
502,727	4,26
503,215	4,13
503,702	4,26
504,19	4,26
504,677	4,23
505,164	4,44
505,651	4,51
506,139	4,7
506,625	4,52
507,112	4,61
507,599	4,62
508,086	4,77
508,572	4,94
509,058	4,92
509,545	5,08
510,031	5,23
510,517	5,3
511,003	5,35
511,489	5,55
511,974	5,62
512,46	5,73
512,946	5,8
513,431	5,91
513,916	5,96
514,401	6,24
514,887	6,27
515,371	6,47
515,856	6,8
516,341	6,98
516,826	6,85
517,31	7,16
517,795	7,25
518,279	7,54
518,763	7,69
519,247	7,92
519,731	8,04
520,215	8,27
520,699	8,54
521,182	8,9
521,666	9,15
522,149	9,28
522,633	9,6
523,116	10,03
523,599	10,13
524,082	10,37
524,565	10,35
525,048	10,68
525,53	10,96
526,013	11,31
526,495	11,35
526,978	11,62
527,46	11,61
527,942	11,96
528,424	12,4
528,906	12,6
529,388	12,5
529,87	12,79
530,351	12,98
530,833	13,04
531,314	13,4
531,795	13,59
532,277	13,73
532,758	14,01
533,238	13,98
533,719	14,14
534,2	14,19
534,681	14,32
535,161	14,67
535,642	14,52
536,122	14,54
536,602	14,5
537,082	14,72
537,562	14,5
538,042	14,95
538,522	14,69
539,001	14,93
539,481	14,82
539,96	15,21
540,44	15,16
540,919	15,22
541,398	15,33
541,877	15,52
542,356	15,54
542,835	15,38
543,313	15,6
543,792	15,48
544,27	15,57
544,749	15,73
545,227	15,96
545,705	15,49
546,183	15,79
546,661	15,85
547,139	16,02
547,616	15,88
548,094	15,91
548,571	15,69
549,049	16,23
549,526	16,31
550,003	16,14
550,48	16,17
550,957	16,35
551,434	16,1
551,911	16,4
552,387	16,36
552,864	16,31
553,34	16,29
553,817	16,08
554,293	16,36
554,769	16,39
555,245	16,33
555,721	16
556,197	15,83
556,672	16,19
557,148	16,21
557,623	16,27
558,099	16,07
558,574	15,92
559,049	15,88
559,524	15,6
559,999	15,91
560,474	15,43
560,948	15,38
561,423	15,52
561,897	15,22
562,372	15,33
562,846	15,19
563,32	15,02
563,794	15,03
564,268	14,94
564,742	14,79
565,216	14,57
565,69	14,35
566,163	14,33
566,636	14,44
567,11	14,16
567,583	13,81
568,056	13,61
568,529	13,44
569,002	13,55
569,475	13,06
569,947	13,33
570,42	12,71
570,892	12,55
571,365	12,6
571,837	12,44
572,309	12,04
572,781	12,05
573,253	11,99
573,725	11,87
574,197	11,63
574,668	11,48
575,14	11,51
575,611	11,18
576,082	11,18
576,554	10,95
577,025	11
577,496	10,76
577,967	10,7
578,437	10,73
578,908	10,45
579,379	10,15
579,849	10,27
580,319	10,14
580,79	10,08
581,26	9,85
581,73	9,75
582,2	9,74
582,669	9,75
583,139	9,72
583,609	9,59
584,078	9,43
584,548	9,41
585,017	9,3
585,486	9,23
585,955	9,25
586,424	8,97
586,893	9,03
587,362	8,82
587,83	8,87
588,299	8,99
588,767	8,87
589,236	8,88
589,704	8,8
590,172	8,62
590,64	8,66
591,108	8,58
591,576	8,59
592,043	8,36
592,511	8,44
592,978	8,29
593,446	8,34
593,913	8,34
594,38	8,29
594,847	8,31
595,314	8,31
595,781	8,18
596,248	8,16
596,715	7,99
597,181	8,1
597,647	8,13
598,114	8,09
598,58	8,1
599,046	8,08
599,512	8,02
599,978	8,09
600,444	7,96
600,91	7,92
601,375	7,92
601,841	7,92
602,306	7,81
602,771	7,74
603,236	7,87
603,702	7,68
604,167	7,7
604,631	7,74
605,096	7,72
605,561	7,62
606,025	7,65
606,49	7,5
606,954	7,45
607,418	7,42
607,882	7,36
608,347	7,29
608,81	7,19
609,274	7,02
609,738	6,98
610,202	6,93
610,665	6,92
611,128	6,98
611,592	7
612,055	7,1
612,518	6,86
612,981	6,72
613,444	6,71
613,907	6,66
614,369	6,62
614,832	6,56
615,294	6,51
615,757	6,42
616,219	6,41
616,681	6,26
617,143	6,29
617,605	6,22
618,067	6,23
618,529	6,07
618,99	6,16
619,452	5,99
619,913	6,02
620,375	6,01
620,836	5,98
621,297	5,98
621,758	6,03
622,219	5,89
622,68	5,9
623,14	5,8
623,601	5,77
624,061	5,78
624,522	5,84
624,982	5,77
625,442	5,79
625,902	5,69
626,362	5,8
626,822	5,6
627,282	5,74
627,742	5,73
628,201	5,67
628,661	5,75
629,12	5,65
629,579	5,6
630,038	5,59
630,497	5,63
630,956	5,65
631,415	5,74
631,874	5,72
632,332	5,68
632,791	5,57
633,249	5,63
633,708	5,48
634,166	5,45
634,624	5,48
635,082	5,41
635,54	5,58
635,998	5,34
636,455	5,32
636,913	5,25
637,37	5,27
637,828	5,1
638,285	5,09
638,742	5
639,199	4,99
639,656	4,91
640,113	4,95
640,57	4,91
641,027	4,8
641,483	4,72
641,94	4,64
642,396	4,62
642,852	4,53
643,309	4,56
643,765	4,49
644,221	4,33
644,676	4,38
645,132	4,33
645,588	4,26
646,043	4,29
646,499	4,21
646,954	4,22
647,409	4,09
647,864	4,08
648,319	4,08
648,774	4,04
649,229	4,03
649,684	3,97
650,139	3,97
650,593	3,87
651,047	3,88
651,502	3,96
651,956	3,91
652,41	3,82
652,864	3,87
653,318	3,86
653,772	3,84
654,225	3,87
654,679	3,83
655,133	3,81
655,586	3,74
656,039	3,74
656,492	3,73
656,946	3,8
657,399	3,76
657,851	3,74
658,304	3,68
658,757	3,7
659,209	3,67
659,662	3,76
660,114	3,66
660,567	3,61
661,019	3,66
661,471	3,57
661,923	3,61
662,375	3,57
662,826	3,57
663,278	3,59
663,73	3,48
664,181	3,55
664,632	3,57
665,084	3,56
665,535	3,52
665,986	3,54
666,437	3,59
666,888	3,59
667,338	3,52
667,789	3,59
668,24	3,62
668,69	3,59
669,14	3,65
669,591	3,7
670,041	3,71
670,491	3,78
670,941	3,84
671,391	3,82
671,84	3,88
672,29	3,87
672,74	3,91
673,189	3,96
673,638	4,07
674,088	4,03
674,537	4,06
674,986	4,14
675,435	4,1
675,883	4,22
676,332	4,38
676,781	4,48
677,229	4,43
677,678	4,55
678,126	4,58
678,574	4,64
679,022	4,75
679,47	4,88
679,918	4,84
680,366	4,98
680,814	4,98
681,261	5,05
681,709	5,12
682,156	5,23
682,604	5,26
683,051	5,29
683,498	5,44
683,945	5,48
684,392	5,42
684,839	5,49
685,286	5,52
685,732	5,62
686,179	5,67
686,625	5,75
687,071	5,8
687,518	5,73
687,964	5,8
688,41	5,84
688,856	5,93
689,301	6,02
689,747	6,21
690,193	6,28
690,638	6,38
691,084	6,56
691,529	6,77
691,974	6,96
692,419	7,09
692,864	7,42
693,309	7,71
693,754	8,01
694,199	8,37
694,643	8,62
695,088	8,99
695,532	9,39
695,977	9,76
696,421	10,13
696,865	10,67
697,309	11,12
697,753	11,61
698,197	12,16
698,64	12,7
699,084	13,2
699,527	13,69
699,971	14,35
700,414	14,94
700,857	15,51
701,3	16,13
701,743	16,8
702,186	17,41
702,629	18,02
703,072	18,76
703,515	19,26
703,957	20,08
704,399	20,6
704,842	21,4
705,284	21,98
705,726	22,6
706,168	23,26
706,61	24,07
707,052	24,49
707,494	25,4
707,935	26,23
708,377	26,7
708,818	27,56
709,26	28,27
709,701	28,83
710,142	29,77
710,583	30,23
711,024	30,89
711,465	31,91
711,905	32,23
712,346	33,11
712,787	33,87
713,227	34,48
713,667	35,3
714,108	36,05
714,548	36,88
714,988	37,58
715,428	38,43
715,868	39,15
716,307	39,84
716,747	40,61
717,186	41,39
717,626	42,15
718,065	42,7
718,504	43,79
718,944	44,15
719,383	44,94
719,822	46,08
720,261	46,76
720,699	47,19
721,138	48,05
721,576	48,64
722,015	49,06
722,453	49,65
722,892	50,53
723,33	51,41
723,768	51,92
724,206	52,38
724,644	53,16
725,081	53,66
725,519	54,22
725,957	54,88
726,394	55,32
726,832	55,99
727,269	56,75
727,706	56,95
728,143	57,86
728,58	58,64
729,017	58,97
729,454	59,22
729,89	59,97
730,327	60,71
730,764	60,85
731,2	61,6
731,636	61,86
732,072	62,16
732,509	62,25
732,945	62,78
733,38	63,51
733,816	63,75
734,252	63,98
734,688	64,16
735,123	64,66
735,559	65,43
735,994	65,72
736,429	65,81
736,864	66,06
737,299	66,41
737,734	67,03
738,169	66,98
738,604	67,22
739,038	67,44
739,473	67,84
739,907	68,29
740,342	68,17
740,776	68,49
741,21	68,41
741,644	68,59
742,078	68,75
742,512	69,06
742,946	69,52
743,379	69,96
743,813	69,54
744,246	69,68
744,68	70,13
745,113	69,84
745,546	70,3
745,979	70,11
746,412	70,08
746,845	70,62
747,278	70,62
747,711	70,47
748,143	70,86
748,576	70,69
749,008	70,89
749,441	71,31
749,873	71,22
750,305	71,03
750,737	70,98
751,169	70,88
751,601	71,1
752,032	71,29
752,464	71,41
752,896	71,39
753,327	71,24
753,758	71,39
754,19	71,57
754,621	71,29
755,052	71,5
755,483	71,41
755,914	71,13
756,344	71,71
756,775	71,65
757,206	71,5
757,636	71,61
758,066	71,17
758,497	71,38
758,927	71,56
759,357	71,79
759,787	71,2
760,217	71,51
760,647	71,19
761,076	71,53
761,506	71,33
761,935	71,17
762,365	71,47
762,794	71,36
763,223	71,39
763,653	71,68
764,082	71,44
764,51	71,58
764,939	71,43
765,368	71,57
765,797	71,39
766,225	71,38
766,654	70,93
767,082	71,33
767,51	71,34
767,938	71,23
768,367	71,42
768,795	71,28
769,222	71,5
769,65	71,65
770,078	71,25
770,505	70,71
770,933	71,43
771,36	70,87
771,788	71,43
772,215	71,07
772,642	71,54
773,069	71,17
773,496	71,25
773,923	71,01
774,349	71,03
774,776	71,27
775,203	71,15
775,629	71,13
776,055	71,35
776,482	71,46
776,908	70,84
777,334	71,1
777,76	71,32
778,186	71,28
778,611	71,16
779,037	71,34
779,463	71,1
779,888	70,95
780,314	71,37
780,739	70,65
781,164	70,64
781,589	70,68
782,014	70,86
782,439	71,28
782,864	71,07
783,289	70,81
783,713	71,09
784,138	70,83
784,562	70,83
784,987	70,85
785,411	70,94
785,835	70,69
786,259	70,88
786,683	70,81
787,107	71,05
787,531	70,91
787,954	71,24
788,378	71
788,802	71,07
789,225	70,99
789,648	70,48
790,071	70,77
790,495	71,26
790,918	70,83
791,34	71,23
791,763	70,76
792,186	70,87
792,609	70,81
793,031	70,73
793,454	71,1
793,876	70,83
794,298	71,11
794,721	71,4
795,143	70,73
795,565	70,9
795,986	70,67
796,408	71,13
796,83	70,91
797,252	71,08
797,673	70,85
798,094	71,1
798,516	70,68
798,937	71,16
799,358	70,73
799,779	70,94
800,2	70,73
800,621	70,91
801,042	70,71
801,462	70,73
801,883	70,92
802,303	70,74
802,724	70,68
803,144	70,96
803,564	70,56
803,984	70,94
804,404	70,93
804,824	71,08
805,244	71,08
805,664	70,64
806,084	70,58
806,503	70,93
806,923	70,77
807,342	71,11
807,761	70,69
808,18	70,69
808,599	70,65
809,018	70,44
809,437	70,91
809,856	70,69
810,275	70,53
810,693	70,95
811,112	70,82
811,53	70,85
811,949	70,64
812,367	70,73
812,785	71,2
813,203	71,05
813,621	70,87
814,039	70,53
814,457	71,15
814,874	71,22
815,292	71,11
815,709	70,91
816,127	70,56
816,544	70,95
816,961	70,86
817,378	70,77
817,795	70,63
818,212	70,9
818,629	70,85
819,046	70,77
819,462	70,69
819,879	70,74
820,295	70,54
820,712	71,02
821,128	70,89
821,544	70,88
821,96	70,62
822,376	71,02
822,792	70,78
823,208	70,99
823,624	70,92
824,039	70,9
824,455	70,84
824,87	70,5
825,286	71,27
825,701	71,31
826,116	70,81
826,531	70,78
826,946	70,66
827,361	70,94
827,776	71,11
828,19	70,78
828,605	70,85
829,02	70,63
829,434	70,73
829,848	70,94
830,263	70,78
830,677	70,45
831,091	70,79
831,505	70,5
831,919	70,63
832,332	70,47
832,746	70,65
833,16	70,59
833,573	70,36
833,987	70,44
834,4	70,83
834,813	70,63
835,226	70,76
835,639	70,77
836,052	70,67
836,465	70,88
836,878	70,96
837,29	70,24
837,703	70,54
838,116	70,83
838,528	70,72
838,94	70,72
839,352	70,56
839,765	70,81
840,177	70,63
840,589	70,74
841	70,48
841,412	70,94
841,824	70,92
842,235	70,3
842,647	70,56
843,058	70,66
843,47	70,5
843,881	70,62
844,292	70,85
844,703	70,59
845,114	70,44
845,525	70,72
845,935	70,83
846,346	70,82
846,757	70,9
847,167	70,43
