Data from I4__Relative__1__00034.txt Node

Date: Fri Feb 02 12:36:53 CET 2024
User: diatiterra
Spectrometer: HDX00911
Trigger mode: 0
Integration Time (sec): 6,000000E-3
Scans to average: 2
Nonlinearity correction enabled: false
Boxcar width: 0
Storing dark spectrum: false
XAxis mode: Wavelengths
Number of Pixels in Spectrum: 2068
>>>>>Begin Spectral Data<<<<<
194,468	87,3
195,025	68,28
195,581	74,53
196,138	73,48
196,694	71,86
197,251	79,92
197,807	72,69
198,363	62,81
198,919	56,65
199,474	57,19
200,03	58,15
200,586	61,51
201,141	60
201,696	62,73
202,251	55,17
202,806	59,65
203,361	56,88
203,916	54,73
204,471	60,13
205,025	53,55
205,58	56,19
206,134	55,49
206,688	53,92
207,242	61,42
207,796	66,55
208,35	53,19
208,904	59,94
209,457	57,14
210,011	55,19
210,564	60,19
211,117	54,23
211,67	61,98
212,223	62,58
212,776	58,93
213,329	59,49
213,881	66,11
214,434	55,99
214,986	61,66
215,538	61,56
216,09	64,95
216,642	57,95
217,194	67,38
217,746	66,56
218,297	64,85
218,849	61,31
219,4	63,57
219,951	60,06
220,502	61,28
221,053	65,36
221,604	69,23
222,155	59,68
222,705	56,65
223,256	64,01
223,806	66,78
224,356	62,46
224,906	56,33
225,456	60,8
226,006	59,49
226,556	58,97
227,106	57,89
227,655	60,8
228,204	55,33
228,754	58,68
229,303	61,33
229,852	65,11
230,401	56,78
230,949	63,24
231,498	60,21
232,047	70,61
232,595	57,1
233,143	56,59
233,691	58,65
234,239	56,23
234,787	62,2
235,335	54,58
235,883	62,63
236,43	62,75
236,978	63,16
237,525	55,35
238,072	53,87
238,619	58,75
239,166	59,55
239,713	64,24
240,26	55,59
240,806	63,34
241,353	65,02
241,899	65,06
242,445	59,59
242,991	63,31
243,537	67,72
244,083	57,56
244,629	56,25
245,174	59,94
245,72	70,03
246,265	63,09
246,81	60,73
247,355	60,94
247,9	58,69
248,445	60,32
248,99	65,03
249,534	62,67
250,079	64,8
250,623	61,95
251,168	64,29
251,712	57,14
252,256	60,74
252,8	60,31
253,343	51,1
253,887	53,94
254,43	56,95
254,974	60,2
255,517	57
256,06	67,33
256,603	61,15
257,146	55,88
257,689	54,24
258,232	71,43
258,774	66,44
259,317	59,09
259,859	59
260,401	69,08
260,943	55,97
261,485	69,4
262,027	58,06
262,569	57,76
263,11	54,87
263,652	61,09
264,193	59,73
264,734	64,34
265,275	60,21
265,816	63,51
266,357	58,56
266,898	61,07
267,438	63,67
267,979	66,78
268,519	62,66
269,059	63,32
269,6	60,67
270,14	64,16
270,68	63,73
271,219	60,07
271,759	64,45
272,298	53,99
272,838	66,56
273,377	60,47
273,916	66,55
274,455	70,38
274,994	72,96
275,533	66,78
276,072	75,1
276,61	76,45
277,149	65,72
277,687	59,47
278,225	64,81
278,763	60,55
279,301	67,27
279,839	60,33
280,377	61,94
280,914	62,54
281,452	59,8
281,989	68,44
282,526	64,18
283,064	71,33
283,601	61,8
284,137	61,3
284,674	62,01
285,211	60,18
285,747	64,95
286,284	66,1
286,82	63,48
287,356	67,26
287,892	65,82
288,428	61,62
288,964	63,54
289,5	61,81
290,035	64,19
290,571	60,62
291,106	61,54
291,641	57,82
292,176	57,73
292,711	64,77
293,246	53,18
293,781	52,65
294,315	64,75
294,85	61,31
295,384	59,86
295,918	63,18
296,453	54,17
296,987	60,67
297,52	69,34
298,054	59,72
298,588	56,85
299,121	58,1
299,655	49,84
300,188	60,36
300,721	61,62
301,254	69,32
301,787	65,28
302,32	62,54
302,853	68,58
303,385	67,27
303,918	63,99
304,45	56,59
304,982	62,06
305,514	64,26
306,046	55,18
306,578	60,42
307,11	64,21
307,641	56,12
308,173	65,33
308,704	65,76
309,236	51,88
309,767	57,53
310,298	53,02
310,829	57,76
311,359	58,82
311,89	56,21
312,421	59,06
312,951	63,72
313,481	60,67
314,012	68,73
314,542	65,52
315,072	57,31
315,601	51,6
316,131	58,76
316,661	62,08
317,19	56,91
317,72	59,15
318,249	57,99
318,778	71,02
319,307	57,94
319,836	60,87
320,365	59,71
320,893	54,06
321,422	60,67
321,95	61,38
322,479	66,2
323,007	53,12
323,535	56,96
324,063	60,06
324,591	58,39
325,118	58,84
325,646	63,67
326,173	53,85
326,701	64,08
327,228	65,56
327,755	57,38
328,282	54,43
328,809	51,04
329,336	62,5
329,862	54,55
330,389	54,61
330,915	55,03
331,441	60
331,968	57,05
332,494	60,33
333,02	58,84
333,545	58,1
334,071	47,8
334,597	60,9
335,122	50,95
335,648	62,34
336,173	55,7
336,698	51,75
337,223	56,13
337,748	52,88
338,272	50,62
338,797	57,19
339,322	52,6
339,846	54,29
340,37	51,29
340,894	43,08
341,419	45,86
341,942	50,96
342,466	57,06
342,99	50,61
343,514	50
344,037	46,91
344,56	48,83
345,084	46,09
345,607	47,11
346,13	46,94
346,653	49,71
347,175	42,58
347,698	50,7
348,221	51,68
348,743	43,01
349,265	43,73
349,787	41,41
350,309	48,6
350,831	45,3
351,353	43,37
351,875	42,34
352,397	48,1
352,918	40,98
353,439	41,73
353,961	40
354,482	40,82
355,003	40
355,524	44,5
356,044	40,89
356,565	39,05
357,086	39,42
357,606	40,42
358,126	42,72
358,646	43,57
359,167	38,44
359,687	39,16
360,206	40,45
360,726	41,48
361,246	41,56
361,765	44,28
362,285	36,38
362,804	35,4
363,323	38,56
363,842	35,74
364,361	39,91
364,88	37,91
365,398	39,01
365,917	40,24
366,435	33,83
366,954	34,65
367,472	37,48
367,99	34,81
368,508	32,26
369,026	36,72
369,544	32,92
370,061	32,92
370,579	30,81
371,096	34,37
371,613	32,4
372,131	31,48
372,648	32,44
373,165	33,06
373,681	27,1
374,198	31,45
374,715	27,76
375,231	34,02
375,747	34,36
376,264	27,63
376,78	31,12
377,296	30,2
377,812	29,03
378,327	31,33
378,843	30,61
379,359	29,92
379,874	29,97
380,389	31,77
380,905	25,1
381,42	26,08
381,935	27,55
382,449	26,78
382,964	24,48
383,479	25,86
383,993	27,22
384,508	27,32
385,022	24,92
385,536	26,15
386,05	24,06
386,564	27,01
387,078	24,75
387,592	23,56
388,105	27,03
388,619	24,23
389,132	22,04
389,645	22,36
390,158	21,17
390,671	24,51
391,184	22,61
391,697	22,34
392,21	21,8
392,722	23,06
393,235	20,85
393,747	21,84
394,259	21,86
394,771	20,64
395,283	21,11
395,795	22,95
396,307	19,97
396,818	19,6
397,33	19,71
397,841	20,55
398,353	21,28
398,864	19,44
399,375	17,84
399,886	18,01
400,397	16,89
400,907	17,65
401,418	17,25
401,928	17,6
402,439	18,03
402,949	15,76
403,459	15,18
403,969	16,83
404,479	15,63
404,989	13,91
405,498	14,26
406,008	13,67
406,517	14,28
407,027	13,15
407,536	12,92
408,045	11,91
408,554	12,17
409,063	11,76
409,572	11,66
410,08	11,48
410,589	10,69
411,097	10,3
411,606	10,29
412,114	9,29
412,622	8,6
413,13	9,49
413,638	9,54
414,145	8,57
414,653	8,42
415,16	8,21
415,668	8,3
416,175	7,97
416,682	7,44
417,189	7,82
417,696	7,94
418,203	6,99
418,71	7,07
419,216	6,87
419,723	6,75
420,229	6,42
420,735	6,95
421,242	6,51
421,748	6,73
422,254	6,19
422,759	6,56
423,265	6,68
423,771	6,66
424,276	6,54
424,781	6,55
425,287	6,4
425,792	6,57
426,297	5,78
426,802	5,59
427,306	6,08
427,811	5,66
428,316	6,09
428,82	5,81
429,324	6,27
429,829	5,88
430,333	5,91
430,837	5,37
431,34	5,58
431,844	5,7
432,348	5,36
432,851	5,47
433,355	5,95
433,858	5,27
434,361	5,54
434,864	5,51
435,367	5,35
435,87	5,62
436,373	5,75
436,876	5,71
437,378	5,31
437,88	5,12
438,383	5,31
438,885	5,43
439,387	5,39
439,889	5,49
440,391	5,35
440,892	4,95
441,394	5,22
441,896	5,19
442,397	4,99
442,898	4,89
443,399	5,23
443,9	5,24
444,401	5,26
444,902	5,05
445,403	4,96
445,903	5,26
446,404	5,41
446,904	5,11
447,405	5,12
447,905	5,26
448,405	5,44
448,905	5,26
449,404	5,31
449,904	5,28
450,404	5,29
450,903	5,29
451,403	5,49
451,902	5,34
452,401	5,56
452,9	5,48
453,399	5,32
453,898	5,56
454,396	5,39
454,895	5,87
455,393	5,42
455,892	5,7
456,39	5,67
456,888	5,75
457,386	5,63
457,884	5,8
458,382	5,82
458,879	5,49
459,377	5,82
459,874	5,44
460,372	5,56
460,869	5,82
461,366	5,89
461,863	5,52
462,36	5,84
462,857	5,75
463,353	5,65
463,85	5,86
464,346	5,72
464,843	5,6
465,339	5,41
465,835	5,65
466,331	5,92
466,827	5,79
467,323	5,5
467,818	5,66
468,314	5,69
468,809	5,69
469,305	5,83
469,8	5,74
470,295	5,59
470,79	5,66
471,285	5,81
471,78	5,68
472,274	5,72
472,769	5,65
473,263	5,84
473,758	5,52
474,252	5,59
474,746	5,48
475,24	5,6
475,734	5,48
476,228	5,62
476,721	5,65
477,215	5,6
477,708	5,64
478,202	5,59
478,695	5,84
479,188	5,76
479,681	5,76
480,174	5,56
480,667	5,65
481,159	5,72
481,652	5,89
482,144	6,01
482,637	5,58
483,129	5,74
483,621	5,85
484,113	5,89
484,605	5,76
485,097	5,94
485,588	6,13
486,08	5,88
486,571	6,02
487,063	5,9
487,554	5,78
488,045	6,06
488,536	5,96
489,027	6,2
489,518	6,09
490,008	6,33
490,499	6,19
490,989	6,45
491,48	6,11
491,97	6,27
492,46	6,22
492,95	6,57
493,44	6,58
493,93	6,4
494,419	6,55
494,909	6,71
495,398	6,9
495,888	6,69
496,377	7,01
496,866	6,95
497,355	6,98
497,844	7,34
498,333	7,54
498,821	7,23
499,31	7,31
499,798	7,66
500,287	7,74
500,775	7,85
501,263	7,97
501,751	8,2
502,239	8,22
502,727	8,29
503,215	8,51
503,702	8,57
504,19	8,72
504,677	9,02
505,164	8,99
505,651	9,33
506,139	9,29
506,625	9,63
507,112	9,99
507,599	10,07
508,086	10,27
508,572	10,54
509,058	10,88
509,545	10,76
510,031	11,08
510,517	11,48
511,003	11,78
511,489	11,72
511,974	12,2
512,46	12,28
512,946	12,86
513,431	12,92
513,916	13,3
514,401	13,28
514,887	14,01
515,371	13,93
515,856	14,22
516,341	14,82
516,826	14,94
517,31	15,62
517,795	15,65
518,279	15,9
518,763	16,28
519,247	16,78
519,731	16,83
520,215	17,21
520,699	17,97
521,182	18,03
521,666	18,25
522,149	18,49
522,633	19,15
523,116	19,25
523,599	19,64
524,082	19,74
524,565	20,49
525,048	20,7
525,53	20,71
526,013	21,41
526,495	21,66
526,978	21,91
527,46	22,01
527,942	22,13
528,424	22,47
528,906	22,59
529,388	23,09
529,87	23,3
530,351	23,58
530,833	23,71
531,314	23,74
531,795	24,21
532,277	24,36
532,758	24,38
533,238	24,7
533,719	24,88
534,2	24,77
534,681	24,76
535,161	25,47
535,642	25,46
536,122	25,6
536,602	25,62
537,082	25,36
537,562	25,79
538,042	25,59
538,522	26,21
539,001	25,87
539,481	25,92
539,96	26,31
540,44	25,75
540,919	25,82
541,398	26,2
541,877	26,15
542,356	26,57
542,835	26,27
543,313	26,33
543,792	26,92
544,27	26,36
544,749	26,81
545,227	26,63
545,705	26,96
546,183	26,53
546,661	26,67
547,139	27,09
547,616	26,79
548,094	26,85
548,571	26,79
549,049	27,45
549,526	27,43
550,003	26,89
550,48	27,3
550,957	27,42
551,434	27,34
551,911	27,19
552,387	27,5
552,864	27,15
553,34	27,17
553,817	27,13
554,293	27,05
554,769	27,21
555,245	27,62
555,721	27,28
556,197	27,17
556,672	27,37
557,148	27,25
557,623	27,68
558,099	27,38
558,574	27,35
559,049	26,98
559,524	27,01
559,999	27,24
560,474	26,91
560,948	27,18
561,423	26,76
561,897	26,87
562,372	26,79
562,846	26,44
563,32	26,67
563,794	26,17
564,268	25,97
564,742	26,09
565,216	26,08
565,69	25,53
566,163	25,99
566,636	25,21
567,11	25,16
567,583	25,15
568,056	24,84
568,529	24,9
569,002	24,4
569,475	24,17
569,947	24,48
570,42	24,36
570,892	23,92
571,365	23,58
571,837	23,38
572,309	23,34
572,781	23,32
573,253	22,92
573,725	22,76
574,197	22,72
574,668	22,39
575,14	22,31
575,611	22,09
576,082	22,28
576,554	21,56
577,025	21,63
577,496	21,57
577,967	21,09
578,437	21,4
578,908	21
579,379	20,9
579,849	20,54
580,319	20,48
580,79	20,3
581,26	20,13
581,73	20,12
582,2	19,94
582,669	20,21
583,139	19,89
583,609	19,63
584,078	19,7
584,548	19,36
585,017	19,14
585,486	19,24
585,955	19,38
586,424	19,11
586,893	19,15
587,362	18,99
587,83	18,86
588,299	18,66
588,767	18,78
589,236	18,57
589,704	18,51
590,172	18,3
590,64	18,34
591,108	18,35
591,576	18,43
592,043	18,05
592,511	18,15
592,978	18,02
593,446	17,73
593,913	17,71
594,38	17,62
594,847	17,7
595,314	17,91
595,781	17,69
596,248	17,59
596,715	17,69
597,181	17,69
597,647	17,49
598,114	17,39
598,58	17,56
599,046	17,55
599,512	17,37
599,978	17,34
600,444	17,1
600,91	17,31
601,375	17,13
601,841	17,09
602,306	17,09
602,771	17,19
603,236	17,13
603,702	17,11
604,167	16,86
604,631	17
605,096	16,97
605,561	16,57
606,025	16,76
606,49	16,51
606,954	16,48
607,418	16,23
607,882	16,13
608,347	16,25
608,81	16,16
609,274	16,2
609,738	15,99
610,202	15,92
610,665	15,87
611,128	15,61
611,592	15,65
612,055	15,78
612,518	15,62
612,981	15,25
613,444	15,17
613,907	15,16
614,369	15,06
614,832	15,04
615,294	14,92
615,757	14,8
616,219	14,53
616,681	14,56
617,143	14,6
617,605	14,39
618,067	14,32
618,529	14,15
618,99	14,14
619,452	14,21
619,913	14,02
620,375	14,12
620,836	13,95
621,297	13,91
621,758	13,89
622,219	13,67
622,68	13,76
623,14	13,59
623,601	13,51
624,061	13,5
624,522	13,46
624,982	13,53
625,442	13,53
625,902	13,45
626,362	13,47
626,822	13,36
627,282	13,44
627,742	13,4
628,201	13,25
628,661	13,42
629,12	13,28
629,579	13,16
630,038	13,24
630,497	13
630,956	13,22
631,415	13,19
631,874	13,13
632,332	13,1
632,791	12,97
633,249	12,89
633,708	12,92
634,166	12,86
634,624	13,02
635,082	12,72
635,54	12,82
635,998	12,7
636,455	12,48
636,913	12,23
637,37	12,35
637,828	12,07
638,285	12,07
638,742	12,07
639,199	11,92
639,656	11,63
640,113	11,51
640,57	11,43
641,027	11,44
641,483	11,29
641,94	11,15
642,396	11,1
642,852	11,04
643,309	10,76
643,765	10,65
644,221	10,34
644,676	10,35
645,132	10,26
645,588	10,14
646,043	9,91
646,499	9,83
646,954	9,77
647,409	9,7
647,864	9,55
648,319	9,48
648,774	9,3
649,229	9,17
649,684	9,15
650,139	9,01
650,593	9
651,047	8,99
651,502	8,85
651,956	8,8
652,41	8,75
652,864	8,77
653,318	8,9
653,772	8,51
654,225	8,6
654,679	8,52
655,133	8,58
655,586	8,48
656,039	8,43
656,492	8,45
656,946	8,34
657,399	8,15
657,851	8,13
658,304	7,99
658,757	8,02
659,209	8,03
659,662	7,73
660,114	7,67
660,567	7,63
661,019	7,57
661,471	7,43
661,923	7,37
662,375	7,35
662,826	7,34
663,278	7,19
663,73	7,21
664,181	7,06
664,632	7,04
665,084	6,88
665,535	6,86
665,986	6,7
666,437	6,76
666,888	6,73
667,338	6,75
667,789	6,65
668,24	6,67
668,69	6,71
669,14	6,69
669,591	6,65
670,041	6,59
670,491	6,67
670,941	6,78
671,391	6,64
671,84	6,76
672,29	6,83
672,74	6,82
673,189	6,77
673,638	6,89
674,088	6,97
674,537	6,93
674,986	7,07
675,435	7,18
675,883	7,17
676,332	7,35
676,781	7,42
677,229	7,56
677,678	7,6
678,126	7,65
678,574	7,82
679,022	7,92
679,47	8,12
679,918	8,25
680,366	8,26
680,814	8,38
681,261	8,61
681,709	8,59
682,156	8,67
682,604	8,95
683,051	8,93
683,498	9,23
683,945	9,22
684,392	9,42
684,839	9,58
685,286	9,73
685,732	9,95
686,179	10,12
686,625	10,4
687,071	10,54
687,518	10,67
687,964	11,08
688,41	11,22
688,856	11,48
689,301	11,77
689,747	12,11
690,193	12,48
690,638	12,99
691,084	13,37
691,529	13,74
691,974	14,18
692,419	14,6
692,864	15,05
693,309	15,77
693,754	16,06
694,199	16,76
694,643	17,29
695,088	17,56
695,532	18,41
695,977	19,21
696,421	19,53
696,865	20,05
697,309	20,68
697,753	21,27
698,197	21,98
698,64	22,55
699,084	23,09
699,527	23,72
699,971	24,47
700,414	24,87
700,857	25,6
701,3	26,23
701,743	26,9
702,186	27,16
702,629	28,03
703,072	28,59
703,515	29,12
703,957	29,56
704,399	30,24
704,842	30,75
705,284	31,11
705,726	31,82
706,168	32,28
706,61	32,69
707,052	33,3
707,494	33,62
707,935	34,35
708,377	34,84
708,818	35,45
709,26	35,88
709,701	36,43
710,142	37,02
710,583	37,32
711,024	37,63
711,465	38,18
711,905	38,77
712,346	39,22
712,787	39,74
713,227	40,04
713,667	40,47
714,108	41,11
714,548	41,5
714,988	42,08
715,428	42,37
715,868	42,97
716,307	43,3
716,747	43,89
717,186	44,04
717,626	44,38
718,065	44,8
718,504	45,65
718,944	45,82
719,383	46,1
719,822	46,76
720,261	47,4
720,699	47,52
721,138	48,02
721,576	48,33
722,015	48,44
722,453	49,03
722,892	49,03
723,33	49,53
723,768	49,83
724,206	50,28
724,644	50,68
725,081	50,93
725,519	51,15
725,957	51,54
726,394	52,14
726,832	52,26
727,269	52,57
727,706	52,91
728,143	53,1
728,58	53,31
729,017	53,71
729,454	54,3
729,89	54,26
730,327	54,73
730,764	54,84
731,2	55,2
731,636	55,49
732,072	55,57
732,509	55,62
732,945	55,89
733,38	56,04
733,816	56,03
734,252	56,34
734,688	56,55
735,123	56,75
735,559	57,18
735,994	57,62
736,429	57,33
736,864	57,46
737,299	57,94
737,734	58,16
738,169	58,2
738,604	58,32
739,038	58,55
739,473	58,75
739,907	58,68
740,342	58,72
740,776	58,79
741,21	58,57
741,644	58,64
742,078	58,84
742,512	59,27
742,946	59,56
743,379	59,52
743,813	59,31
744,246	59,22
744,68	59,53
745,113	59,29
745,546	59,66
745,979	59,78
746,412	59,54
746,845	60
747,278	59,8
747,711	59,4
748,143	60,19
748,576	59,97
749,008	59,87
749,441	59,95
749,873	60,07
750,305	60,1
750,737	59,86
751,169	59,61
751,601	60,13
752,032	59,88
752,464	60,08
752,896	59,99
753,327	59,84
753,758	59,73
754,19	60,1
754,621	59,96
755,052	60,49
755,483	59,82
755,914	59,9
756,344	60,17
756,775	60,14
757,206	59,71
757,636	59,9
758,066	60,27
758,497	59,89
758,927	60
759,357	60,23
759,787	59,62
760,217	59,88
760,647	59,67
761,076	59,77
761,506	59,7
761,935	59,8
762,365	59,92
762,794	60,09
763,223	59,87
763,653	59,64
764,082	59,76
764,51	59,7
764,939	59,61
765,368	59,88
765,797	59,87
766,225	59,73
766,654	59,32
767,082	59,82
767,51	59,81
767,938	59,34
768,367	59,75
768,795	59,43
769,222	59,69
769,65	59,45
770,078	59,29
770,505	59,46
770,933	59,21
771,36	59,22
771,788	59,47
772,215	59,43
772,642	59,65
773,069	59,27
773,496	59,18
773,923	59,16
774,349	59,29
774,776	59,33
775,203	59,03
775,629	59,07
776,055	59,19
776,482	59,47
776,908	58,92
777,334	58,84
777,76	59,18
778,186	59,14
778,611	59,07
779,037	59,32
779,463	58,97
779,888	59,26
780,314	59,19
780,739	58,96
781,164	59,08
781,589	59
782,014	58,51
782,439	58,98
782,864	58,94
783,289	59,05
783,713	58,83
784,138	58,91
784,562	59,03
784,987	59,02
785,411	58,75
785,835	58,91
786,259	58,7
786,683	58,78
787,107	58,84
787,531	59,07
787,954	58,85
788,378	58,8
788,802	59,27
789,225	58,79
789,648	58,81
790,071	58,44
790,495	58,81
790,918	58,94
791,34	59,23
791,763	58,64
792,186	58,95
792,609	58,73
793,031	58,66
793,454	59,02
793,876	58,77
794,298	59,04
794,721	59,16
795,143	58,9
795,565	58,39
795,986	58,95
796,408	58,69
796,83	58,92
797,252	59,22
797,673	58,97
798,094	58,91
798,516	58,58
798,937	58,96
799,358	58,63
799,779	58,51
800,2	58,5
800,621	59,16
801,042	58,54
801,462	58,51
801,883	58,41
802,303	58,55
802,724	58,47
803,144	58,55
803,564	58,4
803,984	58,68
804,404	58,62
804,824	58,98
805,244	58,86
805,664	58,81
806,084	58,56
806,503	58,46
806,923	58,43
807,342	58,59
807,761	58,48
808,18	58,8
808,599	58,55
809,018	58,65
809,437	58,45
809,856	58,65
810,275	58,51
810,693	58,67
811,112	58,47
811,53	58,82
811,949	58,65
812,367	58,44
812,785	58,85
813,203	58,82
813,621	58,61
814,039	58,62
814,457	58,89
814,874	58,44
815,292	58,74
815,709	58,6
816,127	58,61
816,544	58,63
816,961	58,7
817,378	58,54
817,795	58,54
818,212	58,65
818,629	58,47
819,046	58,53
819,462	58,29
819,879	58,56
820,295	58,58
820,712	58,7
821,128	58,56
821,544	58,51
821,96	58,6
822,376	58,56
822,792	58,16
823,208	58,21
823,624	58,36
824,039	58,51
824,455	58,33
824,87	58,3
825,286	58,68
825,701	58,57
826,116	58,22
826,531	58,26
826,946	58,36
827,361	58,45
827,776	58,5
828,19	58,64
828,605	58,46
829,02	58,49
829,434	58,36
829,848	58,34
830,263	58,32
830,677	58,27
831,091	58,79
831,505	58,37
831,919	58,36
832,332	58,33
832,746	58,58
833,16	58,29
833,573	58,37
833,987	58,42
834,4	58,4
834,813	58,6
835,226	58,65
835,639	58,45
836,052	58,25
836,465	58,39
836,878	58,31
837,29	57,97
837,703	58,31
838,116	58,29
838,528	58,29
838,94	58,27
839,352	58,05
839,765	58,31
840,177	58,2
840,589	58,24
841	58,33
841,412	58,35
841,824	58,3
