Data from A2__Relative__2__00002.txt Node

Date: Wed Jan 31 17:54:11 CET 2024
User: diatiterra
Spectrometer: HDX00911
Trigger mode: 0
Integration Time (sec): 6,000000E-3
Scans to average: 2
Nonlinearity correction enabled: false
Boxcar width: 0
Storing dark spectrum: false
XAxis mode: Wavelengths
Number of Pixels in Spectrum: 2068
>>>>>Begin Spectral Data<<<<<
194,468	62,26
195,025	59,09
195,581	67,07
196,138	73,08
196,694	52,47
197,251	36,36
197,807	44,49
198,363	38,4
198,919	45,17
199,474	45,96
200,03	40,16
200,586	61,16
201,141	40
201,696	49,33
202,251	39,77
202,806	38,46
203,361	52,22
203,916	44,79
204,471	40,15
205,025	56,45
205,58	47,14
206,134	46
206,688	41,15
207,242	48,23
207,796	38,72
208,35	46,38
208,904	47,59
209,457	37,5
210,011	37,59
210,564	44,01
211,117	43,23
211,67	45,52
212,223	44,52
212,776	44,76
213,329	41
213,881	52,45
214,434	38,16
214,986	48,76
215,538	48,16
216,09	38,73
216,642	47,11
217,194	45,08
217,746	45,49
218,297	38,55
218,849	44,49
219,4	42,44
219,951	36,69
220,502	44,93
221,053	43,89
221,604	48,99
222,155	46,03
222,705	39,71
223,256	37,31
223,806	44,09
224,356	48,85
224,906	45,97
225,456	44,19
226,006	44,84
226,556	33,12
227,106	43,55
227,655	45,14
228,204	37,5
228,754	39,79
229,303	43,21
229,852	31,29
230,401	42,16
230,949	41,73
231,498	42,61
232,047	35,06
232,595	48,97
233,143	48,43
233,691	37,21
234,239	35,36
234,787	44,8
235,335	42,91
235,883	40,21
236,43	44,7
236,978	41,92
237,525	35,77
238,072	35,46
238,619	46,21
239,166	36,88
239,713	36,86
240,26	46,79
240,806	50,69
241,353	38,1
241,899	38,11
242,445	36,5
242,991	45,04
243,537	39,39
244,083	47,33
244,629	45,38
245,174	37,17
245,72	41,11
246,265	39,29
246,81	46
247,355	40,08
247,9	39,18
248,445	45,24
248,99	42,42
249,534	49,13
250,079	45,49
250,623	39,26
251,168	45,87
251,712	48,44
252,256	51,64
252,8	45
253,343	45,71
253,887	45,16
254,43	43,51
254,974	45,04
255,517	43,15
256,06	48,85
256,603	39,63
257,146	43,02
257,689	49,21
258,232	53,81
258,774	48,94
259,317	43,22
259,859	49,08
260,401	52,33
260,943	41,49
261,485	37,59
262,027	37,6
262,569	50,37
263,11	41,54
263,652	56,69
264,193	43,39
264,734	48,18
265,275	38,11
265,816	48,47
266,357	41,86
266,898	53,85
267,438	48,43
267,979	40,29
268,519	41,79
269,059	57,94
269,6	45,49
270,14	55,24
270,68	44,57
271,219	40,68
271,759	42,86
272,298	50
272,838	39,62
273,377	46,03
273,916	35,97
274,455	49,64
274,994	40,8
275,533	39,49
276,072	40,65
276,61	42,03
277,149	43,75
277,687	41,73
278,225	42
278,763	48,68
279,301	50
279,839	39,11
280,377	38,93
280,914	42,31
281,452	52,56
281,989	45,04
282,526	38,58
283,064	49,58
283,601	39,19
284,137	33,47
284,674	48,75
285,211	50,44
285,747	37,88
286,284	51,8
286,82	42,98
287,356	39,47
287,892	41,47
288,428	45,45
288,964	57,14
289,5	43,39
290,035	44,8
290,571	44,54
291,106	45,12
291,641	42,41
292,176	45,31
292,711	39,43
293,246	43,46
293,781	43,39
294,315	38,38
294,85	50,46
295,384	39,34
295,918	37,87
296,453	35,45
296,987	35,95
297,52	42,56
298,054	35,88
298,588	47,08
299,121	38,43
299,655	41,24
300,188	51,25
300,721	50,41
301,254	43,15
301,787	37,5
302,32	50
302,853	41,2
303,385	41,07
303,918	38,76
304,45	45,77
304,982	41,13
305,514	41,47
306,046	34,3
306,578	39,15
307,11	39,53
307,641	40,09
308,173	43,8
308,704	35,95
309,236	42,11
309,767	45,04
310,298	41,94
310,829	42,17
311,359	40,32
311,89	36,13
312,421	31,98
312,951	43,09
313,481	40,34
314,012	45,15
314,542	47,46
315,072	41,6
315,601	39,2
316,131	37,4
316,661	38,33
317,19	37,78
317,72	46,28
318,249	39,29
318,778	37,11
319,307	35,94
319,836	39,38
320,365	26,52
320,893	35,12
321,422	43,9
321,95	47,37
322,479	40,46
323,007	43,18
323,535	38,57
324,063	47,2
324,591	35,2
325,118	41,97
325,646	41,6
326,173	30,83
326,701	47,97
327,228	43,1
327,755	40,23
328,282	37,02
328,809	38,56
329,336	45,67
329,862	38,6
330,389	37,89
330,915	43,31
331,441	34,35
331,968	45,95
332,494	42,05
333,02	42,92
333,545	33,21
334,071	54,13
334,597	35,21
335,122	40
335,648	48,28
336,173	31,06
336,698	40,19
337,223	36,03
337,748	45,83
338,272	36,99
338,797	44,93
339,322	27,37
339,846	37,13
340,37	43,55
340,894	37,85
341,419	37,59
341,942	34,27
342,466	43,27
342,99	38,59
343,514	37,68
344,037	40,19
344,56	47,04
345,084	39,73
345,607	42,01
346,13	36,27
346,653	42,67
347,175	36,22
347,698	29,56
348,221	30
348,743	32,61
349,265	30,58
349,787	33,44
350,309	31,96
350,831	33,33
351,353	32,93
351,875	36,55
352,397	35,66
352,918	38,16
353,439	36,09
353,961	23,26
354,482	35,67
355,003	35,76
355,524	34,17
356,044	32,39
356,565	40,36
357,086	33,62
357,606	27,47
358,126	36,44
358,646	30,87
359,167	37,3
359,687	31,36
360,206	32,79
360,726	27,49
361,246	36,44
361,765	31,64
362,285	33,25
362,804	30,26
363,323	33,17
363,842	31,87
364,361	34,08
364,88	30,3
365,398	32,97
365,917	26,89
366,435	36,72
366,954	31,7
367,472	32,08
367,99	31,28
368,508	31,78
369,026	34,55
369,544	34,21
370,061	29,62
370,579	32,38
371,096	31,42
371,613	24,78
372,131	30,31
372,648	31,1
373,165	27,34
373,681	31,01
374,198	28,91
374,715	32,71
375,231	29,55
375,747	29,14
376,264	26,87
376,78	31,12
377,296	29,93
377,812	27,74
378,327	30,3
378,843	31,57
379,359	31,46
379,874	29,58
380,389	29,5
380,905	24,78
381,42	29,79
381,935	28,05
382,449	29,65
382,964	31,43
383,479	26,15
383,993	27,29
384,508	26,77
385,022	26,94
385,536	27,76
386,05	26,9
386,564	28,86
387,078	25,96
387,592	25,18
388,105	26,83
388,619	25,22
389,132	24,94
389,645	25,17
390,158	22,1
390,671	27,6
391,184	22,06
391,697	23,05
392,21	21,68
392,722	23,21
393,235	24,39
393,747	24,9
394,259	22,75
394,771	22,94
395,283	22,25
395,795	22,57
396,307	22,15
396,818	23,33
397,33	19,22
397,841	19,56
398,353	22,4
398,864	19,24
399,375	18,7
399,886	19,56
400,397	19,69
400,907	19,99
401,418	18,31
401,928	18,1
402,439	18,26
402,949	18,38
403,459	18,02
403,969	18,12
404,479	16,16
404,989	16,06
405,498	16,65
406,008	15,15
406,517	15,18
407,027	13,75
407,536	13,01
408,045	14,69
408,554	13,03
409,063	13,24
409,572	12,74
410,08	12,78
410,589	13,02
411,097	12,23
411,606	11,33
412,114	11,73
412,622	10,4
413,13	11,11
413,638	10,8
414,145	10,28
414,653	9,73
415,16	9,66
415,668	9,52
416,175	9,19
416,682	8,66
417,189	8,22
417,696	9,15
418,203	8,94
418,71	8,83
419,216	8,71
419,723	8,14
420,229	8,19
420,735	8,06
421,242	7,94
421,748	7,85
422,254	7,58
422,759	7,61
423,265	7,79
423,771	7,65
424,276	7,58
424,781	7,02
425,287	7,3
425,792	7,34
426,297	7,7
426,802	7,45
427,306	7,57
427,811	7,42
428,316	7,29
428,82	7,11
429,324	7,4
429,829	7,18
430,333	7,35
430,837	7,12
431,34	6,7
431,844	6,44
432,348	6,61
432,851	7,19
433,355	6,64
433,858	6,88
434,361	7,2
434,864	6,48
435,367	6,36
435,87	7,47
436,373	6,88
436,876	6,95
437,378	6,42
437,88	6,48
438,383	7,05
438,885	6,74
439,387	6,96
439,889	6,85
440,391	6,68
440,892	6,67
441,394	6,94
441,896	6,56
442,397	6,7
442,898	6,41
443,399	6,9
443,9	6,57
444,401	6,53
444,902	6,63
445,403	6,7
445,903	6,92
446,404	6,69
446,904	6,42
447,405	6,61
447,905	6,62
448,405	6,82
448,905	7,07
449,404	7,08
449,904	6,32
450,404	6,73
450,903	6,87
451,403	6,64
451,902	6,73
452,401	6,94
452,9	6,83
453,399	6,93
453,898	6,37
454,396	6,98
454,895	6,71
455,393	6,84
455,892	6,62
456,39	7,05
456,888	6,52
457,386	6,67
457,884	7,1
458,382	7,28
458,879	7,12
459,377	7,23
459,874	6,77
460,372	6,94
460,869	6,62
461,366	6,98
461,863	6,96
462,36	7,34
462,857	6,81
463,353	6,89
463,85	7
464,346	6,85
464,843	6,99
465,339	6,67
465,835	7,45
466,331	7,06
466,827	6,81
467,323	7,11
467,818	7,07
468,314	6,76
468,809	6,87
469,305	6,68
469,8	7
470,295	6,57
470,79	7,03
471,285	6,94
471,78	6,65
472,274	7,12
472,769	6,71
473,263	6,75
473,758	6,76
474,252	6,99
474,746	7,24
475,24	6,91
475,734	6,84
476,228	7,34
476,721	6,93
477,215	6,73
477,708	7,06
478,202	7,22
478,695	7,15
479,188	7,06
479,681	7,02
480,174	7,24
480,667	7,4
481,159	7,18
481,652	7,18
482,144	7,08
482,637	7,13
483,129	6,58
483,621	7,14
484,113	7,08
484,605	6,84
485,097	7,35
485,588	7,03
486,08	7,18
486,571	7,14
487,063	7,12
487,554	7,26
488,045	7,07
488,536	7,3
489,027	7,16
489,518	7,29
490,008	7,07
490,499	7,37
490,989	7,33
491,48	7,38
491,97	7,54
492,46	7,53
492,95	7,52
493,44	7,37
493,93	7,62
494,419	7,48
494,909	7,64
495,398	7,83
495,888	7,62
496,377	7,89
496,866	8,06
497,355	7,69
497,844	7,86
498,333	7,84
498,821	7,83
499,31	7,67
499,798	8
500,287	8,1
500,775	8,18
501,263	8,01
501,751	8,3
502,239	8,41
502,727	8,07
503,215	8,56
503,702	8,46
504,19	8,61
504,677	9,04
505,164	8,99
505,651	9,04
506,139	8,96
506,625	9,05
507,112	9,51
507,599	9,41
508,086	9,63
508,572	9,84
509,058	10,07
509,545	9,76
510,031	10,15
510,517	10,71
511,003	10,63
511,489	10,82
511,974	10,88
512,46	10,82
512,946	11,37
513,431	11,53
513,916	11,69
514,401	12,08
514,887	12,23
515,371	12,5
515,856	12,69
516,341	12,81
516,826	13,07
517,31	13,35
517,795	13,81
518,279	13,69
518,763	14,41
519,247	14,35
519,731	14,74
520,215	15,14
520,699	15,54
521,182	15,9
521,666	16,36
522,149	16,21
522,633	16,73
523,116	17,3
523,599	17,34
524,082	17,26
524,565	17,79
525,048	18,03
525,53	18,08
526,013	18,76
526,495	18,92
526,978	19,05
527,46	19,24
527,942	19,34
528,424	19,85
528,906	19,85
529,388	20,34
529,87	20,83
530,351	20,41
530,833	21,14
531,314	21,24
531,795	21,12
532,277	21,58
532,758	21,4
533,238	21,48
533,719	21,85
534,2	21,41
534,681	22,35
535,161	22,24
535,642	22,73
536,122	22,18
536,602	22,69
537,082	22,58
537,562	22,8
538,042	22,45
538,522	22,85
539,001	22,84
539,481	22,88
539,96	22,54
540,44	22,99
540,919	23,2
541,398	23,02
541,877	22,91
542,356	22,92
542,835	23,05
543,313	23,46
543,792	23,58
544,27	23,47
544,749	23,59
545,227	23,74
545,705	23,77
546,183	24,34
546,661	23,92
547,139	23,87
547,616	23,76
548,094	23,93
548,571	24,17
549,049	24,17
549,526	23,85
550,003	23,91
550,48	23,77
550,957	23,82
551,434	23,84
551,911	24,22
552,387	24,21
552,864	24,35
553,34	24,16
553,817	24
554,293	24
554,769	24,1
555,245	23,85
555,721	24,19
556,197	24,27
556,672	23,87
557,148	24,13
557,623	23,9
558,099	23,87
558,574	24,33
559,049	23,81
559,524	23,52
559,999	23,5
560,474	23,58
560,948	23,39
561,423	23,79
561,897	23,67
562,372	23,44
562,846	23,29
563,32	23,08
563,794	22,84
564,268	23,12
564,742	22,94
565,216	22,86
565,69	22,58
566,163	22,51
566,636	22,04
567,11	22,18
567,583	22,01
568,056	21,63
568,529	21,65
569,002	21,45
569,475	21,19
569,947	21,13
570,42	21,22
570,892	20,6
571,365	20,73
571,837	20,46
572,309	20,43
572,781	20,09
573,253	19,76
573,725	19,44
574,197	19,41
574,668	19,38
575,14	19,14
575,611	19,01
576,082	18,76
576,554	18,65
577,025	18,76
577,496	18,32
577,967	18,28
578,437	18,3
578,908	18,09
579,379	18,06
579,849	17,49
580,319	17,49
580,79	17,32
581,26	17,2
581,73	17,22
582,2	17,14
582,669	16,99
583,139	16,96
583,609	16,81
584,078	16,98
584,548	16,67
585,017	16,79
585,486	16,33
585,955	16,49
586,424	16,38
586,893	16,34
587,362	16,28
587,83	16,23
588,299	15,87
588,767	16,09
589,236	15,93
589,704	15,95
590,172	15,86
590,64	15,78
591,108	15,43
591,576	15,59
592,043	15,58
592,511	15,48
592,978	15,46
593,446	15,29
593,913	15,4
594,38	15,05
594,847	15,09
595,314	15,05
595,781	14,98
596,248	14,96
596,715	15,08
597,181	15,13
597,647	14,97
598,114	15,07
598,58	14,76
599,046	15,04
599,512	14,96
599,978	14,74
600,444	14,87
600,91	14,58
601,375	14,96
601,841	14,9
602,306	14,57
602,771	14,62
603,236	14,43
603,702	14,73
604,167	14,73
604,631	14,33
605,096	14,3
605,561	14,37
606,025	14,13
606,49	14,36
606,954	14,14
607,418	13,95
607,882	14,3
608,347	14,01
608,81	13,88
609,274	13,9
609,738	13,85
610,202	13,8
610,665	13,44
611,128	13,46
611,592	13,31
612,055	13,12
612,518	13,23
612,981	13,2
613,444	13,13
613,907	12,96
614,369	12,86
614,832	12,83
615,294	12,71
615,757	12,61
616,219	12,63
616,681	12,48
617,143	12,55
617,605	12,49
618,067	12,31
618,529	12,49
618,99	12,3
619,452	12,03
619,913	12,05
620,375	12,14
620,836	12,17
621,297	11,91
621,758	11,78
622,219	11,84
622,68	11,8
623,14	11,71
623,601	11,71
624,061	11,82
624,522	11,64
624,982	11,64
625,442	11,65
625,902	11,63
626,362	11,42
626,822	11,64
627,282	11,44
627,742	11,65
628,201	11,47
628,661	11,68
629,12	11,51
629,579	11,55
630,038	11,55
630,497	11,8
630,956	11,41
631,415	11,46
631,874	11,29
632,332	11,36
632,791	11,5
633,249	11,27
633,708	11,25
634,166	11,01
634,624	11,04
635,082	11,2
635,54	10,97
635,998	10,99
636,455	11,1
636,913	10,84
637,37	10,68
637,828	10,81
638,285	10,58
638,742	10,45
639,199	10,53
639,656	10,24
640,113	10,25
640,57	10,14
641,027	10,14
641,483	10,12
641,94	9,88
642,396	9,88
642,852	9,77
643,309	9,58
643,765	9,43
644,221	9,39
644,676	9,4
645,132	9,21
645,588	9,2
646,043	9,02
646,499	9,06
646,954	8,96
647,409	8,99
647,864	8,79
648,319	8,75
648,774	8,61
649,229	8,52
649,684	8,58
650,139	8,53
650,593	8,49
651,047	8,38
651,502	8,34
651,956	8,41
652,41	8,23
652,864	8,25
653,318	8,33
653,772	8,18
654,225	8,22
654,679	8,26
655,133	8,3
655,586	8,12
656,039	8,01
656,492	8,08
656,946	8,09
657,399	7,96
657,851	7,97
658,304	7,87
658,757	7,89
659,209	7,89
659,662	7,91
660,114	7,69
660,567	7,66
661,019	7,66
661,471	7,62
661,923	7,61
662,375	7,59
662,826	7,51
663,278	7,43
663,73	7,48
664,181	7,42
664,632	7,61
665,084	7,43
665,535	7,47
665,986	7,47
666,437	7,5
666,888	7,43
667,338	7,41
667,789	7,57
668,24	7,55
668,69	7,38
669,14	7,54
669,591	7,61
670,041	7,64
670,491	7,73
670,941	7,62
671,391	7,81
671,84	7,8
672,29	7,74
672,74	7,94
673,189	7,95
673,638	7,89
674,088	8,17
674,537	8,13
674,986	8,27
675,435	8,23
675,883	8,41
676,332	8,48
676,781	8,57
677,229	8,64
677,678	8,77
678,126	8,96
678,574	9,03
679,022	9,16
679,47	9,38
679,918	9,42
680,366	9,37
680,814	9,46
681,261	9,59
681,709	9,82
682,156	9,76
682,604	9,96
683,051	10,18
683,498	10,19
683,945	10,07
684,392	10,19
684,839	10,3
685,286	10,45
685,732	10,38
686,179	10,53
686,625	10,66
687,071	10,73
687,518	10,88
687,964	10,89
688,41	11,02
688,856	11,15
689,301	11,41
689,747	11,44
690,193	11,75
690,638	11,74
691,084	12,23
691,529	12,31
691,974	12,67
692,419	13
692,864	13,31
693,309	13,68
693,754	14,22
694,199	14,7
694,643	14,9
695,088	15,46
695,532	16,01
695,977	16,43
696,421	16,89
696,865	17,36
697,309	17,79
697,753	18,37
698,197	19,02
698,64	19,59
699,084	20,18
699,527	20,67
699,971	21,08
700,414	21,59
700,857	22,23
701,3	22,62
701,743	23,11
702,186	23,77
702,629	24,39
703,072	24,97
703,515	25,21
703,957	25,84
704,399	26,66
704,842	26,98
705,284	27,18
705,726	27,86
706,168	28,07
706,61	29,14
707,052	29,19
707,494	30
707,935	30,12
708,377	30,87
708,818	31,35
709,26	31,43
709,701	32,02
710,142	32,51
710,583	32,67
711,024	33,3
711,465	33,98
711,905	34,56
712,346	34,68
712,787	35,21
713,227	35,61
713,667	35,88
714,108	36,39
714,548	36,64
714,988	37,25
715,428	37,38
715,868	38,39
716,307	38,36
716,747	38,59
717,186	39,2
717,626	39,33
718,065	39,85
718,504	40,16
718,944	40,37
719,383	40,48
719,822	41,03
720,261	41,3
720,699	41,55
721,138	41,48
721,576	42,41
722,015	42,51
722,453	42,65
722,892	43,12
723,33	43,45
723,768	43,73
724,206	43,94
724,644	44,05
725,081	44,14
725,519	44,53
725,957	44,56
726,394	45,18
726,832	45,04
727,269	45,4
727,706	45,81
728,143	45,82
728,58	45,99
729,017	45,77
729,454	46,24
729,89	46,74
730,327	46,35
730,764	46,6
731,2	46,76
731,636	46,85
732,072	47,12
732,509	47,57
732,945	47,34
733,38	47,34
733,816	47,63
734,252	47,68
734,688	47,96
735,123	47,82
735,559	48,14
735,994	47,93
736,429	48,17
736,864	48,17
737,299	48,15
737,734	48,38
738,169	48,29
738,604	48,4
739,038	48,5
739,473	48,61
739,907	48,75
740,342	48,46
740,776	49,04
741,21	48,61
741,644	49,18
742,078	49,04
742,512	48,8
742,946	48,9
743,379	48,8
743,813	48,67
744,246	48,84
744,68	49,12
745,113	48,5
745,546	48,7
745,979	48,62
746,412	48,58
746,845	48,76
747,278	48,96
747,711	48,36
748,143	48,64
748,576	48,85
749,008	48,92
749,441	48,35
749,873	48,38
750,305	48,55
750,737	48,51
751,169	48,26
751,601	48,5
752,032	48,47
752,464	48,14
752,896	48,22
753,327	48,26
753,758	48,13
754,19	48,32
754,621	48,06
755,052	48,39
755,483	48,11
755,914	48,1
756,344	48,09
756,775	48,26
757,206	48,07
757,636	48,06
758,066	48,04
758,497	48,02
758,927	48,22
759,357	48,13
759,787	48,06
760,217	47,79
760,647	47,72
761,076	47,67
761,506	47,41
761,935	47,63
762,365	47,55
762,794	47,49
763,223	47,52
763,653	47,58
764,082	47,05
764,51	47,65
764,939	47,46
765,368	47,33
765,797	47,23
766,225	47,39
766,654	47,17
767,082	47,12
767,51	47,21
767,938	46,81
768,367	47,23
768,795	47,01
769,222	47,37
769,65	47,19
770,078	46,68
770,505	47,25
770,933	46,92
771,36	47,18
771,788	47,01
772,215	46,86
772,642	46,91
773,069	46,75
773,496	46,87
773,923	46,65
774,349	46,62
774,776	46,8
775,203	46,79
775,629	46,92
776,055	46,35
776,482	46,48
776,908	46,48
777,334	46,37
777,76	46,41
778,186	46,84
778,611	46,71
779,037	46,65
779,463	46,19
779,888	46,3
780,314	45,98
780,739	46,5
781,164	46,86
781,589	46,25
782,014	46,41
782,439	46,23
782,864	46,4
783,289	46,65
783,713	45,98
784,138	46,36
784,562	46,21
784,987	46,21
785,411	46,36
785,835	45,87
786,259	46,2
786,683	46,34
787,107	46,13
787,531	46,12
787,954	46,22
788,378	46,14
788,802	46,16
789,225	45,86
789,648	46,52
790,071	45,83
790,495	46,05
790,918	46,25
791,34	45,87
791,763	45,65
792,186	45,93
792,609	45,98
793,031	46,11
793,454	46,04
793,876	46,02
794,298	46,11
794,721	45,7
795,143	46,02
795,565	45,79
795,986	45,68
796,408	45,76
796,83	45,92
797,252	45,93
797,673	45,93
798,094	46,13
798,516	45,5
798,937	46,22
799,358	45,6
799,779	45,87
800,2	45,94
800,621	45,76
801,042	45,84
801,462	45,79
801,883	45,86
802,303	45,65
802,724	45,66
803,144	45,73
803,564	45,63
803,984	45,97
804,404	45,72
804,824	45,59
805,244	45,71
805,664	45,89
806,084	45,93
806,503	45,79
806,923	45,89
807,342	45,67
807,761	45,79
808,18	45,44
808,599	45,81
809,018	45,86
809,437	45,71
809,856	45,25
810,275	45,95
810,693	45,56
811,112	45,79
811,53	45,93
811,949	45,6
812,367	45,97
812,785	45,69
813,203	45,63
813,621	45,63
814,039	45,6
814,457	45,33
814,874	45,62
815,292	45,65
815,709	45,32
816,127	45,65
816,544	45,67
816,961	45,54
817,378	45,75
817,795	45,54
818,212	45,49
818,629	46,19
819,046	45,34
819,462	45,42
819,879	45,44
820,295	45,56
820,712	45,57
821,128	45,79
821,544	45,78
821,96	45,45
822,376	45,48
822,792	45,62
823,208	45,65
823,624	45,65
824,039	45,45
824,455	45,6
824,87	45,27
825,286	45,71
825,701	45,37
826,116	45,27
826,531	45,68
826,946	45,36
827,361	45,51
827,776	45,68
828,19	45,35
828,605	45,2
829,02	45,46
829,434	45,35
829,848	45,49
830,263	45,58
830,677	45,07
831,091	45,14
831,505	45,05
831,919	45,59
832,332	45,48
832,746	45,77
833,16	44,99
833,573	45,42
833,987	46,04
834,4	45,19
834,813	45,01
835,226	45,42
835,639	45,33
836,052	44,84
836,465	45,24
836,878	45,12
837,29	45,35
837,703	45,26
838,116	45,16
838,528	45,07
838,94	45,81
839,352	45,28
839,765	45,15
840,177	45,49
840,589	45,28
841	45,33
841,412	45,45
841,824	45,48
