Data from A2__Relative__6__00006.txt Node

Date: Wed Jan 31 17:54:27 CET 2024
User: diatiterra
Spectrometer: HDX00911
Trigger mode: 0
Integration Time (sec): 6,000000E-3
Scans to average: 2
Nonlinearity correction enabled: false
Boxcar width: 0
Storing dark spectrum: false
XAxis mode: Wavelengths
Number of Pixels in Spectrum: 2068
>>>>>Begin Spectral Data<<<<<
194,468	56,6
195,025	54,55
195,581	63,41
196,138	67,95
196,694	51,23
197,251	46,97
197,807	47,64
198,363	39,6
198,919	42,76
199,474	44,49
200,03	43,44
200,586	37,5
201,141	30
201,696	44,3
202,251	37,12
202,806	33,57
203,361	42,59
203,916	38,54
204,471	41,24
205,025	45,56
205,58	45,71
206,134	50,8
206,688	40
207,242	37,17
207,796	43,98
208,35	43,48
208,904	46,21
209,457	33,33
210,011	35,11
210,564	41,9
211,117	40,6
211,67	38,06
212,223	47,6
212,776	44,35
213,329	41,67
213,881	55,39
214,434	42,11
214,986	47,11
215,538	44,12
216,09	40,85
216,642	44,63
217,194	50,38
217,746	42,86
218,297	46,56
218,849	42,65
219,4	42,86
219,951	37,5
220,502	48,65
221,053	41,6
221,604	45,97
222,155	40,08
222,705	36,4
223,256	39,93
223,806	46,85
224,356	39,23
224,906	50,81
225,456	43,41
226,006	41,67
226,556	36,04
227,106	41,94
227,655	35,42
228,204	40,83
228,754	38,73
229,303	38,93
229,852	35,61
230,401	42,91
230,949	39,21
231,498	37,32
232,047	36,69
232,595	38,97
233,143	43,7
233,691	36,43
234,239	38,21
234,787	37,6
235,335	42,54
235,883	39,16
236,43	40,15
236,978	43,85
237,525	36,5
238,072	36,88
238,619	45,45
239,166	35,11
239,713	32,85
240,26	42,14
240,806	39,58
241,353	39,68
241,899	35,31
242,445	33,58
242,991	45,42
243,537	42,8
244,083	48,47
244,629	42,31
245,174	40,71
245,72	41,85
246,265	32,94
246,81	40,8
247,355	32,94
247,9	36,57
248,445	47,62
248,99	39,77
249,534	51,3
250,079	41,73
250,623	42,96
251,168	47,11
251,712	35,16
252,256	44,26
252,8	41,15
253,343	46,79
253,887	43,55
254,43	38,93
254,974	44,66
255,517	39,04
256,06	49,62
256,603	35,19
257,146	36,05
257,689	47,24
258,232	46,19
258,774	44,68
259,317	41,95
259,859	33,03
260,401	46,12
260,943	40,43
261,485	35,46
262,027	45,6
262,569	46,27
263,11	31,15
263,652	51,18
264,193	36,78
264,734	43,43
265,275	42,62
265,816	31,3
266,357	46,9
266,898	45
267,438	51,57
267,979	36,33
268,519	35,45
269,059	42,06
269,6	40,23
270,14	49,6
270,68	45,29
271,219	37,71
271,759	41,35
272,298	39,47
272,838	43,08
273,377	42,06
273,916	37,41
274,455	46,35
274,994	38,8
275,533	42,75
276,072	44,31
276,61	38,04
277,149	40,83
277,687	39,1
278,225	34,33
278,763	53,51
279,301	39,58
279,839	28,63
280,377	47,13
280,914	38,11
281,452	53,85
281,989	33,47
282,526	37,4
283,064	39,5
283,601	32,09
284,137	35,95
284,674	37,08
285,211	45,61
285,747	39,39
286,284	43,69
286,82	27,69
287,356	37,83
287,892	39,92
288,428	36,36
288,964	51,26
289,5	42,56
290,035	42,4
290,571	37,39
291,106	48,37
291,641	44,2
292,176	41,02
292,711	38,21
293,246	30
293,781	43,39
294,315	32,75
294,85	46,76
295,384	36,48
295,918	38,24
296,453	28,36
296,987	35,95
297,52	41,74
298,054	43,51
298,588	37,08
299,121	34,33
299,655	33,58
300,188	35,83
300,721	40,24
301,254	32,66
301,787	42,19
302,32	43,09
302,853	38
303,385	43,57
303,918	40,31
304,45	40
304,982	35,11
305,514	32,95
306,046	33,88
306,578	39,92
307,11	43,8
307,641	37,07
308,173	38,02
308,704	28,1
309,236	29,7
309,767	42,91
310,298	29,03
310,829	38,7
311,359	39,11
311,89	34,03
312,421	40,54
312,951	40,24
313,481	30,69
314,012	40,3
314,542	34,32
315,072	41,6
315,601	37,2
316,131	37,01
316,661	30
317,19	34,07
317,72	42,98
318,249	43,65
318,778	48,44
319,307	33,2
319,836	35,84
320,365	28,7
320,893	33,06
321,422	32,52
321,95	46,99
322,479	37,79
323,007	36,36
323,535	37,14
324,063	36,4
324,591	36,4
325,118	36,5
325,646	44,96
326,173	29,58
326,701	45,12
327,228	30,17
327,755	39,1
328,282	33,21
328,809	39,83
329,336	37,8
329,862	34,19
330,389	29,69
330,915	33,46
331,441	31,68
331,968	35,14
332,494	35,23
333,02	34,58
333,545	29,48
334,071	45,04
334,597	22,89
335,122	31,85
335,648	39,22
336,173	24,62
336,698	34,49
337,223	32,35
337,748	37,5
338,272	41,44
338,797	38,04
339,322	29,93
339,846	27,21
340,37	38,71
340,894	33,33
341,419	35,71
341,942	29,37
342,466	34,29
342,99	29,53
343,514	32,75
344,037	28,8
344,56	32,22
345,084	29,45
345,607	28,12
346,13	28,52
346,653	32,33
347,175	33,97
347,698	26,1
348,221	22,14
348,743	27,64
349,265	25,18
349,787	29,45
350,309	27,53
350,831	23,77
351,353	30,79
351,875	29,82
352,397	23,78
352,918	25,66
353,439	33,11
353,961	20,93
354,482	32,75
355,003	27,33
355,524	25,56
356,044	23,3
356,565	33,43
357,086	28,25
357,606	19,51
358,126	27,93
358,646	23,21
359,167	31,35
359,687	25,14
360,206	28,42
360,726	22,04
361,246	29,26
361,765	23,45
362,285	22,5
362,804	24,74
363,323	14,63
363,842	20,88
364,361	20,65
364,88	22,41
365,398	23,58
365,917	23,58
366,435	24,74
366,954	25
367,472	20,99
367,99	29,86
368,508	22,67
369,026	28,64
369,544	24,12
370,061	23,11
370,579	22,95
371,096	23,85
371,613	21,34
372,131	20,47
372,648	19,88
373,165	22,27
373,681	24,89
374,198	24,8
374,715	24,62
375,231	20,45
375,747	25,86
376,264	19,56
376,78	18,71
377,296	23,61
377,812	23,26
378,327	21,36
378,843	23,04
379,359	22,68
379,874	23,7
380,389	19,72
380,905	20,75
381,42	21,88
381,935	21,65
382,449	23,6
382,964	22,29
383,479	18,82
383,993	21,19
384,508	20,34
385,022	20,98
385,536	18,82
386,05	17,32
386,564	20,52
387,078	17,58
387,592	19,34
388,105	19,5
388,619	19,42
389,132	18,65
389,645	18,39
390,158	15,88
390,671	20,16
391,184	18,52
391,697	17,03
392,21	16,94
392,722	15,28
393,235	17,92
393,747	15,76
394,259	15,26
394,771	17,64
395,283	16,39
395,795	15,39
396,307	17,29
396,818	16,93
397,33	13,61
397,841	15,04
398,353	13,88
398,864	14,34
399,375	12,69
399,886	15,07
400,397	13,81
400,907	15,25
401,418	13,04
401,928	11,65
402,439	12,37
402,949	10,5
403,459	11,66
403,969	12,39
404,479	11,08
404,989	11,31
405,498	12,11
406,008	10,64
406,517	10,77
407,027	8,89
407,536	9,7
408,045	8,33
408,554	9,83
409,063	8,49
409,572	7,89
410,08	8,74
410,589	7,71
411,097	7,3
411,606	7,83
412,114	8,42
412,622	6,66
413,13	7,33
413,638	7,14
414,145	7,01
414,653	7
415,16	6,75
415,668	6,25
416,175	6,3
416,682	6,24
417,189	5,05
417,696	5,77
418,203	5,97
418,71	5,91
419,216	5,84
419,723	5,66
420,229	5,12
420,735	5,38
421,242	4,92
421,748	5,35
422,254	5,27
422,759	4,69
423,265	4,97
423,771	5,09
424,276	4,97
424,781	4,86
425,287	4,97
425,792	4,99
426,297	4,59
426,802	4,32
427,306	4,49
427,811	4,52
428,316	4,72
428,82	4,24
429,324	4,4
429,829	4,11
430,333	4,69
430,837	4,46
431,34	3,87
431,844	4,26
432,348	4,07
432,851	4,19
433,355	4,28
433,858	3,96
434,361	4,17
434,864	4,19
435,367	4,44
435,87	4,68
436,373	4,41
436,876	4,18
437,378	4,61
437,88	4,55
438,383	4,32
438,885	4,38
439,387	4,3
439,889	4,37
440,391	4,02
440,892	4,27
441,394	4,49
441,896	4,45
442,397	4,28
442,898	4,04
443,399	4,13
443,9	4,2
444,401	4,14
444,902	4,34
445,403	4,39
445,903	4,24
446,404	4,31
446,904	4,24
447,405	4,35
447,905	4,15
448,405	4,55
448,905	4,34
449,404	4,46
449,904	4,33
450,404	4,11
450,903	4,78
451,403	4,27
451,902	4,64
452,401	4,48
452,9	4,54
453,399	4,42
453,898	4,52
454,396	4,53
454,895	4,46
455,393	4,53
455,892	4,37
456,39	4,72
456,888	4,41
457,386	4,33
457,884	4,54
458,382	4,86
458,879	4,6
459,377	4,83
459,874	4,76
460,372	4,62
460,869	4,67
461,366	4,7
461,863	4,63
462,36	4,75
462,857	4,66
463,353	4,73
463,85	4,82
464,346	4,18
464,843	4,81
465,339	4,49
465,835	4,75
466,331	4,76
466,827	4,2
467,323	4,58
467,818	4,48
468,314	4,67
468,809	4,78
469,305	4,61
469,8	4,64
470,295	4,47
470,79	4,9
471,285	4,7
471,78	4,46
472,274	4,38
472,769	4,34
473,263	4,34
473,758	4,59
474,252	4,27
474,746	4,6
475,24	4,59
475,734	4,38
476,228	4,54
476,721	4,47
477,215	4,69
477,708	4,7
478,202	4,52
478,695	4,51
479,188	4,38
479,681	4,5
480,174	4,58
480,667	4,81
481,159	4,65
481,652	4,6
482,144	4,68
482,637	4,77
483,129	4,5
483,621	4,77
484,113	4,78
484,605	4,97
485,097	4,85
485,588	4,63
486,08	4,88
486,571	4,92
487,063	4,78
487,554	4,7
488,045	4,71
488,536	4,83
489,027	4,71
489,518	4,99
490,008	4,86
490,499	4,97
490,989	4,97
491,48	4,87
491,97	5,1
492,46	4,98
492,95	5,08
493,44	5,34
493,93	5,12
494,419	5,14
494,909	5,45
495,398	5,52
495,888	5,38
496,377	5,37
496,866	5,67
497,355	5,52
497,844	5,58
498,333	5,83
498,821	5,74
499,31	5,76
499,798	5,9
500,287	6,08
500,775	6,15
501,263	6,29
501,751	6,09
502,239	6,59
502,727	6,63
503,215	6,66
503,702	6,83
504,19	6,79
504,677	7,17
505,164	7,56
505,651	7,44
506,139	7,55
506,625	7,58
507,112	7,84
507,599	7,95
508,086	8,18
508,572	8,4
509,058	8,7
509,545	8,63
510,031	8,97
510,517	9,12
511,003	9,08
511,489	9,57
511,974	9,8
512,46	9,93
512,946	10,09
513,431	10,54
513,916	10,91
514,401	10,95
514,887	11,12
515,371	11,36
515,856	11,88
516,341	12,05
516,826	12,11
517,31	12,47
517,795	12,81
518,279	12,93
518,763	13,49
519,247	13,86
519,731	14,07
520,215	14,37
520,699	14,72
521,182	14,71
521,666	14,96
522,149	15,39
522,633	15,8
523,116	16,01
523,599	16,63
524,082	16,45
524,565	17
525,048	16,85
525,53	17,43
526,013	17,77
526,495	18,08
526,978	18,08
527,46	18,33
527,942	18,5
528,424	19,18
528,906	19,07
529,388	19,79
529,87	19,62
530,351	19,5
530,833	20,36
531,314	19,93
531,795	20,09
532,277	20,73
532,758	20,72
533,238	20,93
533,719	20,7
534,2	20,94
534,681	21,03
535,161	21,06
535,642	21,86
536,122	21,33
536,602	21,42
537,082	21,91
537,562	21,82
538,042	21,33
538,522	21,74
539,001	21,72
539,481	21,8
539,96	22,01
540,44	22,12
540,919	22,33
541,398	22,33
541,877	22,39
542,356	22,35
542,835	22,09
543,313	22,45
543,792	22,32
544,27	22,53
544,749	22,84
545,227	22,46
545,705	22,69
546,183	22,82
546,661	22,55
547,139	22,8
547,616	22,81
548,094	22,83
548,571	22,62
549,049	23,06
549,526	22,63
550,003	23,12
550,48	22,92
550,957	23,15
551,434	23,26
551,911	22,73
552,387	23,07
552,864	23,29
553,34	23,06
553,817	22,93
554,293	23,23
554,769	23,2
555,245	22,9
555,721	23,18
556,197	22,76
556,672	23,06
557,148	23,09
557,623	23,03
558,099	23,02
558,574	22,9
559,049	22,48
559,524	22,82
559,999	22,38
560,474	22,45
560,948	22,44
561,423	22,59
561,897	22,11
562,372	22,32
562,846	22,26
563,32	22,08
563,794	21,85
564,268	22,07
564,742	21,54
565,216	21,7
565,69	21,28
566,163	21,35
566,636	20,93
567,11	21,21
567,583	20,68
568,056	20,68
568,529	20,73
569,002	20,47
569,475	20,81
569,947	20,38
570,42	20,09
570,892	19,88
571,365	19,66
571,837	19,51
572,309	19,4
572,781	19,1
573,253	19,23
573,725	18,96
574,197	18,52
574,668	18,55
575,14	18,3
575,611	18,14
576,082	17,82
576,554	17,84
577,025	17,59
577,496	17,44
577,967	17,61
578,437	17,17
578,908	17,32
579,379	16,95
579,849	16,98
580,319	16,89
580,79	16,49
581,26	16,43
581,73	16,41
582,2	16,32
582,669	16,16
583,139	15,97
583,609	15,96
584,078	15,93
584,548	15,74
585,017	15,84
585,486	15,57
585,955	15,61
586,424	15,6
586,893	15,37
587,362	15,6
587,83	15,04
588,299	15
588,767	15,27
589,236	15,25
589,704	14,86
590,172	14,95
590,64	14,78
591,108	14,61
591,576	14,83
592,043	14,56
592,511	14,65
592,978	14,51
593,446	14,51
593,913	14,59
594,38	14,23
594,847	14,31
595,314	14,38
595,781	14,13
596,248	14,08
596,715	13,95
597,181	14,24
597,647	13,93
598,114	13,97
598,58	13,99
599,046	14,03
599,512	14,01
599,978	13,76
600,444	13,77
600,91	13,74
601,375	13,89
601,841	13,88
602,306	13,56
602,771	13,55
603,236	13,47
603,702	13,67
604,167	13,71
604,631	13,41
605,096	13,5
605,561	13,14
606,025	13,18
606,49	13,11
606,954	13,05
607,418	13,17
607,882	13,1
608,347	12,87
608,81	12,83
609,274	12,82
609,738	12,55
610,202	12,68
610,665	12,45
611,128	12,39
611,592	12,19
612,055	12,28
612,518	12,22
612,981	12,38
613,444	11,94
613,907	11,97
614,369	11,66
614,832	11,74
615,294	11,7
615,757	11,55
616,219	11,6
616,681	11,62
617,143	11,35
617,605	11,27
618,067	11,15
618,529	11,19
618,99	11,14
619,452	11
619,913	10,8
620,375	10,96
620,836	10,89
621,297	11
621,758	10,79
622,219	10,68
622,68	10,55
623,14	10,68
623,601	10,67
624,061	10,5
624,522	10,62
624,982	10,48
625,442	10,59
625,902	10,6
626,362	10,53
626,822	10,48
627,282	10,58
627,742	10,41
628,201	10,3
628,661	10,39
629,12	10,42
629,579	10,31
630,038	10,32
630,497	10,28
630,956	10,37
631,415	10,13
631,874	10,25
632,332	10,28
632,791	10,28
633,249	10,2
633,708	10,26
634,166	10
634,624	9,98
635,082	9,95
635,54	9,98
635,998	9,75
636,455	9,82
636,913	9,69
637,37	9,59
637,828	9,46
638,285	9,36
638,742	9,38
639,199	9,13
639,656	9,08
640,113	8,92
640,57	8,98
641,027	8,62
641,483	8,71
641,94	8,56
642,396	8,52
642,852	8,57
643,309	8,28
643,765	8,13
644,221	8
644,676	7,92
645,132	7,77
645,588	7,68
646,043	7,47
646,499	7,6
646,954	7,48
647,409	7,4
647,864	7,31
648,319	7,13
648,774	7,12
649,229	7,09
649,684	7,02
650,139	6,94
650,593	6,82
651,047	6,86
651,502	6,73
651,956	6,76
652,41	6,65
652,864	6,6
653,318	6,58
653,772	6,49
654,225	6,49
654,679	6,45
655,133	6,4
655,586	6,37
656,039	6,35
656,492	6,34
656,946	6,21
657,399	6,3
657,851	6,22
658,304	6,12
658,757	6,07
659,209	6,07
659,662	5,89
660,114	5,97
660,567	5,78
661,019	5,77
661,471	5,77
661,923	5,73
662,375	5,64
662,826	5,53
663,278	5,53
663,73	5,51
664,181	5,4
664,632	5,51
665,084	5,43
665,535	5,39
665,986	5,3
666,437	5,42
666,888	5,37
667,338	5,36
667,789	5,46
668,24	5,37
668,69	5,36
669,14	5,38
669,591	5,33
670,041	5,34
670,491	5,43
670,941	5,31
671,391	5,56
671,84	5,51
672,29	5,54
672,74	5,61
673,189	5,71
673,638	5,78
674,088	5,84
674,537	5,84
674,986	5,99
675,435	6,06
675,883	6,13
676,332	6,22
676,781	6,23
677,229	6,41
677,678	6,57
678,126	6,6
678,574	6,8
679,022	6,97
679,47	6,97
679,918	7,18
680,366	7,07
680,814	7,39
681,261	7,4
681,709	7,57
682,156	7,61
682,604	7,81
683,051	7,92
683,498	8,03
683,945	8,09
684,392	8,21
684,839	8,44
685,286	8,32
685,732	8,49
686,179	8,66
686,625	8,82
687,071	8,89
687,518	9,15
687,964	9,29
688,41	9,45
688,856	9,56
689,301	9,82
689,747	10,09
690,193	10,36
690,638	10,64
691,084	10,97
691,529	11,35
691,974	11,63
692,419	12,19
692,864	12,54
693,309	12,88
693,754	13,45
694,199	14,01
694,643	14,49
695,088	14,89
695,532	15,58
695,977	15,99
696,421	16,46
696,865	16,95
697,309	17,35
697,753	17,92
698,197	18,52
698,64	19,15
699,084	19,61
699,527	20,1
699,971	20,67
700,414	21,33
700,857	21,68
701,3	22,1
701,743	22,71
702,186	22,97
702,629	23,76
703,072	24,36
703,515	24,68
703,957	25,04
704,399	25,68
704,842	26,14
705,284	26,35
705,726	26,86
706,168	27,22
706,61	27,99
707,052	27,9
707,494	28,62
707,935	29,21
708,377	29,7
708,818	29,88
709,26	30,28
709,701	30,64
710,142	30,91
710,583	31,27
711,024	31,56
711,465	32,11
711,905	32,57
712,346	32,71
712,787	32,95
713,227	33,66
713,667	33,8
714,108	34,15
714,548	34,41
714,988	34,96
715,428	35,16
715,868	35,8
716,307	35,78
716,747	35,92
717,186	36,2
717,626	36,91
718,065	37,25
718,504	37,28
718,944	37,54
719,383	37,74
719,822	38,21
720,261	38,39
720,699	38,58
721,138	38,59
721,576	38,97
722,015	39,36
722,453	39,49
722,892	39,54
723,33	40,19
723,768	40,62
724,206	40,35
724,644	40,63
725,081	40,57
725,519	40,58
725,957	40,97
726,394	41,58
726,832	41,37
727,269	41,26
727,706	41,84
728,143	41,69
728,58	42,36
729,017	42,05
729,454	42,48
729,89	42,48
730,327	42,39
730,764	42,93
731,2	42,52
731,636	42,97
732,072	43,15
732,509	43,14
732,945	43,47
733,38	43,02
733,816	43,71
734,252	43,6
734,688	43,66
735,123	43,54
735,559	43,68
735,994	43,62
736,429	43,76
736,864	43,95
737,299	43,87
737,734	43,84
738,169	43,67
738,604	43,94
739,038	43,85
739,473	44,09
739,907	44,1
740,342	43,97
740,776	44,25
741,21	44,1
741,644	44,4
742,078	44,39
742,512	44,03
742,946	44,46
743,379	44,01
743,813	44,2
744,246	44,06
744,68	44,23
745,113	44,13
745,546	44,47
745,979	44,13
746,412	44,26
746,845	44,18
747,278	43,85
747,711	43,94
748,143	44,13
748,576	44,09
749,008	44,35
749,441	44,13
749,873	43,78
750,305	44,29
750,737	43,79
751,169	43,89
751,601	43,97
752,032	43,98
752,464	43,69
752,896	43,6
753,327	43,64
753,758	43,6
754,19	44,05
754,621	43,64
755,052	43,42
755,483	43,63
755,914	43,55
756,344	43,42
756,775	43,39
757,206	43,59
757,636	43,4
758,066	43,37
758,497	43,42
758,927	43,66
759,357	43,46
759,787	43,28
760,217	43,32
760,647	43,37
761,076	43,3
761,506	42,99
761,935	42,95
762,365	43,17
762,794	43,21
763,223	43,12
763,653	43,19
764,082	43,03
764,51	43,19
764,939	43,01
765,368	42,8
765,797	42,88
766,225	43,05
766,654	42,79
767,082	42,51
767,51	43,07
767,938	42,52
768,367	42,38
768,795	42,43
769,222	42,84
769,65	42,88
770,078	42,55
770,505	42,62
770,933	42,45
771,36	42,58
771,788	42,47
772,215	42,46
772,642	42,42
773,069	42,38
773,496	42,46
773,923	42,49
774,349	42,36
774,776	42,43
775,203	42,32
775,629	42,35
776,055	42,05
776,482	41,94
776,908	41,99
777,334	42
777,76	41,93
778,186	41,9
778,611	42,34
779,037	42,12
779,463	41,97
779,888	41,98
780,314	42,03
780,739	41,87
781,164	41,99
781,589	42,11
782,014	41,91
782,439	42,06
782,864	42,2
783,289	42,21
783,713	41,59
784,138	41,94
784,562	41,9
784,987	41,96
785,411	41,83
785,835	41,58
786,259	41,45
786,683	42,02
787,107	41,78
787,531	41,64
787,954	42,25
788,378	41,95
788,802	41,62
789,225	41,47
789,648	41,75
790,071	41,53
790,495	42,12
790,918	41,82
791,34	41,54
791,763	41,6
792,186	41,81
792,609	41,5
793,031	41,73
793,454	41,57
793,876	41,93
794,298	41,55
794,721	41,51
795,143	41,74
795,565	41,59
795,986	41,45
796,408	41,33
796,83	41,21
797,252	41,41
797,673	41,55
798,094	41,88
798,516	41,57
798,937	42,03
799,358	41,4
799,779	41,13
800,2	41,42
800,621	41,61
801,042	41,34
801,462	41,56
801,883	41,48
802,303	41,15
802,724	41,51
803,144	41,32
803,564	41,42
803,984	41,52
804,404	41,4
804,824	41,26
805,244	41,51
805,664	41,75
806,084	41,45
806,503	41,74
806,923	41,26
807,342	41,22
807,761	41,15
808,18	41,24
808,599	41,17
809,018	41,18
809,437	41,38
809,856	41,04
810,275	41,41
810,693	41,18
811,112	41,24
811,53	41,43
811,949	41,3
812,367	41,56
812,785	41,35
813,203	41,41
813,621	41,3
814,039	41,33
814,457	41,4
814,874	41,13
815,292	41,23
815,709	40,98
816,127	41,34
816,544	41,5
816,961	41,11
817,378	41,75
817,795	41,33
818,212	41,33
818,629	41,39
819,046	41,13
819,462	40,8
819,879	40,96
820,295	41,3
820,712	41,14
821,128	41,24
821,544	41,27
821,96	41,49
822,376	41,29
822,792	41,03
823,208	41,07
823,624	41,09
824,039	41,12
824,455	41,03
824,87	40,62
825,286	41,14
825,701	41,2
826,116	41,03
826,531	41,22
826,946	40,71
827,361	41,01
827,776	41,11
828,19	40,9
828,605	40,85
829,02	41,23
829,434	41,11
829,848	40,83
830,263	41,25
830,677	40,63
831,091	40,82
831,505	40,74
831,919	40,9
832,332	41,03
832,746	41,37
833,16	40,89
833,573	41,08
833,987	41,32
834,4	40,88
834,813	40,71
835,226	40,88
835,639	40,87
836,052	40,53
836,465	41,01
836,878	40,94
837,29	41,04
837,703	40,78
838,116	40,94
838,528	40,99
838,94	40,74
839,352	40,76
839,765	40,89
840,177	40,91
840,589	40,79
841	40,75
841,412	40,61
841,824	41,09
842,235	40,73
842,647	40,79
843,058	41,06
843,47	40,75
843,881	41,14
