Data from C2___Relative__4__00029.txt Node

Date: Wed Jan 31 18:19:20 CET 2024
User: diatiterra
Spectrometer: HDX00911
Trigger mode: 0
Integration Time (sec): 6,000000E-3
Scans to average: 2
Nonlinearity correction enabled: false
Boxcar width: 0
Storing dark spectrum: false
XAxis mode: Wavelengths
Number of Pixels in Spectrum: 2068
>>>>>Begin Spectral Data<<<<<
194,468	204,72
195,025	140
195,581	163,41
196,138	202,56
196,694	124,69
197,251	105,05
197,807	92,91
198,363	94,8
198,919	77,93
199,474	91,91
200,03	100,82
200,586	98,66
201,141	80
201,696	81,21
202,251	84,47
202,806	84,97
203,361	87,41
203,916	80,56
204,471	86,13
205,025	102,02
205,58	84,29
206,134	98,8
206,688	89,62
207,242	103,54
207,796	90,98
208,35	90,22
208,904	88,97
209,457	80,21
210,011	78,72
210,564	89,08
211,117	89,1
211,67	88,81
212,223	88,01
212,776	97,18
213,329	87
213,881	113,73
214,434	88,49
214,986	108,68
215,538	97,79
216,09	84,86
216,642	109,09
217,194	95,08
217,746	98,87
218,297	94,66
218,849	89,34
219,4	103,78
219,951	88,71
220,502	92,23
221,053	103,44
221,604	95,97
222,155	92,46
222,705	91,91
223,256	94,78
223,806	99,61
224,356	87,31
224,906	103,63
225,456	100,78
226,006	90,48
226,556	74,03
227,106	96,77
227,655	86,11
228,204	99,17
228,754	84,86
229,303	88,57
229,852	89,57
230,401	90,67
230,949	91,73
231,498	82,75
232,047	84,09
232,595	95,17
233,143	101,57
233,691	87,6
234,239	80,71
234,787	96
235,335	85,07
235,883	91,61
236,43	91,67
236,978	92,69
237,525	90,88
238,072	86,52
238,619	89,39
239,166	81,21
239,713	91,61
240,26	86,79
240,806	92,71
241,353	92,06
241,899	86,01
242,445	86,5
242,991	93,89
243,537	85,23
244,083	90,84
244,629	85,77
245,174	97,35
245,72	91,11
246,265	87,7
246,81	96,8
247,355	98,02
247,9	83,58
248,445	98,02
248,99	86,74
249,534	109,57
250,079	94,74
250,623	87,04
251,168	95,45
251,712	86,72
252,256	95,08
252,8	97,31
253,343	92,5
253,887	83,87
254,43	96,56
254,974	93,89
255,517	88,36
256,06	98,85
256,603	85,19
257,146	96,12
257,689	102,36
258,232	104,66
258,774	92,91
259,317	101,27
259,859	101,38
260,401	97,67
260,943	83,69
261,485	91,49
262,027	99,2
262,569	95,9
263,11	95,38
263,652	106,69
264,193	99,17
264,734	93,43
265,275	97,95
265,816	93,51
266,357	95,35
266,898	94,23
267,438	94,09
267,979	88,49
268,519	80,6
269,059	105,14
269,6	95,86
270,14	102,02
270,68	89,49
271,219	95,76
271,759	95,49
272,298	92,48
272,838	92,69
273,377	101,19
273,916	91,37
274,455	95,99
274,994	89,2
275,533	89,86
276,072	89,84
276,61	82,25
277,149	100
277,687	87,59
278,225	83
278,763	110,09
279,301	96,67
279,839	84,68
280,377	92,21
280,914	87,41
281,452	102,99
281,989	94,63
282,526	97,24
283,064	100
283,601	81,08
284,137	91,74
284,674	98,33
285,211	97,37
285,747	86,36
286,284	102,7
286,82	94,63
287,356	91,12
287,892	92,64
288,428	92,15
288,964	108,82
289,5	106,61
290,035	96,4
290,571	95,8
291,106	94,72
291,641	96,43
292,176	99,22
292,711	95,93
293,246	90,38
293,781	99,17
294,315	82,75
294,85	102,31
295,384	93,03
295,918	89,71
296,453	82,46
296,987	97,52
297,52	92,15
298,054	88,93
298,588	94,58
299,121	91,42
299,655	90,15
300,188	96,25
300,721	101,22
301,254	85,89
301,787	86,72
302,32	102,85
302,853	94,8
303,385	83,93
303,918	93,02
304,45	92,69
304,982	84,75
305,514	93,8
306,046	91,74
306,578	92,25
307,11	86,82
307,641	103,02
308,173	94,63
308,704	95,45
309,236	82,33
309,767	88,3
310,298	96,77
310,829	101,3
311,359	97,18
311,89	96,22
312,421	97,75
312,951	97,97
313,481	84,48
314,012	84,33
314,542	96,61
315,072	87,4
315,601	92,4
316,131	96,06
316,661	87,5
317,19	88,52
317,72	92,56
318,249	100
318,778	98,83
319,307	85,55
319,836	97,79
320,365	94,35
320,893	95,45
321,422	97,15
321,95	95,49
322,479	95,04
323,007	100,91
323,535	92,5
324,063	94,8
324,591	87,2
325,118	94,53
325,646	110,08
326,173	92,08
326,701	97,97
327,228	100
327,755	92,48
328,282	87,02
328,809	101,27
329,336	89,76
329,862	89,71
330,389	83,2
330,915	94,88
331,441	87,4
331,968	100,9
332,494	85,61
333,02	95,83
333,545	84,33
334,071	100,41
334,597	78,87
335,122	92,22
335,648	100,86
336,173	85,61
336,698	76,58
337,223	83,46
337,748	85,07
338,272	85,62
338,797	90,22
339,322	83,58
339,846	84,93
340,37	98,39
340,894	87,15
341,419	89,1
341,942	81,12
342,466	83,65
342,99	82,55
343,514	78,52
344,037	74,37
344,56	90,74
345,084	87,33
345,607	89,58
346,13	96,13
346,653	90,33
347,175	80,45
347,698	74,84
348,221	78,93
348,743	78,88
349,265	85,61
349,787	76,07
350,309	78,8
350,831	71,3
351,353	72,56
351,875	77,49
352,397	81,12
352,918	81,25
353,439	83,11
353,961	65,7
354,482	73,98
355,003	75,87
355,524	72,78
356,044	69,03
356,565	79,82
357,086	72,6
357,606	60,99
358,126	69,68
358,646	67,86
359,167	70
359,687	68,93
360,206	66,94
360,726	63,27
361,246	71,81
361,765	69,21
362,285	62,5
362,804	69,47
363,323	59,51
363,842	67,31
364,361	62,44
364,88	67,24
365,398	65,72
365,917	65,8
366,435	73,18
366,954	64,51
367,472	63,21
367,99	69,19
368,508	61,34
369,026	68,86
369,544	64,69
370,061	63,66
370,579	61,07
371,096	65,6
371,613	58,84
372,131	57,48
372,648	57,87
373,165	60,55
373,681	64,35
374,198	63,87
374,715	60,71
375,231	59,66
375,747	57,24
376,264	54,25
376,78	54,32
377,296	65,06
377,812	52,82
378,327	51,66
378,843	60,24
379,359	56,62
379,874	57,96
380,389	53,94
380,905	51,64
381,42	52,43
381,935	57,62
382,449	54,72
382,964	56,14
383,479	50,43
383,993	48,61
384,508	49,61
385,022	44,43
385,536	48,42
386,05	50,13
386,564	45,4
387,078	46,17
387,592	48,66
388,105	45,86
388,619	45,54
389,132	44,27
389,645	43,79
390,158	42,17
390,671	43,18
391,184	41,3
391,697	42,38
392,21	36,98
392,722	43,25
393,235	41,93
393,747	40,95
394,259	39,51
394,771	38,85
395,283	36,9
395,795	37,87
396,307	40,56
396,818	37,81
397,33	34,27
397,841	37,61
398,353	34,75
398,864	35,16
399,375	33,97
399,886	34,55
400,397	31,32
400,907	32,35
401,418	33
401,928	29,82
402,439	31,41
402,949	31
403,459	29,88
403,969	29,45
404,479	27,77
404,989	26,08
405,498	27,16
406,008	26,8
406,517	25,11
407,027	24,39
407,536	22,03
408,045	23,85
408,554	22,85
409,063	20,89
409,572	21,01
410,08	20,77
410,589	19,97
411,097	19,34
411,606	18,54
412,114	18,94
412,622	17,91
413,13	17,62
413,638	17,11
414,145	16,87
414,653	16,3
415,16	15,48
415,668	16
416,175	15,01
416,682	14,64
417,189	12,72
417,696	14,33
418,203	13,71
418,71	13,83
419,216	13,55
419,723	12,78
420,229	12,52
420,735	12,11
421,242	12,97
421,748	12,58
422,254	12,52
422,759	11,75
423,265	12,3
423,771	11,81
424,276	12,37
424,781	11,07
425,287	11,58
425,792	11,48
426,297	11,18
426,802	11,3
427,306	11,45
427,811	11,09
428,316	11,29
428,82	11,36
429,324	10,85
429,829	11,1
430,333	10,87
430,837	10,8
431,34	10,27
431,844	10,28
432,348	11
432,851	9,94
433,355	9,79
433,858	10,85
434,361	10,27
434,864	10,72
435,367	10,3
435,87	11,13
436,373	10,58
436,876	10,22
437,378	10,54
437,88	9,67
438,383	10,24
438,885	10,38
439,387	10,42
439,889	10,51
440,391	9,95
440,892	10,02
441,394	9,91
441,896	10,18
442,397	10,07
442,898	9,57
443,399	9,63
443,9	10,21
444,401	9,97
444,902	10,11
445,403	10,07
445,903	9,75
446,404	10,15
446,904	9,94
447,405	9,34
447,905	9,79
448,405	9,75
448,905	9,97
449,404	9,85
449,904	9,92
450,404	9,9
450,903	9,78
451,403	10,01
451,902	10,07
452,401	10,21
452,9	10,2
453,399	9,95
453,898	9,67
454,396	9,88
454,895	10,02
455,393	9,96
455,892	9,28
456,39	9,92
456,888	9,82
457,386	10,13
457,884	10,17
458,382	10,23
458,879	10,31
459,377	10,44
459,874	10,01
460,372	9,96
460,869	9,89
461,366	9,89
461,863	9,79
462,36	9,74
462,857	10,41
463,353	9,84
463,85	9,59
464,346	9,89
464,843	9,96
465,339	9,98
465,835	10,09
466,331	10,04
466,827	10,18
467,323	9,94
467,818	10,09
468,314	10,39
468,809	10,01
469,305	9,91
469,8	9,78
470,295	9,87
470,79	9,83
471,285	9,9
471,78	9,77
472,274	9,77
472,769	9,91
473,263	9,91
473,758	10,35
474,252	9,79
474,746	9,97
475,24	9,97
475,734	9,67
476,228	9,95
476,721	9,88
477,215	9,73
477,708	9,76
478,202	10,42
478,695	9,82
479,188	9,72
479,681	9,72
480,174	10,06
480,667	9,89
481,159	9,79
481,652	10,31
482,144	10,12
482,637	10,01
483,129	9,95
483,621	9,87
484,113	10,18
484,605	10,11
485,097	10,17
485,588	10,11
486,08	10,1
486,571	10,44
487,063	10,06
487,554	10,1
488,045	10,31
488,536	10,23
489,027	10,17
489,518	10,22
490,008	10,28
490,499	10,14
490,989	10,2
491,48	10,13
491,97	10,19
492,46	10,23
492,95	10,26
493,44	10,77
493,93	10,49
494,419	10,46
494,909	10,7
495,398	10,58
495,888	10,86
496,377	10,57
496,866	10,92
497,355	10,88
497,844	10,89
498,333	11,08
498,821	10,77
499,31	11,11
499,798	11,4
500,287	11,37
500,775	11,36
501,263	11,45
501,751	11,48
502,239	11,82
502,727	12,02
503,215	11,78
503,702	12,13
504,19	12,01
504,677	12,25
505,164	12,48
505,651	12,86
506,139	12,45
506,625	12,78
507,112	13,05
507,599	13,32
508,086	13,28
508,572	13,66
509,058	13,63
509,545	14,21
510,031	14,23
510,517	14,26
511,003	14,28
511,489	14,72
511,974	15,07
512,46	15,06
512,946	15,06
513,431	15,82
513,916	15,79
514,401	15,95
514,887	16,29
515,371	16,73
515,856	17
516,341	17,26
516,826	17,35
517,31	17,95
517,795	18,61
518,279	18,19
518,763	19,04
519,247	19,09
519,731	19,43
520,215	19,43
520,699	19,8
521,182	20,31
521,666	20,48
522,149	21,15
522,633	21,17
523,116	21,34
523,599	22,11
524,082	21,8
524,565	22,26
525,048	22,7
525,53	22,51
526,013	22,99
526,495	23,15
526,978	23,39
527,46	23,47
527,942	23,71
528,424	24,43
528,906	24,42
529,388	24,67
529,87	24,9
530,351	24,7
530,833	25
531,314	25,4
531,795	25,17
532,277	25,96
532,758	25,84
533,238	26,02
533,719	26,2
534,2	26,18
534,681	26,39
535,161	26,33
535,642	26,96
536,122	26,37
536,602	26,94
537,082	26,6
537,562	26,67
538,042	26,82
538,522	27,15
539,001	27,28
539,481	27,41
539,96	26,75
540,44	27,22
540,919	27,47
541,398	27,32
541,877	27,44
542,356	27,42
542,835	27,32
543,313	27,57
543,792	27,56
544,27	27,8
544,749	27,93
545,227	27,65
545,705	27,77
546,183	27,91
546,661	28,4
547,139	27,68
547,616	27,72
548,094	27,89
548,571	27,89
549,049	28,22
549,526	28,14
550,003	28,12
550,48	27,74
550,957	28,3
551,434	28,71
551,911	28,21
552,387	28,36
552,864	28,08
553,34	28,5
553,817	28,08
554,293	28,38
554,769	28,27
555,245	27,92
555,721	28,35
556,197	28,25
556,672	28,08
557,148	27,99
557,623	28,19
558,099	28,04
558,574	28,32
559,049	27,65
559,524	28,07
559,999	28,23
560,474	27,6
560,948	27,59
561,423	27,88
561,897	27,76
562,372	27,51
562,846	27,54
563,32	27,25
563,794	27,27
564,268	27,48
564,742	27
565,216	26,82
565,69	26,53
566,163	26,65
566,636	26,18
567,11	26,33
567,583	26,1
568,056	25,89
568,529	26,05
569,002	25,67
569,475	25,76
569,947	25,18
570,42	25,63
570,892	24,86
571,365	25,03
571,837	24,91
572,309	24,93
572,781	24,49
573,253	24,3
573,725	24,23
574,197	23,97
574,668	23,65
575,14	23,59
575,611	23,44
576,082	23,28
576,554	22,75
577,025	22,67
577,496	22,6
577,967	22,66
578,437	22,37
578,908	22,29
579,379	21,87
579,849	22,33
580,319	22,01
580,79	21,55
581,26	21,8
581,73	21,55
582,2	21,4
582,669	21,12
583,139	21,12
583,609	21,12
584,078	21,01
584,548	20,97
585,017	21,12
585,486	20,56
585,955	20,77
586,424	20,49
586,893	20,34
587,362	20,19
587,83	20,29
588,299	20,14
588,767	20,11
589,236	20,24
589,704	19,78
590,172	19,85
590,64	19,98
591,108	19,86
591,576	19,66
592,043	19,54
592,511	19,6
592,978	19,43
593,446	19,32
593,913	19,35
594,38	19,35
594,847	19,17
595,314	19,23
595,781	18,95
596,248	19,13
596,715	18,9
597,181	18,87
597,647	18,89
598,114	19,13
598,58	18,71
599,046	18,65
599,512	19,01
599,978	18,76
600,444	18,83
600,91	18,72
601,375	18,77
601,841	18,77
602,306	18,82
602,771	18,48
603,236	18,26
603,702	18,65
604,167	18,18
604,631	18,33
605,096	18,26
605,561	18,23
606,025	18,21
606,49	17,93
606,954	18,12
607,418	17,98
607,882	17,82
608,347	17,69
608,81	17,67
609,274	17,54
609,738	17,53
610,202	17,6
610,665	17,3
611,128	17,12
611,592	17,04
612,055	17,04
612,518	17,11
612,981	17,08
613,444	16,62
613,907	16,82
614,369	16,46
614,832	16,57
615,294	16,51
615,757	16,19
616,219	16,31
616,681	16,06
617,143	16,08
617,605	15,94
618,067	15,66
618,529	15,82
618,99	16,02
619,452	15,59
619,913	15,83
620,375	15,64
620,836	15,38
621,297	15,72
621,758	15,48
622,219	15,33
622,68	15,4
623,14	15,28
623,601	15,31
624,061	15,36
624,522	15,18
624,982	15,43
625,442	15,28
625,902	15,26
626,362	15,05
626,822	15,04
627,282	15,18
627,742	15,11
628,201	15
628,661	15,07
629,12	15,01
629,579	14,74
630,038	14,93
630,497	14,98
630,956	15,24
631,415	14,75
631,874	14,81
632,332	14,72
632,791	14,6
633,249	14,73
633,708	14,88
634,166	14,4
634,624	14,29
635,082	14,62
635,54	14,26
635,998	14,13
636,455	14,38
636,913	14,12
637,37	13,97
637,828	13,98
638,285	13,97
638,742	13,86
639,199	13,55
639,656	13,5
640,113	13,48
640,57	13,38
641,027	13,28
641,483	13,17
641,94	13,18
642,396	13,05
642,852	13
643,309	12,68
643,765	12,65
644,221	12,59
644,676	12,42
645,132	12,31
645,588	12,39
646,043	11,91
646,499	11,96
646,954	11,88
647,409	11,75
647,864	11,75
648,319	11,57
648,774	11,71
649,229	11,49
649,684	11,27
650,139	11,39
650,593	11,24
651,047	11,09
651,502	11,28
651,956	11,1
652,41	11,08
652,864	11,15
653,318	10,84
653,772	10,86
654,225	11,02
654,679	10,79
655,133	10,84
655,586	10,77
656,039	10,67
656,492	10,57
656,946	10,65
657,399	10,63
657,851	10,34
658,304	10,45
658,757	10,26
659,209	10,27
659,662	10,25
660,114	10,13
660,567	10,05
661,019	10,06
661,471	9,94
661,923	9,83
662,375	9,63
662,826	9,8
663,278	9,65
663,73	9,56
664,181	9,62
664,632	9,56
665,084	9,64
665,535	9,56
665,986	9,38
666,437	9,46
666,888	9,3
667,338	9,31
667,789	9,32
668,24	9,45
668,69	9,36
669,14	9,39
669,591	9,4
670,041	9,42
670,491	9,53
670,941	9,3
671,391	9,38
671,84	9,53
672,29	9,55
672,74	9,48
673,189	9,64
673,638	9,72
674,088	9,83
674,537	9,78
674,986	9,88
675,435	9,91
675,883	9,94
676,332	10,11
676,781	9,98
677,229	10,29
677,678	10,33
678,126	10,35
678,574	10,55
679,022	10,56
679,47	10,74
679,918	10,78
680,366	10,97
680,814	10,98
681,261	11,22
681,709	11,14
682,156	11,31
682,604	11,53
683,051	11,54
683,498	11,69
683,945	11,62
684,392	11,68
684,839	11,9
685,286	12,1
685,732	12,19
686,179	12,21
686,625	12,51
687,071	12,63
687,518	12,78
687,964	12,9
688,41	13,16
688,856	13,4
689,301	13,64
689,747	13,79
690,193	14,1
690,638	14,42
691,084	14,69
691,529	15
691,974	15,46
692,419	15,88
692,864	16,44
693,309	16,72
693,754	17,18
694,199	17,58
694,643	18,03
695,088	18,56
695,532	19,17
695,977	19,61
696,421	20,19
696,865	20,75
697,309	21,19
697,753	21,59
698,197	21,98
698,64	22,64
699,084	23,26
699,527	23,73
699,971	24,22
700,414	24,68
700,857	25,2
701,3	25,75
701,743	26,3
702,186	26,66
702,629	27,27
703,072	27,78
703,515	27,98
703,957	28,18
704,399	28,95
704,842	29,53
705,284	29,77
705,726	30,3
706,168	30,73
706,61	31,09
707,052	31,52
707,494	32,05
707,935	32,22
708,377	32,85
708,818	33,07
709,26	33,39
709,701	33,75
710,142	34,29
710,583	34,31
711,024	34,71
711,465	35,15
711,905	35,43
712,346	35,64
712,787	35,75
713,227	36,46
713,667	36,93
714,108	37,03
714,548	37,3
714,988	37,62
715,428	38,36
715,868	38,49
716,307	38,34
716,747	38,35
717,186	38,99
717,626	39,26
718,065	39,71
718,504	40,03
718,944	40,37
719,383	40,13
719,822	40,59
720,261	40,88
720,699	41,03
721,138	40,88
721,576	41,31
722,015	41,92
722,453	41,95
722,892	42,18
723,33	42,3
723,768	42,95
724,206	42,66
724,644	42,85
725,081	43,17
725,519	43,29
725,957	43,14
726,394	43,33
726,832	43,64
727,269	43,62
727,706	43,95
728,143	43,86
728,58	43,88
729,017	44,1
729,454	44,36
729,89	44,6
730,327	44,32
730,764	44,93
731,2	45,1
731,636	44,92
732,072	45,46
732,509	45,34
732,945	45,43
733,38	45,14
733,816	45,23
734,252	45,78
734,688	45,61
735,123	45,51
735,559	45,87
735,994	45,83
736,429	45,61
736,864	46,17
737,299	45,65
737,734	46,13
738,169	45,93
738,604	45,91
739,038	45,64
739,473	45,97
739,907	45,97
740,342	46,09
740,776	46,25
741,21	45,92
741,644	46,15
742,078	46,07
742,512	45,89
742,946	46,24
743,379	46,04
743,813	45,87
744,246	46,03
744,68	46,18
745,113	45,64
745,546	46,2
745,979	46,18
746,412	45,89
746,845	45,81
747,278	45,84
747,711	45,92
748,143	46,04
748,576	45,92
749,008	46,02
749,441	45,3
749,873	45,46
750,305	45,68
750,737	45,88
751,169	45,59
751,601	45,72
752,032	45,72
752,464	45,41
752,896	45,4
753,327	45,49
753,758	45,59
754,19	45,46
754,621	45,41
755,052	45,23
755,483	45,31
755,914	45,51
756,344	45,12
756,775	45,7
757,206	45,38
757,636	45,24
758,066	45,24
758,497	45,12
758,927	45,67
759,357	45,09
759,787	45,05
760,217	44,83
760,647	44,91
761,076	45,04
761,506	44,85
761,935	44,71
762,365	44,8
762,794	44,65
763,223	44,86
763,653	44,99
764,082	44,44
764,51	44,82
764,939	44,85
765,368	44,64
765,797	44,83
766,225	44,41
766,654	44,47
767,082	44,39
767,51	44,24
767,938	44,25
768,367	44,21
768,795	44,2
769,222	44,41
769,65	44,45
770,078	44,18
770,505	44,34
770,933	44,34
771,36	44,42
771,788	44,32
772,215	44,15
772,642	43,95
773,069	44,03
773,496	44,23
773,923	44,01
774,349	43,9
774,776	43,97
775,203	43,87
775,629	43,85
776,055	43,67
776,482	43,93
776,908	44
777,334	43,49
777,76	43,85
778,186	43,76
778,611	44,21
779,037	43,92
779,463	43,59
779,888	44,06
780,314	43,66
780,739	43,8
781,164	43,81
781,589	43,72
782,014	43,86
782,439	43,49
782,864	43,77
783,289	43,9
783,713	43,63
784,138	43,58
784,562	43,48
784,987	43,62
785,411	43,26
785,835	43,35
786,259	43,57
786,683	43,62
787,107	43,57
787,531	43,34
787,954	43,78
788,378	43,74
788,802	43,5
789,225	43,33
789,648	43,53
790,071	42,95
790,495	43,69
790,918	43,62
791,34	43,36
791,763	43,45
792,186	43,49
792,609	43,48
793,031	43,19
793,454	43,23
793,876	43,56
794,298	43,2
794,721	43,04
795,143	43,56
795,565	42,92
795,986	43,08
796,408	43,16
796,83	43,12
797,252	43,21
797,673	43,39
798,094	43,58
798,516	43,38
798,937	43,41
799,358	42,79
799,779	42,79
800,2	43,46
800,621	43
801,042	42,72
801,462	43,25
801,883	42,87
802,303	42,71
802,724	43,21
803,144	42,98
803,564	43,16
803,984	43,39
804,404	43,25
804,824	43,06
805,244	43,04
805,664	43,36
806,084	43,4
806,503	43,32
806,923	43,1
807,342	43,14
807,761	42,77
808,18	42,79
808,599	42,93
809,018	43,06
809,437	43,12
809,856	42,74
810,275	43,01
810,693	42,99
811,112	43,16
811,53	43,14
811,949	42,93
812,367	43,35
812,785	43,08
813,203	43,08
813,621	43,08
814,039	42,97
814,457	43,14
814,874	42,99
815,292	42,84
815,709	42,85
816,127	43,03
816,544	43,1
816,961	42,88
817,378	43,02
817,795	43,13
818,212	43,19
818,629	43,37
819,046	42,93
819,462	42,72
819,879	42,63
820,295	42,7
820,712	42,97
821,128	42,81
821,544	43,03
821,96	43,12
822,376	42,9
822,792	42,64
823,208	42,72
823,624	42,97
824,039	43,07
824,455	42,88
824,87	42,51
825,286	42,53
825,701	42,78
826,116	42,52
826,531	42,89
826,946	42,51
827,361	42,7
827,776	42,71
828,19	42,62
828,605	42,64
829,02	42,82
829,434	42,64
829,848	42,88
830,263	43,14
830,677	42,55
831,091	42,56
831,505	42,52
831,919	42,61
832,332	42,81
832,746	42,53
833,16	42,37
833,573	42,39
833,987	42,74
834,4	42,42
834,813	42,32
835,226	42,44
835,639	42,68
