Data from C2___Relative__6__00031.txt Node

Date: Wed Jan 31 18:19:39 CET 2024
User: diatiterra
Spectrometer: HDX00911
Trigger mode: 0
Integration Time (sec): 6,000000E-3
Scans to average: 2
Nonlinearity correction enabled: false
Boxcar width: 0
Storing dark spectrum: false
XAxis mode: Wavelengths
Number of Pixels in Spectrum: 2068
>>>>>Begin Spectral Data<<<<<
194,468	216,04
195,025	157,27
195,581	220,73
196,138	212,82
196,694	138,89
197,251	118,69
197,807	98,43
198,363	97,6
198,919	90
199,474	95,22
200,03	102,05
200,586	112,5
201,141	88,06
201,696	91,28
202,251	95,08
202,806	86,01
203,361	97,04
203,916	92,36
204,471	89,78
205,025	108,87
205,58	98,21
206,134	106,4
206,688	96,54
207,242	110,18
207,796	96,99
208,35	100,72
208,904	105,86
209,457	89,24
210,011	86,88
210,564	101,06
211,117	94,36
211,67	101,87
212,223	97,6
212,776	104,44
213,329	89,33
213,881	121,08
214,434	94,08
214,986	108,26
215,538	99,63
216,09	90,14
216,642	114,05
217,194	100,76
217,746	106,77
218,297	100,38
218,849	103,68
219,4	110,08
219,951	98,79
220,502	98,65
221,053	105,73
221,604	95,97
222,155	98,41
222,705	91,54
223,256	95,52
223,806	102,36
224,356	105
224,906	116,13
225,456	105,04
226,006	100
226,556	84,09
227,106	114,11
227,655	94,79
228,204	101,25
228,754	97,18
229,303	93,21
229,852	92,45
230,401	92,16
230,949	94,6
231,498	91,2
232,047	80,19
232,595	90
233,143	108,27
233,691	98,45
234,239	85,36
234,787	95,6
235,335	97,76
235,883	89,16
236,43	101,14
236,978	102,31
237,525	97,45
238,072	91,13
238,619	96,97
239,166	94,33
239,713	86,5
240,26	85,36
240,806	99,65
241,353	92,06
241,899	93,01
242,445	98,54
242,991	103,44
243,537	96,21
244,083	98,47
244,629	99,62
245,174	113,27
245,72	99,26
246,265	88,89
246,81	97,2
247,355	103,97
247,9	101,87
248,445	98,41
248,99	96,97
249,534	114,78
250,079	90,6
250,623	96,3
251,168	112,4
251,712	92,19
252,256	102,46
252,8	101,54
253,343	100,71
253,887	103,63
254,43	102,29
254,974	101,91
255,517	95,89
256,06	113,85
256,603	91,48
257,146	102,33
257,689	103,54
258,232	110,17
258,774	99,65
259,317	102,97
259,859	110,09
260,401	102,71
260,943	94,33
261,485	92,55
262,027	99,6
262,569	102,61
263,11	98,85
263,652	109,84
264,193	105,79
264,734	99,64
265,275	114,34
265,816	95,42
266,357	105,04
266,898	101,54
267,438	109,06
267,979	98,92
268,519	95,52
269,059	113,08
269,6	100,75
270,14	112,9
270,68	110,14
271,219	111,44
271,759	93,98
272,298	94,36
272,838	96,54
273,377	103,97
273,916	89,21
274,455	98,54
274,994	100,4
275,533	96,74
276,072	104,88
276,61	92,75
277,149	104,17
277,687	97,74
278,225	99
278,763	110,09
279,301	103,33
279,839	97,98
280,377	106,56
280,914	90,56
281,452	105,56
281,989	100
282,526	102,76
283,064	101,68
283,601	87,16
284,137	96,28
284,674	103,75
285,211	117,98
285,747	89,39
286,284	117,12
286,82	102,89
287,356	89,14
287,892	95,74
288,428	99,17
288,964	109,24
289,5	112,81
290,035	103,6
290,571	103,78
291,106	112,6
291,641	107,59
292,176	98,44
292,711	100
293,246	97,69
293,781	98,76
294,315	83,8
294,85	113,89
295,384	95,49
295,918	92,65
296,453	83,96
296,987	93,39
297,52	97,93
298,054	96,56
298,588	100,83
299,121	89,18
299,655	98,18
300,188	98,33
300,721	105,28
301,254	93,55
301,787	91,41
302,32	99,19
302,853	95,2
303,385	97,86
303,918	91,09
304,45	96,92
304,982	91,84
305,514	94,57
306,046	91,32
306,578	95,35
307,11	101,55
307,641	103,02
308,173	91,32
308,704	94,21
309,236	100,75
309,767	93,26
310,298	90,32
310,829	104,78
311,359	103,63
311,89	103,78
312,421	101,35
312,951	106,5
313,481	87,24
314,012	99,25
314,542	108,05
315,072	96,95
315,601	96,8
316,131	104,33
316,661	96,67
317,19	91,11
317,72	103,31
318,249	107,54
318,778	92,97
319,307	90,62
319,836	103,98
320,365	95,65
320,893	95,45
321,422	113,41
321,95	101,5
322,479	97,71
323,007	103,64
323,535	92,14
324,063	100
324,591	106
325,118	95,62
325,646	98,74
326,173	96,67
326,701	103,25
327,228	109,05
327,755	94,74
328,282	95,04
328,809	102,97
329,336	98,03
329,862	94,12
330,389	91,8
330,915	95,28
331,441	98,85
331,968	107,21
332,494	93,18
333,02	92,5
333,545	86,57
334,071	113,64
334,597	88,38
335,122	88,15
335,648	102,16
336,173	92,8
336,698	78,48
337,223	95,22
337,748	88,54
338,272	88,36
338,797	88,77
339,322	82,12
339,846	81,62
340,37	106,85
340,894	79,86
341,419	98,12
341,942	88,81
342,466	73,08
342,99	78,52
343,514	84,86
344,037	80,06
344,56	92,96
345,084	84,25
345,607	81,6
346,13	79,93
346,653	86,33
347,175	76,28
347,698	73,58
348,221	76,79
348,743	80,12
349,265	83,45
349,787	79,45
350,309	79,11
350,831	70,99
351,353	77,44
351,875	76,32
352,397	88,11
352,918	77,3
353,439	87,75
353,961	68,31
354,482	75,44
355,003	75,58
355,524	75
356,044	63,64
356,565	77,11
357,086	72,03
357,606	63,74
358,126	66,22
358,646	63,01
359,167	73,51
359,687	68,93
360,206	71,58
360,726	63,98
361,246	72,34
361,765	74,58
362,285	61,5
362,804	71,84
363,323	58,05
363,842	65,38
364,361	61,69
364,88	61,33
365,398	57,42
365,917	61,32
366,435	63,54
366,954	62,05
367,472	57,55
367,99	64,69
368,508	57,29
369,026	67,27
369,544	60,53
370,061	59,45
370,579	57,99
371,096	60,78
371,613	55,82
372,131	52,36
372,648	56,3
373,165	55,66
373,681	56,12
374,198	61,33
374,715	59,02
375,231	58,52
375,747	51,9
376,264	48,47
376,78	54,5
377,296	55,58
377,812	52,49
378,327	51,49
378,843	56,48
379,359	55,63
379,874	55,88
380,389	51,89
380,905	47,91
381,42	48,18
381,935	50,15
382,449	48,67
382,964	50,29
383,479	48,42
383,993	48,48
384,508	46,19
385,022	44,82
385,536	45,92
386,05	44,49
386,564	46,89
387,078	43,18
387,592	41,85
388,105	45,86
388,619	39,4
389,132	40,9
389,645	42,87
390,158	38,73
390,671	38,8
391,184	36,03
391,697	36,17
392,21	34,34
392,722	37,1
393,235	36,68
393,747	37,55
394,259	34,18
394,771	34,1
395,283	31,96
395,795	34,14
396,307	39,63
396,818	36,05
397,33	30,44
397,841	31,42
398,353	32,79
398,864	32,09
399,375	32,89
399,886	31,74
400,397	29,07
400,907	31,46
401,418	29,31
401,928	26,04
402,439	27,42
402,949	26,06
403,459	26,54
403,969	25,84
404,479	25
404,989	21,75
405,498	24,23
406,008	24,04
406,517	22,85
407,027	22,01
407,536	20,08
408,045	20,08
408,554	19,24
409,063	18,16
409,572	17,85
410,08	18,36
410,589	17,49
411,097	15,84
411,606	16,5
412,114	15,44
412,622	14,34
413,13	16,19
413,638	14,53
414,145	13,48
414,653	13,19
415,16	13,47
415,668	13,07
416,175	12,28
416,682	12,09
417,189	11,09
417,696	11,89
418,203	11,93
418,71	11,8
419,216	10,79
419,723	10,81
420,229	10,44
420,735	10,14
421,242	10,47
421,748	10,28
422,254	10,48
422,759	9,9
423,265	10,08
423,771	10,09
424,276	9,68
424,781	9,28
425,287	9,93
425,792	9,64
426,297	9,27
426,802	9,44
427,306	9,67
427,811	9,21
428,316	8,76
428,82	8,76
429,324	9,13
429,829	8,48
430,333	8,46
430,837	8,66
431,34	8,39
431,844	8,45
432,348	8,48
432,851	7,89
433,355	8,43
433,858	7,78
434,361	8
434,864	8,57
435,367	8,34
435,87	8,67
436,373	8,04
436,876	8,05
437,378	7,91
437,88	8,03
438,383	7,87
438,885	7,72
439,387	7,65
439,889	8,01
440,391	7,94
440,892	7,96
441,394	7,99
441,896	7,81
442,397	7,72
442,898	7,07
443,399	7,51
443,9	7,79
444,401	7,73
444,902	7,56
445,403	7,73
445,903	7,86
446,404	7,81
446,904	8
447,405	7,75
447,905	8,04
448,405	8,08
448,905	7,96
449,404	8,29
449,904	8,05
450,404	7,43
450,903	8,19
451,403	7,69
451,902	8,04
452,401	8,34
452,9	8,47
453,399	8,36
453,898	8,08
454,396	8,35
454,895	8,28
455,393	8,14
455,892	8,29
456,39	8,51
456,888	8,2
457,386	8,18
457,884	8,49
458,382	8,63
458,879	8,57
459,377	8,66
459,874	8,47
460,372	8,25
460,869	8,34
461,366	8,14
461,863	8,06
462,36	8,37
462,857	8,39
463,353	8,15
463,85	8,39
464,346	7,87
464,843	8,24
465,339	8,34
465,835	8,4
466,331	8,41
466,827	8,35
467,323	8,33
467,818	8,17
468,314	8,14
468,809	8,2
469,305	8,07
469,8	8,57
470,295	8,12
470,79	8,54
471,285	8,57
471,78	7,75
472,274	8,02
472,769	8,04
473,263	8,19
473,758	8,52
474,252	8,11
474,746	8,22
475,24	8,28
475,734	7,97
476,228	8,57
476,721	8,21
477,215	7,82
477,708	7,98
478,202	8,33
478,695	8,28
479,188	8,24
479,681	8,24
480,174	8,43
480,667	8,52
481,159	8,27
481,652	8,56
482,144	8,42
482,637	8,76
483,129	8,38
483,621	8,49
484,113	8,7
484,605	8,43
485,097	8,65
485,588	8,19
486,08	8,68
486,571	8,55
487,063	8,61
487,554	8,83
488,045	8,59
488,536	8,65
489,027	8,66
489,518	8,76
490,008	8,5
490,499	8,99
490,989	8,67
491,48	8,94
491,97	8,98
492,46	9,07
492,95	9,34
493,44	9,5
493,93	9,32
494,419	9,31
494,909	9,51
495,398	9,58
495,888	9,67
496,377	9,63
496,866	9,85
497,355	10,19
497,844	9,96
498,333	10,43
498,821	10,37
499,31	10,56
499,798	10,93
500,287	10,99
500,775	11,2
501,263	11,22
501,751	11,03
502,239	11,56
502,727	11,7
503,215	11,87
503,702	11,9
504,19	12,05
504,677	12,59
505,164	12,65
505,651	13,07
506,139	12,88
506,625	13,09
507,112	13,77
507,599	13,84
508,086	13,83
508,572	14,48
509,058	14,58
509,545	14,78
510,031	14,99
510,517	15,61
511,003	15,55
511,489	16,35
511,974	16,49
512,46	16,16
512,946	16,9
513,431	17,52
513,916	17,69
514,401	17,68
514,887	17,83
515,371	18,43
515,856	18,9
516,341	19,04
516,826	19,32
517,31	19,74
517,795	20,28
518,279	20,19
518,763	21,32
519,247	21,02
519,731	21,95
520,215	21,61
520,699	22,09
521,182	22,5
521,666	22,91
522,149	23,19
522,633	23,63
523,116	24,12
523,599	24,77
524,082	24,51
524,565	25,06
525,048	25,44
525,53	25,75
526,013	25,77
526,495	26,55
526,978	26,3
527,46	26,91
527,942	27,09
528,424	27,96
528,906	27,65
529,388	27,73
529,87	28,59
530,351	27,96
530,833	28,43
531,314	28,88
531,795	28,71
532,277	29,68
532,758	29,5
533,238	29,44
533,719	29,29
534,2	29,42
534,681	30,03
535,161	29,83
535,642	30,71
536,122	29,77
536,602	30,59
537,082	30,3
537,562	30,12
538,042	30,52
538,522	30,23
539,001	30,52
539,481	30,53
539,96	30,52
540,44	30,67
540,919	30,72
541,398	31,14
541,877	30,49
542,356	31,03
542,835	30,68
543,313	31,09
543,792	31,57
544,27	31,18
544,749	31,24
545,227	31,41
545,705	31,9
546,183	32
546,661	31,4
547,139	31,23
547,616	31,26
548,094	31,39
548,571	31,64
549,049	31,96
549,526	31,77
550,003	32,1
550,48	31,87
550,957	31,77
551,434	31,7
551,911	31,93
552,387	31,64
552,864	31,96
553,34	32,12
553,817	31,99
554,293	32,15
554,769	31,9
555,245	31,67
555,721	32,12
556,197	32,06
556,672	31,61
557,148	32,13
557,623	31,99
558,099	31,71
558,574	31,58
559,049	31,69
559,524	31,99
559,999	31,66
560,474	31,46
560,948	31,36
561,423	31,66
561,897	31,27
562,372	31,75
562,846	31,23
563,32	31,22
563,794	30,85
564,268	31,08
564,742	30,58
565,216	30,59
565,69	30,12
566,163	30,56
566,636	30,2
567,11	30,14
567,583	29,68
568,056	29,6
568,529	29,71
569,002	29,47
569,475	29,28
569,947	28,64
570,42	29,04
570,892	28,35
571,365	28,26
571,837	28,38
572,309	28,01
572,781	28,02
573,253	27,85
573,725	27,7
574,197	27,48
574,668	27,33
575,14	27,06
575,611	26,95
576,082	26,64
576,554	26,33
577,025	26,24
577,496	25,98
577,967	26,03
578,437	25,89
578,908	25,7
579,379	25,32
579,849	25,34
580,319	25,13
580,79	25
581,26	24,46
581,73	24,55
582,2	24,54
582,669	24,5
583,139	24,19
583,609	24,16
584,078	24,49
584,548	23,93
585,017	23,81
585,486	23,43
585,955	24
586,424	23,48
586,893	23,21
587,362	23,57
587,83	23,36
588,299	23,35
588,767	23,15
589,236	23,14
589,704	23,03
590,172	23,12
590,64	22,86
591,108	22,77
591,576	22,7
592,043	22,46
592,511	22,54
592,978	22,64
593,446	22,36
593,913	22,53
594,38	22,27
594,847	22,01
595,314	22,33
595,781	21,94
596,248	22,01
596,715	22,18
597,181	21,92
597,647	21,74
598,114	22,03
598,58	21,51
599,046	21,89
599,512	21,79
599,978	21,54
600,444	21,6
600,91	21,6
601,375	21,7
601,841	21,72
602,306	21,41
602,771	21,31
603,236	21,44
603,702	21,55
604,167	21,27
604,631	21,18
605,096	21,26
605,561	21,14
606,025	20,99
606,49	20,91
606,954	21,09
607,418	20,61
607,882	20,55
608,347	20,58
608,81	20,52
609,274	20,3
609,738	20,24
610,202	20,18
610,665	19,97
611,128	20,01
611,592	19,61
612,055	19,58
612,518	19,56
612,981	19,61
613,444	19,62
613,907	19,17
614,369	19,18
614,832	19
615,294	18,98
615,757	18,88
616,219	18,87
616,681	18,31
617,143	18,73
617,605	18,57
618,067	18,51
618,529	18,14
618,99	18,36
619,452	17,96
619,913	17,97
620,375	18,04
620,836	18,01
621,297	18,05
621,758	17,86
622,219	17,63
622,68	17,73
623,14	17,64
623,601	17,68
624,061	17,54
624,522	17,34
624,982	17,52
625,442	17,6
625,902	17,24
626,362	17,43
626,822	17,18
627,282	17,48
627,742	17,55
628,201	17,18
628,661	17,21
629,12	17,13
629,579	17,21
630,038	17,23
630,497	17,22
630,956	17,06
631,415	17,13
631,874	16,95
632,332	16,74
632,791	16,97
633,249	16,8
633,708	17,12
634,166	16,62
634,624	16,75
635,082	16,71
635,54	16,52
635,998	16,44
636,455	16,32
636,913	16,19
637,37	16,02
637,828	16,09
638,285	15,72
638,742	15,6
639,199	15,53
639,656	15,51
640,113	15,31
640,57	15,09
641,027	15,19
641,483	15,1
641,94	14,77
642,396	14,72
642,852	14,59
643,309	14,15
643,765	14,12
644,221	13,91
644,676	13,8
645,132	13,66
645,588	13,52
646,043	13,25
646,499	13,23
646,954	12,79
647,409	12,88
647,864	12,74
648,319	12,49
648,774	12,55
649,229	12,41
649,684	12,18
650,139	12,2
650,593	11,98
651,047	11,9
651,502	12,01
651,956	11,86
652,41	11,84
652,864	11,63
653,318	11,66
653,772	11,6
654,225	11,46
654,679	11,57
655,133	11,45
655,586	11,38
656,039	11,31
656,492	11,28
656,946	11,1
657,399	10,96
657,851	11
658,304	10,76
658,757	10,68
659,209	10,65
659,662	10,48
660,114	10,31
660,567	10,19
661,019	10,07
661,471	10,04
661,923	9,89
662,375	9,85
662,826	9,72
663,278	9,56
663,73	9,31
664,181	9,29
664,632	9,2
665,084	9,17
665,535	9,16
665,986	9,03
666,437	8,98
666,888	8,8
667,338	8,87
667,789	8,88
668,24	8,65
668,69	8,7
669,14	8,71
669,591	8,71
670,041	8,65
670,491	8,58
670,941	8,54
671,391	8,77
671,84	8,58
672,29	8,62
672,74	8,64
673,189	8,8
673,638	8,65
674,088	8,92
674,537	8,85
674,986	8,79
675,435	8,99
675,883	9,12
676,332	9,05
676,781	9,14
677,229	9,32
677,678	9,46
678,126	9,44
678,574	9,64
679,022	9,74
679,47	9,94
679,918	10,06
680,366	10,12
680,814	10,18
681,261	10,39
681,709	10,51
682,156	10,47
682,604	10,79
683,051	10,95
683,498	11,31
683,945	11,2
684,392	11,47
684,839	11,77
685,286	11,98
685,732	12,17
686,179	12,47
686,625	12,7
687,071	12,99
687,518	13,36
687,964	13,77
688,41	13,86
688,856	14,21
689,301	14,98
689,747	15,21
690,193	15,78
690,638	15,92
691,084	16,7
691,529	17,16
691,974	17,74
692,419	18,34
692,864	18,9
693,309	19,5
693,754	20,02
694,199	20,81
694,643	21,12
695,088	21,91
695,532	22,49
695,977	22,98
696,421	23,76
696,865	24,19
697,309	25
697,753	25,35
698,197	26,18
698,64	26,87
699,084	27,37
699,527	27,89
699,971	28,35
700,414	29,06
700,857	29,43
701,3	29,77
701,743	30,61
702,186	31,08
702,629	31,59
703,072	32,35
703,515	32,45
703,957	33,14
704,399	33,82
704,842	34,19
705,284	34,52
705,726	35,39
706,168	35,53
706,61	36,2
707,052	36,22
707,494	36,87
707,935	37,35
708,377	37,97
708,818	38,13
709,26	38,75
709,701	39,14
710,142	39,47
710,583	39,51
711,024	40,17
711,465	40,4
711,905	40,82
712,346	40,84
712,787	41,22
713,227	41,73
713,667	42,22
714,108	42,62
714,548	42,76
714,988	43,25
715,428	43,51
715,868	44,1
716,307	43,95
716,747	44,21
717,186	44,58
717,626	44,86
718,065	45,52
718,504	45,47
718,944	45,91
719,383	46,14
719,822	46,17
720,261	46,41
720,699	46,97
721,138	46,75
721,576	47,49
722,015	47,75
722,453	47,62
722,892	47,75
723,33	48,47
723,768	48,81
724,206	48,68
724,644	48,74
725,081	48,89
725,519	49,3
725,957	49,03
726,394	49,5
726,832	49,87
727,269	49,92
727,706	49,85
728,143	49,91
728,58	50,44
729,017	50,05
729,454	50,34
729,89	50,68
730,327	50,58
730,764	51,08
731,2	50,9
731,636	51,04
732,072	51,65
732,509	51,52
732,945	51,51
733,38	51,29
733,816	51,84
734,252	51,79
734,688	51,64
735,123	51,69
735,559	51,91
735,994	51,88
736,429	52,26
736,864	52,13
737,299	52,07
737,734	52,43
738,169	52,39
738,604	52,28
739,038	52,12
739,473	52,24
739,907	52,46
740,342	52,41
740,776	52,66
741,21	52,35
741,644	52,69
742,078	52,69
742,512	52,31
742,946	52,9
743,379	52,11
743,813	52,46
744,246	52,52
744,68	52,53
745,113	52,34
745,546	52,34
745,979	52,48
746,412	52,38
746,845	52,38
747,278	52,55
747,711	52,2
748,143	52,64
748,576	52,57
749,008	52,64
749,441	52,29
749,873	52,05
750,305	52,29
750,737	52,33
751,169	52
751,601	52,04
752,032	52,06
752,464	52
752,896	51,66
753,327	52,37
753,758	52,05
754,19	51,94
754,621	51,95
755,052	51,87
755,483	52,14
755,914	52,11
756,344	51,93
756,775	52,14
757,206	51,68
757,636	52,01
758,066	51,86
758,497	51,79
758,927	52,11
759,357	51,88
759,787	51,64
760,217	51,68
760,647	51,64
761,076	51,59
761,506	51,33
761,935	51,28
762,365	51,64
762,794	51,07
763,223	51,6
763,653	51,76
764,082	51,05
764,51	51,39
764,939	51,47
765,368	51,25
765,797	51,45
766,225	51
766,654	51,31
767,082	50,68
767,51	51,32
767,938	50,82
768,367	50,99
768,795	50,94
769,222	51,15
769,65	51,33
770,078	50,87
770,505	50,9
770,933	50,88
771,36	51,32
771,788	50,78
772,215	50,81
772,642	50,82
773,069	50,67
773,496	50,61
773,923	50,54
774,349	50,82
774,776	50,73
775,203	50,48
775,629	51,03
776,055	50,44
776,482	50,37
776,908	50,59
777,334	50,48
777,76	50,73
778,186	50,45
778,611	50,64
779,037	50,36
779,463	50,68
779,888	50,55
780,314	50,31
780,739	50,65
781,164	50,53
781,589	50,23
782,014	50,26
782,439	50,37
782,864	50,46
783,289	50,58
783,713	50,28
784,138	50,21
784,562	50,1
784,987	50,31
785,411	50,19
785,835	50,34
786,259	50,3
786,683	50,59
787,107	50,64
787,531	50,41
787,954	50,42
788,378	50,35
788,802	50,23
789,225	49,85
789,648	50,42
790,071	49,78
790,495	50,19
790,918	50,09
791,34	50,18
791,763	50,13
792,186	50,04
792,609	50,16
793,031	49,9
793,454	50,07
793,876	50,4
794,298	50,05
794,721	50,13
795,143	50,16
795,565	49,78
795,986	49,83
796,408	50,11
796,83	49,97
797,252	50,26
797,673	50,22
798,094	50,25
798,516	50,18
798,937	50,32
799,358	49,86
799,779	49,67
800,2	50,14
800,621	49,94
801,042	49,9
801,462	50,14
801,883	50,03
802,303	49,56
802,724	50,25
803,144	49,77
803,564	49,98
803,984	50,28
804,404	50,37
804,824	49,89
805,244	50,03
805,664	50,39
806,084	50,53
806,503	49,99
806,923	50,12
807,342	49,91
807,761	49,65
808,18	49,53
808,599	49,67
809,018	49,92
809,437	49,76
809,856	49,47
810,275	49,99
810,693	50,06
811,112	50,12
811,53	50,45
811,949	49,97
812,367	50,11
812,785	49,85
813,203	49,95
813,621	50,06
814,039	50,05
814,457	49,75
814,874	49,84
815,292	49,81
815,709	49,66
816,127	49,92
816,544	50,14
816,961	49,91
817,378	50,23
817,795	50,08
818,212	49,82
818,629	50,24
819,046	49,98
819,462	49,95
819,879	50,01
820,295	49,65
820,712	49,95
821,128	49,91
821,544	49,6
821,96	49,7
822,376	49,69
822,792	49,64
823,208	50
823,624	50,01
824,039	49,98
824,455	49,84
824,87	49,44
825,286	49,97
825,701	49,73
826,116	49,61
826,531	49,67
826,946	49,61
827,361	49,68
827,776	49,52
828,19	49,54
828,605	49,18
829,02	49,57
829,434	49,58
829,848	49,58
830,263	49,81
830,677	49,75
831,091	49,55
831,505	49,71
831,919	49,99
832,332	49,83
832,746	49,9
833,16	49,13
833,573	49,61
833,987	49,9
834,4	49,53
834,813	49,13
835,226	49,43
835,639	49,74
836,052	49,49
836,465	49,86
