Data from C6___Relative__1__00042.txt Node

Date: Wed Jan 31 18:21:44 CET 2024
User: diatiterra
Spectrometer: HDX00911
Trigger mode: 0
Integration Time (sec): 6,000000E-3
Scans to average: 2
Nonlinearity correction enabled: false
Boxcar width: 0
Storing dark spectrum: false
XAxis mode: Wavelengths
Number of Pixels in Spectrum: 2068
>>>>>Begin Spectral Data<<<<<
194,468	204,72
195,025	140,91
195,581	182,93
196,138	205,13
196,694	127,78
197,251	100,51
197,807	87,4
198,363	92,4
198,919	79,31
199,474	85,66
200,03	93,85
200,586	95,98
201,141	74,19
201,696	85,91
202,251	85,23
202,806	83,57
203,361	91,48
203,916	82,64
204,471	88,32
205,025	92,34
205,58	85,71
206,134	87,2
206,688	85,77
207,242	99,56
207,796	91,35
208,35	89,49
208,904	90,34
209,457	80,56
210,011	77,3
210,564	85,56
211,117	83,83
211,67	94,4
212,223	87,33
212,776	100
213,329	85,67
213,881	109,31
214,434	84,21
214,986	100
215,538	93,75
216,09	84,86
216,642	103,72
217,194	89,02
217,746	81,95
218,297	88,17
218,849	98,16
219,4	98,32
219,951	92,34
220,502	87,84
221,053	91,22
221,604	91,61
222,155	86,9
222,705	76,47
223,256	96,64
223,806	92,91
224,356	92,69
224,906	100,81
225,456	93,02
226,006	92,86
226,556	79,22
227,106	90,32
227,655	79,17
228,204	101,67
228,754	89,44
229,303	87,5
229,852	86,69
230,401	86,19
230,949	87,05
231,498	82,75
232,047	82,47
232,595	86,55
233,143	94,49
233,691	86,05
234,239	84,29
234,787	82,8
235,335	89,93
235,883	83,92
236,43	89,77
236,978	98,46
237,525	89,42
238,072	87,94
238,619	90,53
239,166	82,62
239,713	85,77
240,26	85,71
240,806	84,72
241,353	91,67
241,899	87,76
242,445	90,15
242,991	96,18
243,537	82,95
244,083	93,13
244,629	88,08
245,174	104,87
245,72	83,33
246,265	87,3
246,81	92,4
247,355	98,02
247,9	86,19
248,445	89,29
248,99	86,74
249,534	99,57
250,079	84,96
250,623	86,3
251,168	100,41
251,712	93,36
252,256	96,72
252,8	95
253,343	89,64
253,887	91,13
254,43	83,21
254,974	92,75
255,517	88,7
256,06	96,15
256,603	80,74
257,146	99,22
257,689	92,13
258,232	98,73
258,774	89,72
259,317	101,69
259,859	97,25
260,401	103,1
260,943	86,52
261,485	83,33
262,027	98,8
262,569	90,3
263,11	86,15
263,652	105,12
264,193	96,69
264,734	90,88
265,275	90,98
265,816	82,44
266,357	96,12
266,898	85,77
267,438	95,67
267,979	87,05
268,519	92,16
269,059	96,73
269,6	90,23
270,14	103,63
270,68	93,84
271,219	94,49
271,759	89,85
272,298	92,86
272,838	91,92
273,377	88,89
273,916	80,94
274,455	95,99
274,994	98,8
275,533	85,87
276,072	90,65
276,61	83,7
277,149	102,92
277,687	86,47
278,225	77,67
278,763	115,35
279,301	97,08
279,839	89,52
280,377	94,26
280,914	86,01
281,452	98,29
281,989	101,24
282,526	90,94
283,064	97,06
283,601	83,11
284,137	95,45
284,674	100,42
285,211	96,05
285,747	90,15
286,284	111,71
286,82	101,24
287,356	85,2
287,892	92,64
288,428	97,93
288,964	104,2
289,5	103,31
290,035	89,2
290,571	94,96
291,106	101,63
291,641	107,14
292,176	98,83
292,711	97,97
293,246	87,69
293,781	92,98
294,315	82,39
294,85	107,87
295,384	87,7
295,918	81,62
296,453	79,1
296,987	90,5
297,52	100,41
298,054	90,08
298,588	94,58
299,121	90,3
299,655	81,39
300,188	92,08
300,721	93,09
301,254	85,89
301,787	86,33
302,32	97,15
302,853	94
303,385	92,86
303,918	85,27
304,45	90
304,982	84,04
305,514	93,8
306,046	92,98
306,578	85,27
307,11	85,27
307,641	87,07
308,173	96,28
308,704	90,5
309,236	81,2
309,767	83,33
310,298	91,13
310,829	92,61
311,359	87,9
311,89	96,22
312,421	98,2
312,951	95,12
313,481	81,38
314,012	76,87
314,542	102,97
315,072	87,79
315,601	90,8
316,131	101,57
316,661	87,08
317,19	87,41
317,72	94,63
318,249	94,44
318,778	84,38
319,307	85,55
319,836	100,44
320,365	85,65
320,893	92,56
321,422	106,5
321,95	93,23
322,479	87,4
323,007	95,45
323,535	80
324,063	92,8
324,591	88,8
325,118	91,97
325,646	96,22
326,173	89,17
326,701	98,37
327,228	97,84
327,755	85,71
328,282	83,21
328,809	96,19
329,336	96,85
329,862	80,15
330,389	80,86
330,915	90,16
331,441	89,69
331,968	107,21
332,494	86,74
333,02	87,08
333,545	85,45
334,071	99,17
334,597	80,63
335,122	85,93
335,648	96,98
336,173	81,44
336,698	77,85
337,223	78,68
337,748	80,56
338,272	81,51
338,797	83,7
339,322	71,9
339,846	73,9
340,37	92,74
340,894	73,96
341,419	84,21
341,942	73,43
342,466	76,92
342,99	69,13
343,514	76,76
344,037	74,05
344,56	81,48
345,084	74,66
345,607	81,25
346,13	78,52
346,653	80,67
347,175	75,64
347,698	71,07
348,221	74,29
348,743	72,67
349,265	74,82
349,787	69,63
350,309	69,3
350,831	64,81
351,353	69,51
351,875	66,08
352,397	69,93
352,918	71,05
353,439	72,52
353,961	59,88
354,482	65,79
355,003	68,31
355,524	61,39
356,044	60,23
356,565	72,89
357,086	62,71
357,606	52,47
358,126	58,78
358,646	59,44
359,167	64,32
359,687	68,08
360,206	66,67
360,726	52,84
361,246	67,55
361,765	61,02
362,285	58,5
362,804	59,21
363,323	52,2
363,842	62,64
364,361	56,97
364,88	56,16
365,398	54,37
365,917	54,25
366,435	58,85
366,954	55,58
367,472	52,59
367,99	57,82
368,508	51,42
369,026	58,18
369,544	48,9
370,061	52,73
370,579	50,82
371,096	54,13
371,613	55,39
372,131	48,62
372,648	50,79
373,165	50,2
373,681	50,63
374,198	50,2
374,715	53,01
375,231	49,81
375,747	44,14
376,264	43,2
376,78	45,86
377,296	47,77
377,812	48,01
378,327	45,53
378,843	48,81
379,359	43,87
379,874	47,75
380,389	41,96
380,905	41,79
381,42	38,45
381,935	42,99
382,449	39,53
382,964	43,43
383,479	37,36
383,993	36,98
384,508	39,5
385,022	35,88
385,536	35,53
386,05	37,8
386,564	39,05
387,078	35,53
387,592	34,55
388,105	35,82
388,619	33,71
389,132	32,47
389,645	34,83
390,158	29,72
390,671	32,28
391,184	28,95
391,697	29,76
392,21	27,96
392,722	27,18
393,235	30,3
393,747	28,4
394,259	27,25
394,771	28,7
395,283	28,94
395,795	25,75
396,307	31,03
396,818	26,58
397,33	24,74
397,841	24,96
398,353	24,96
398,864	24,79
399,375	24,29
399,886	24,35
400,397	23,47
400,907	23,28
401,418	22,13
401,928	19,86
402,439	22,45
402,949	19,5
403,459	17,96
403,969	21,17
404,479	20,11
404,989	18,58
405,498	17,64
406,008	18,3
406,517	16,91
407,027	15,26
407,536	15,06
408,045	14,64
408,554	14,72
409,063	13,59
409,572	13,04
410,08	13,53
410,589	13,66
411,097	12,68
411,606	12,75
412,114	12,05
412,622	11,35
413,13	11,51
413,638	11,51
414,145	10,28
414,653	10,05
415,16	10
415,668	9,89
416,175	9,32
416,682	8,87
417,189	8,09
417,696	8,83
418,203	8,48
418,71	8,38
419,216	8,48
419,723	8,26
420,229	7,8
420,735	7,74
421,242	7,66
421,748	7,8
422,254	7,84
422,759	7,57
423,265	7,67
423,771	7,12
424,276	7,6
424,781	7,12
425,287	6,85
425,792	7,58
426,297	7,12
426,802	6,97
427,306	6,53
427,811	6,64
428,316	6,54
428,82	6,6
429,324	7,16
429,829	6,36
430,333	6,29
430,837	6,29
431,34	6,2
431,844	6,24
432,348	6,03
432,851	5,72
433,355	5,81
433,858	5,78
434,361	5,84
434,864	5,78
435,367	6,03
435,87	6,08
436,373	6,18
436,876	5,96
437,378	5,76
437,88	5,79
438,383	5,9
438,885	5,88
439,387	5,59
439,889	5,36
440,391	5,72
440,892	5,47
441,394	5,82
441,896	5,54
442,397	5,63
442,898	5,48
443,399	5,9
443,9	5,52
444,401	5,43
444,902	5,49
445,403	5,87
445,903	5,86
446,404	5,81
446,904	5,64
447,405	5,25
447,905	5,4
448,405	5,85
448,905	5,56
449,404	5,77
449,904	5,7
450,404	5,8
450,903	5,87
451,403	5,48
451,902	5,95
452,401	5,76
452,9	5,95
453,399	5,55
453,898	5,58
454,396	5,84
454,895	5,35
455,393	5,57
455,892	5,3
456,39	5,65
456,888	5,62
457,386	5,68
457,884	5,87
458,382	5,9
458,879	5,61
459,377	6,09
459,874	5,86
460,372	5,86
460,869	5,75
461,366	5,71
461,863	5,76
462,36	5,75
462,857	5,58
463,353	5,67
463,85	5,7
464,346	5,65
464,843	5,75
465,339	5,81
465,835	5,57
466,331	5,63
466,827	5,52
467,323	5,7
467,818	5,8
468,314	5,52
468,809	5,75
469,305	5,62
469,8	5,82
470,295	5,67
470,79	5,61
471,285	5,49
471,78	5,36
472,274	5,74
472,769	5,43
473,263	5,76
473,758	5,33
474,252	5,62
474,746	5,79
475,24	5,56
475,734	5,42
476,228	5,88
476,721	5,62
477,215	5,26
477,708	5,58
478,202	5,76
478,695	5,69
479,188	5,46
479,681	5,36
480,174	5,7
480,667	5,84
481,159	5,73
481,652	5,74
482,144	5,68
482,637	5,84
483,129	5,51
483,621	5,54
484,113	5,57
484,605	5,75
485,097	5,58
485,588	5,7
486,08	5,58
486,571	5,76
487,063	5,72
487,554	5,67
488,045	5,79
488,536	5,79
489,027	5,55
489,518	6,08
490,008	5,68
490,499	5,97
490,989	5,78
491,48	5,98
491,97	5,94
492,46	6,07
492,95	6,15
493,44	6,23
493,93	5,96
494,419	6,43
494,909	6,37
495,398	6,39
495,888	6,4
496,377	6,63
496,866	6,98
497,355	6,67
497,844	6,7
498,333	7,02
498,821	6,76
499,31	6,84
499,798	7,02
500,287	7,23
500,775	7,38
501,263	7,48
501,751	7,61
502,239	7,57
502,727	7,66
503,215	8,01
503,702	8,16
504,19	8,23
504,677	8,55
505,164	8,52
505,651	8,62
506,139	8,96
506,625	9,01
507,112	9,19
507,599	9,37
508,086	9,76
508,572	9,86
509,058	9,86
509,545	9,92
510,031	10,45
510,517	10,78
511,003	10,67
511,489	11,25
511,974	11,31
512,46	11,41
512,946	11,57
513,431	11,94
513,916	12
514,401	12,51
514,887	12,54
515,371	13,08
515,856	13,5
516,341	13,29
516,826	13,6
517,31	14,23
517,795	14,34
518,279	14,78
518,763	15,38
519,247	15,34
519,731	15,9
520,215	16,07
520,699	16,33
521,182	16,34
521,666	16,82
522,149	16,81
522,633	17,85
523,116	17,65
523,599	18,12
524,082	18,06
524,565	18,66
525,048	18,9
525,53	18,93
526,013	19,39
526,495	19,79
526,978	19,33
527,46	19,95
527,942	20,27
528,424	20,4
528,906	20,91
529,388	20,86
529,87	21,26
530,351	21,02
530,833	21,38
531,314	21,37
531,795	21,39
532,277	22,16
532,758	22,11
533,238	21,97
533,719	21,84
534,2	21,77
534,681	22,78
535,161	22,32
535,642	22,84
536,122	22,5
536,602	23,09
537,082	22,91
537,562	23,02
538,042	22,59
538,522	22,99
539,001	23,26
539,481	22,99
539,96	23,13
540,44	23,54
540,919	23,27
541,398	23,5
541,877	23,44
542,356	23,07
542,835	23,09
543,313	23,61
543,792	23,37
544,27	23,47
544,749	24,03
545,227	23,43
545,705	23,56
546,183	23,87
546,661	23,85
547,139	23,77
547,616	23,65
548,094	23,85
548,571	23,64
549,049	24
549,526	24
550,003	24,19
550,48	24,07
550,957	23,98
551,434	23,83
551,911	23,96
552,387	23,97
552,864	24,31
553,34	24,27
553,817	24,12
554,293	24,11
554,769	23,88
555,245	24,24
555,721	24,15
556,197	24,03
556,672	24,23
557,148	24,16
557,623	24,04
558,099	23,82
558,574	24,33
559,049	23,43
559,524	24,09
559,999	23,21
560,474	23,61
560,948	23,27
561,423	23,56
561,897	23,19
562,372	23,54
562,846	23,36
563,32	23,14
563,794	23,21
564,268	23,27
564,742	22,88
565,216	22,75
565,69	22,61
566,163	22,71
566,636	22,49
567,11	22,41
567,583	22,17
568,056	21,99
568,529	21,9
569,002	21,74
569,475	21,5
569,947	21,49
570,42	21,45
570,892	21,13
571,365	20,71
571,837	20,56
572,309	20,52
572,781	20,62
573,253	20,52
573,725	19,99
574,197	19,86
574,668	19,75
575,14	19,71
575,611	19,47
576,082	19,28
576,554	19,03
577,025	19,23
577,496	18,78
577,967	18,62
578,437	18,52
578,908	18,56
579,379	18,42
579,849	18,37
580,319	18,09
580,79	17,82
581,26	17,82
581,73	17,89
582,2	17,31
582,669	17,4
583,139	17,54
583,609	17,21
584,078	17,63
584,548	17,25
585,017	17,19
585,486	16,71
585,955	16,87
586,424	16,92
586,893	16,8
587,362	16,59
587,83	16,5
588,299	16,53
588,767	16,56
589,236	16,33
589,704	16,44
590,172	16,16
590,64	16,06
591,108	16
591,576	16,14
592,043	15,78
592,511	15,9
592,978	15,79
593,446	15,93
593,913	15,59
594,38	15,63
594,847	15,62
595,314	15,55
595,781	15,37
596,248	15,47
596,715	15,4
597,181	15,08
597,647	15,51
598,114	15,37
598,58	15,41
599,046	15,31
599,512	15,03
599,978	15,07
600,444	15,07
600,91	15,03
601,375	15
601,841	15,14
602,306	14,95
602,771	15,01
603,236	14,92
603,702	14,86
604,167	14,77
604,631	14,72
605,096	14,49
605,561	14,59
606,025	14,6
606,49	14,51
606,954	14,58
607,418	14,21
607,882	14,28
608,347	14,21
608,81	13,99
609,274	13,87
609,738	13,87
610,202	13,83
610,665	13,68
611,128	13,81
611,592	13,53
612,055	13,53
612,518	13,49
612,981	13,41
613,444	13,24
613,907	13,03
614,369	12,95
614,832	12,86
615,294	12,81
615,757	12,82
616,219	12,75
616,681	12,58
617,143	12,48
617,605	12,52
618,067	12,52
618,529	12,27
618,99	12,35
619,452	12,04
619,913	12,26
620,375	12,02
620,836	12,1
621,297	12,08
621,758	11,87
622,219	11,85
622,68	12,03
623,14	11,8
623,601	11,85
624,061	12,02
624,522	11,75
624,982	11,68
625,442	11,71
625,902	11,7
626,362	11,78
626,822	11,39
627,282	11,66
627,742	11,72
628,201	11,63
628,661	11,51
629,12	11,68
629,579	11,33
630,038	11,51
630,497	11,44
630,956	11,57
631,415	11,37
631,874	11,25
632,332	11,44
632,791	11,32
633,249	11,3
633,708	11,55
634,166	11,07
634,624	11,24
635,082	11,15
635,54	11,04
635,998	10,92
636,455	10,94
636,913	10,69
637,37	10,69
637,828	10,37
638,285	10,38
638,742	10,45
639,199	10,24
639,656	10,14
640,113	10,11
640,57	9,88
641,027	9,77
641,483	9,58
641,94	9,5
642,396	9,47
642,852	9,24
643,309	9,18
643,765	9,06
644,221	8,95
644,676	8,78
645,132	8,56
645,588	8,58
646,043	8,4
646,499	8,3
646,954	8,17
647,409	8,09
647,864	7,95
648,319	7,88
648,774	7,94
649,229	7,68
649,684	7,77
650,139	7,54
650,593	7,54
651,047	7,55
651,502	7,51
651,956	7,35
652,41	7,35
652,864	7,24
653,318	7,23
653,772	7,18
654,225	7,19
654,679	7,19
655,133	7,09
655,586	7,11
656,039	6,98
656,492	6,9
656,946	6,8
657,399	6,83
657,851	6,78
658,304	6,73
658,757	6,59
659,209	6,46
659,662	6,53
660,114	6,43
660,567	6,29
661,019	6,29
661,471	6,15
661,923	6,1
662,375	5,93
662,826	6
663,278	5,87
663,73	5,81
664,181	5,69
664,632	5,72
665,084	5,63
665,535	5,59
665,986	5,52
666,437	5,52
666,888	5,4
667,338	5,32
667,789	5,58
668,24	5,52
668,69	5,5
669,14	5,39
669,591	5,49
670,041	5,53
670,491	5,54
670,941	5,51
671,391	5,49
671,84	5,49
672,29	5,47
672,74	5,5
673,189	5,63
673,638	5,62
674,088	5,62
674,537	5,75
674,986	5,77
675,435	5,91
675,883	5,92
676,332	6,1
676,781	6,03
677,229	6,21
677,678	6,21
678,126	6,31
678,574	6,42
679,022	6,55
679,47	6,6
679,918	6,8
680,366	6,79
680,814	6,91
681,261	7,02
681,709	7,1
682,156	7,17
682,604	7,46
683,051	7,53
683,498	7,48
683,945	7,66
684,392	7,81
684,839	7,88
685,286	8,25
685,732	8,36
686,179	8,54
686,625	8,75
687,071	8,84
687,518	8,96
687,964	9,24
688,41	9,51
688,856	9,79
689,301	10,2
689,747	10,38
690,193	10,84
690,638	10,98
691,084	11,46
691,529	11,83
691,974	12,44
692,419	12,83
692,864	13,27
693,309	13,59
693,754	14,05
694,199	14,61
694,643	15,12
695,088	15,83
695,532	16,12
695,977	16,75
696,421	17,24
696,865	17,78
697,309	18,29
697,753	18,7
698,197	19,24
698,64	19,75
699,084	20,37
699,527	20,85
699,971	21,34
700,414	21,69
700,857	22,05
701,3	22,71
701,743	23,34
702,186	23,66
702,629	24,12
703,072	24,83
703,515	24,83
703,957	25,22
704,399	25,77
704,842	26,17
705,284	26,71
705,726	26,75
706,168	27,34
706,61	27,86
707,052	28,27
707,494	28,56
707,935	28,88
708,377	29,45
708,818	29,75
709,26	30
709,701	30,23
710,142	30,42
710,583	30,95
711,024	31
711,465	31,47
711,905	31,88
712,346	31,76
712,787	32,23
713,227	32,58
713,667	32,71
714,108	33,15
714,548	33,4
714,988	33,69
715,428	34,04
715,868	34,44
716,307	34,33
716,747	34,68
717,186	34,83
717,626	35,39
718,065	35,59
718,504	35,75
718,944	36,02
719,383	36
719,822	36,29
720,261	36,71
720,699	36,71
721,138	36,6
721,576	36,96
722,015	37,02
722,453	37,12
722,892	37,55
723,33	38,11
723,768	38,03
724,206	38,04
724,644	38,12
725,081	38,82
725,519	38,25
725,957	38,6
726,394	38,64
726,832	38,87
727,269	39,02
727,706	38,99
728,143	39,03
728,58	39,47
729,017	39,14
729,454	39,82
729,89	39,7
730,327	39,65
730,764	39,73
731,2	39,84
731,636	39,84
732,072	40,04
732,509	40,25
732,945	40,31
733,38	39,92
733,816	40,47
734,252	40,3
734,688	40,31
735,123	40,28
735,559	40,48
735,994	40,53
736,429	40,68
736,864	40,72
737,299	40,51
737,734	40,94
738,169	40,63
738,604	41,04
739,038	40,73
739,473	40,83
739,907	40,84
740,342	41,02
740,776	40,81
741,21	41,01
741,644	40,86
742,078	40,89
742,512	40,77
742,946	41,1
743,379	40,8
743,813	40,84
744,246	40,85
744,68	40,76
745,113	40,76
745,546	40,64
745,979	40,81
746,412	40,46
746,845	40,62
747,278	40,62
747,711	40,47
748,143	40,55
748,576	40,87
749,008	40,58
749,441	40,57
749,873	40,58
750,305	40,82
750,737	40,28
751,169	40,21
751,601	40,47
752,032	40,08
752,464	40,47
752,896	40,14
753,327	39,92
753,758	40,2
754,19	40,17
754,621	40,03
755,052	40,17
755,483	40,2
755,914	40,08
756,344	39,95
756,775	40,12
757,206	39,99
757,636	39,87
758,066	39,83
758,497	39,88
758,927	40,11
759,357	40,04
759,787	39,96
760,217	39,88
760,647	39,77
761,076	39,55
761,506	39,55
761,935	39,52
762,365	39,95
762,794	39,45
763,223	39,99
763,653	39,52
764,082	39,24
764,51	39,39
764,939	39,51
765,368	39,32
765,797	39,32
766,225	39,37
766,654	39,31
767,082	39,18
767,51	39,25
767,938	39,07
768,367	39,23
768,795	39,29
769,222	39,27
769,65	39,2
770,078	38,99
770,505	39,07
770,933	39,16
771,36	39,3
771,788	38,88
772,215	39,06
772,642	39,19
773,069	39,04
773,496	38,95
773,923	38,9
774,349	38,76
774,776	39
775,203	39,05
775,629	39,04
776,055	38,51
776,482	38,46
776,908	38,63
777,334	38,55
777,76	38,78
778,186	38,78
778,611	38,81
779,037	38,7
779,463	38,56
779,888	38,84
780,314	38,91
780,739	38,82
781,164	38,82
781,589	38,41
782,014	38,83
782,439	38,34
782,864	38,61
783,289	38,75
783,713	38,22
784,138	38,56
784,562	38,48
784,987	38,52
785,411	38,35
785,835	38,46
786,259	38,54
786,683	38,72
787,107	38,33
787,531	38,41
787,954	38,46
788,378	38,38
788,802	38,58
789,225	38,36
789,648	38,61
790,071	38,2
790,495	38,65
790,918	38,44
791,34	38,27
791,763	38,44
792,186	38,1
792,609	38,12
793,031	38,21
793,454	38,28
793,876	38,7
794,298	38,24
794,721	38,21
795,143	38,38
795,565	38,11
795,986	37,95
796,408	38,16
796,83	38,14
797,252	38,29
797,673	38,54
798,094	38,7
798,516	38,42
798,937	38,44
799,358	37,86
799,779	38,28
800,2	38,31
800,621	38,21
801,042	37,97
801,462	38,09
801,883	38,18
802,303	37,91
802,724	38,01
803,144	38,06
803,564	38,43
803,984	38,32
804,404	38,17
804,824	38,3
805,244	38,04
805,664	38,18
806,084	38,28
806,503	38,29
806,923	38,04
807,342	38,24
807,761	38,07
808,18	37,96
808,599	37,96
809,018	38,25
809,437	38,19
809,856	37,76
810,275	38,14
810,693	38,14
811,112	38,13
811,53	38,24
811,949	38,12
812,367	38,21
812,785	38,3
813,203	38,22
813,621	38,02
814,039	37,86
814,457	38,01
814,874	37,72
815,292	38,13
815,709	37,8
816,127	38,22
816,544	37,77
816,961	38,05
817,378	38,56
817,795	38,11
818,212	37,96
818,629	38,09
819,046	37,76
819,462	37,98
819,879	37,85
820,295	37,99
820,712	37,64
821,128	37,93
821,544	37,97
821,96	38,02
822,376	38,35
822,792	37,78
823,208	38,16
823,624	38,05
824,039	37,85
824,455	38,09
824,87	38,1
825,286	37,92
825,701	38,16
826,116	37,55
826,531	38,04
826,946	37,79
827,361	37,64
827,776	37,84
828,19	37,63
828,605	37,34
829,02	37,78
829,434	37,98
829,848	37,72
830,263	37,8
830,677	37,88
831,091	37,71
831,505	37,61
831,919	37,94
832,332	38,03
832,746	37,84
833,16	37,67
833,573	37,92
833,987	37,83
834,4	37,68
834,813	37,51
835,226	37,57
835,639	37,48
836,052	37,55
836,465	37,77
836,878	37,83
837,29	37,72
837,703	37,72
838,116	37,83
838,528	37,92
838,94	37,93
839,352	37,59
839,765	38,04
840,177	37,57
840,589	37,53
841	37,35
841,412	37,75
841,824	37,43
