Data from D1___Relative__2__00047.txt Node

Date: Wed Jan 31 18:22:21 CET 2024
User: diatiterra
Spectrometer: HDX00911
Trigger mode: 0
Integration Time (sec): 6,000000E-3
Scans to average: 2
Nonlinearity correction enabled: false
Boxcar width: 0
Storing dark spectrum: false
XAxis mode: Wavelengths
Number of Pixels in Spectrum: 2068
>>>>>Begin Spectral Data<<<<<
194,468	242,45
195,025	169,09
195,581	218,29
196,138	237,18
196,694	145,06
197,251	130,3
197,807	104,72
198,363	111,2
198,919	95,17
199,474	104,78
200,03	105,33
200,586	108,04
201,141	88,39
201,696	97,99
202,251	104,17
202,806	91,26
203,361	104,07
203,916	103,12
204,471	98,54
205,025	117,74
205,58	100
206,134	98,8
206,688	101,92
207,242	123,89
207,796	98,5
208,35	97,1
208,904	102,07
209,457	87,85
210,011	94,68
210,564	92,61
211,117	104,89
211,67	108,96
212,223	93,15
212,776	114,92
213,329	91,33
213,881	127,45
214,434	96,05
214,986	114,88
215,538	111,03
216,09	91,55
216,642	116,53
217,194	100,76
217,746	108,65
218,297	102,29
218,849	103,68
219,4	107,56
219,951	95,56
220,502	97,64
221,053	111,07
221,604	98,32
222,155	107,14
222,705	96,32
223,256	99,25
223,806	104,33
224,356	99,23
224,906	112,1
225,456	103,1
226,006	96,83
226,556	85,06
227,106	108,87
227,655	93,75
228,204	93,33
228,754	91,9
229,303	91,43
229,852	89,93
230,401	97,76
230,949	96,04
231,498	94,01
232,047	83,77
232,595	103,1
233,143	98,82
233,691	97,29
234,239	92,86
234,787	106,8
235,335	107,46
235,883	97,55
236,43	101,14
236,978	98,46
237,525	96,35
238,072	90,07
238,619	104,55
239,166	91,84
239,713	100
240,26	91,07
240,806	102,08
241,353	104,76
241,899	91,26
242,445	100,36
242,991	100,38
243,537	93,56
244,083	105,34
244,629	98,08
245,174	103,98
245,72	94,07
246,265	97,62
246,81	105,6
247,355	105,95
247,9	100,37
248,445	101,98
248,99	98,86
249,534	117,83
250,079	96,62
250,623	100,74
251,168	100
251,712	102,34
252,256	101,23
252,8	103,85
253,343	95,71
253,887	99,6
254,43	98,09
254,974	105,34
255,517	91,1
256,06	111,92
256,603	99,26
257,146	101,94
257,689	110,63
258,232	113,14
258,774	97,87
259,317	109,32
259,859	110,55
260,401	107,75
260,943	95,74
261,485	98,23
262,027	99,6
262,569	111,19
263,11	100,77
263,652	117,32
264,193	108,26
264,734	102,92
265,275	106,56
265,816	99,24
266,357	108,53
266,898	98,85
267,438	111,42
267,979	97,84
268,519	97,01
269,059	117,29
269,6	109,77
270,14	108,06
270,68	101,09
271,219	118,22
271,759	98,5
272,298	102,26
272,838	105,77
273,377	100
273,916	99,64
274,455	105,47
274,994	100,4
275,533	100,72
276,072	97,97
276,61	91,67
277,149	120
277,687	101,5
278,225	86,67
278,763	117,54
279,301	110,83
279,839	108,06
280,377	106,15
280,914	91,96
281,452	116,67
281,989	105,37
282,526	112,2
283,064	113,03
283,601	92,57
284,137	101,24
284,674	105,42
285,211	127,63
285,747	101,52
286,284	120,72
286,82	110,33
287,356	95,39
287,892	103,49
288,428	110,33
288,964	126,89
289,5	113,22
290,035	109,2
290,571	115,55
291,106	110,98
291,641	126,34
292,176	111,33
292,711	111,79
293,246	99,23
293,781	111,57
294,315	93,31
294,85	124,54
295,384	107,38
295,918	100,74
296,453	95,52
296,987	108,26
297,52	104,96
298,054	96,95
298,588	109,58
299,121	96,64
299,655	102,19
300,188	107,08
300,721	108,54
301,254	101,21
301,787	107,03
302,32	112,2
302,853	101,2
303,385	103,93
303,918	98,45
304,45	105
304,982	92,55
305,514	97,67
306,046	100
306,578	101,16
307,11	95,74
307,641	112,5
308,173	111,98
308,704	102,48
309,236	100,38
309,767	100
310,298	100
310,829	111,3
311,359	106,85
311,89	110,92
312,421	109,46
312,951	106,5
313,481	104,48
314,012	99,25
314,542	100,42
315,072	101,91
315,601	102
316,131	110,24
316,661	96,25
317,19	90,37
317,72	111,98
318,249	107,14
318,778	102,73
319,307	99,22
319,836	106,19
320,365	108,7
320,893	99,17
321,422	109,76
321,95	107,52
322,479	97,33
323,007	102,27
323,535	94,64
324,063	104,4
324,591	97,2
325,118	99,27
325,646	115,97
326,173	103,75
326,701	108,94
327,228	109,48
327,755	99,62
328,282	97,71
328,809	104,66
329,336	111,02
329,862	101,47
330,389	100
330,915	94,49
331,441	93,13
331,968	116,22
332,494	98,48
333,02	109,58
333,545	91,04
334,071	117,36
334,597	83,8
335,122	98,15
335,648	110,78
336,173	95,83
336,698	80,7
337,223	93,01
337,748	93,75
338,272	92,12
338,797	94,93
339,322	84,67
339,846	86,03
340,37	106,85
340,894	89,24
341,419	94,36
341,942	91,96
342,466	88,46
342,99	85,57
343,514	89,44
344,037	83,23
344,56	98,52
345,084	82,88
345,607	93,4
346,13	86,97
346,653	91
347,175	89,42
347,698	78,62
348,221	89,64
348,743	84,16
349,265	87,77
349,787	81,29
350,309	84,81
350,831	75,31
351,353	78,66
351,875	76,9
352,397	87,41
352,918	92,11
353,439	91,06
353,961	73,55
354,482	85,09
355,003	78,2
355,524	81,11
356,044	75,57
356,565	83,13
357,086	77,12
357,606	69,51
358,126	68,35
358,646	62,5
359,167	80,54
359,687	74,86
360,206	72,68
360,726	65,4
361,246	69,95
361,765	73,73
362,285	70,5
362,804	75,26
363,323	64,39
363,842	74,73
364,361	69,4
364,88	69,7
365,398	61,35
365,917	58,02
366,435	73,44
366,954	62,28
367,472	63,68
367,99	68,96
368,508	58,7
369,026	70,68
369,544	65,13
370,061	60,29
370,579	62,3
371,096	68,12
371,613	61,64
372,131	56,1
372,648	56,3
373,165	57,42
373,681	58,02
374,198	61,91
374,715	59,21
375,231	61,93
375,747	57,76
376,264	53,23
376,78	56,83
377,296	60,41
377,812	53,32
378,327	56,46
378,843	57,68
379,359	53,15
379,874	58,3
380,389	55,21
380,905	50,3
381,42	53,8
381,935	55,18
382,449	48,67
382,964	50
383,479	49,71
383,993	50,69
384,508	49,48
385,022	48,06
385,536	48,95
386,05	48,16
386,564	44,65
387,078	45,22
387,592	47,2
388,105	46,34
388,619	42,75
389,132	44,61
389,645	44,02
390,158	40,13
390,671	41,85
391,184	37,75
391,697	38,78
392,21	37,7
392,722	38,49
393,235	40,24
393,747	38,72
394,259	36,05
394,771	37,02
395,283	36,9
395,795	36,94
396,307	37,01
396,818	37,28
397,33	32,31
397,841	35,13
398,353	35,18
398,864	32,5
399,375	31,39
399,886	31,74
400,397	30,23
400,907	30,01
401,418	27,14
401,928	28,71
402,439	28,4
402,949	26,62
403,459	28,05
403,969	27,46
404,479	25
404,989	25,09
405,498	23,4
406,008	23,76
406,517	23,42
407,027	20,7
407,536	20,22
408,045	22,23
408,554	19,79
409,063	18,51
409,572	18,07
410,08	18,53
410,589	17,69
411,097	16,93
411,606	16,72
412,114	16,58
412,622	16,52
413,13	16,46
413,638	15,08
414,145	14,12
414,653	14,3
415,16	13,84
415,668	14,14
416,175	13,2
416,682	12,78
417,189	12,04
417,696	12,26
418,203	12,57
418,71	11,75
419,216	11,6
419,723	11,65
420,229	11,91
420,735	11,43
421,242	11,07
421,748	11
422,254	10,97
422,759	10,46
423,265	10,39
423,771	10,23
424,276	10,82
424,781	10,38
425,287	10,34
425,792	9,86
426,297	10,25
426,802	9,67
427,306	10,02
427,811	9,58
428,316	9,55
428,82	9,95
429,324	9,35
429,829	9,3
430,333	9,1
430,837	9
431,34	9,22
431,844	9,47
432,348	8,76
432,851	8,98
433,355	9,16
433,858	8,69
434,361	8,49
434,864	8,1
435,367	8,82
435,87	9,4
436,373	8,82
436,876	9
437,378	9,02
437,88	8,72
438,383	8,93
438,885	8,52
439,387	8,55
439,889	8,31
440,391	8,67
440,892	8,44
441,394	8,47
441,896	8,16
442,397	8,57
442,898	8,18
443,399	8,63
443,9	8,18
444,401	8,03
444,902	8,31
445,403	8,53
445,903	7,98
446,404	8,5
446,904	8,44
447,405	7,78
447,905	8,4
448,405	8,42
448,905	8,29
449,404	8,35
449,904	8,46
450,404	8,22
450,903	8,81
451,403	8,02
451,902	8,37
452,401	8,75
452,9	8,54
453,399	7,94
453,898	8,12
454,396	8,26
454,895	8,13
455,393	8,38
455,892	8,12
456,39	8,29
456,888	8,46
457,386	8,02
457,884	8,6
458,382	8,69
458,879	8,18
459,377	8,67
459,874	8,31
460,372	8,31
460,869	8,39
461,366	8,27
461,863	8,31
462,36	8,47
462,857	8,22
463,353	8,07
463,85	7,72
464,346	8,01
464,843	8,45
465,339	8,23
465,835	8,3
466,331	8,36
466,827	8,16
467,323	8,17
467,818	8,1
468,314	8,25
468,809	8
469,305	7,92
469,8	7,98
470,295	8,21
470,79	8,21
471,285	8,2
471,78	7,9
472,274	8,01
472,769	8,14
473,263	7,5
473,758	7,98
474,252	7,91
474,746	8,32
475,24	8,16
475,734	8,26
476,228	8,2
476,721	7,86
477,215	8,11
477,708	8,21
478,202	7,83
478,695	8,29
479,188	7,86
479,681	7,96
480,174	8,16
480,667	7,95
481,159	8,24
481,652	8,38
482,144	8,03
482,637	8,56
483,129	8,19
483,621	8,11
484,113	8,44
484,605	8,09
485,097	7,92
485,588	8,24
486,08	8,1
486,571	7,86
487,063	8,14
487,554	8,18
488,045	8,16
488,536	8,5
489,027	8,27
489,518	8,52
490,008	8,1
490,499	8,45
490,989	8,45
491,48	8,2
491,97	8,28
492,46	8,56
492,95	8,35
493,44	8,65
493,93	8,33
494,419	8,56
494,909	8,53
495,398	8,77
495,888	8,88
496,377	9,01
496,866	8,81
497,355	8,94
497,844	8,8
498,333	9,16
498,821	8,88
499,31	8,93
499,798	9,26
500,287	9,34
500,775	9,58
501,263	9,5
501,751	9,63
502,239	9,49
502,727	9,87
503,215	10,07
503,702	10,18
504,19	10,1
504,677	10,26
505,164	10,98
505,651	11,03
506,139	10,96
506,625	11,06
507,112	11,29
507,599	11,69
508,086	11,55
508,572	12,11
509,058	12,29
509,545	12,17
510,031	12,38
510,517	12,34
511,003	12,79
511,489	13,25
511,974	13,62
512,46	13,55
512,946	13,75
513,431	14,14
513,916	14,55
514,401	14,77
514,887	15,1
515,371	15,23
515,856	15,72
516,341	16,17
516,826	16,32
517,31	16,49
517,795	16,99
518,279	17,34
518,763	17,89
519,247	17,83
519,731	18,67
520,215	18,51
520,699	19,24
521,182	19,44
521,666	19,96
522,149	20,27
522,633	20,54
523,116	21,02
523,599	21,24
524,082	21,42
524,565	22,02
525,048	22,23
525,53	22,12
526,013	23,04
526,495	23,34
526,978	23,51
527,46	23,77
527,942	24,01
528,424	24,38
528,906	24,23
529,388	25,05
529,87	25,61
530,351	25,1
530,833	26,13
531,314	25,67
531,795	25,63
532,277	26,04
532,758	25,97
533,238	26,03
533,719	26,64
534,2	26,72
534,681	27,23
535,161	26,77
535,642	27,63
536,122	26,93
536,602	27,24
537,082	27,72
537,562	27,81
538,042	27,58
538,522	27,51
539,001	27,71
539,481	28,21
539,96	27,51
540,44	27,95
540,919	28,31
541,398	28,35
541,877	27,79
542,356	27,99
542,835	28,24
543,313	28,17
543,792	28,68
544,27	28,43
544,749	28,54
545,227	28,86
545,705	28,72
546,183	29,3
546,661	28,88
547,139	28,8
547,616	28,65
548,094	28,96
548,571	29,12
549,049	29,29
549,526	28,93
550,003	29,33
550,48	29,18
550,957	29,21
551,434	29,31
551,911	28,97
552,387	29,2
552,864	29,4
553,34	29,71
553,817	28,97
554,293	29,36
554,769	29,25
555,245	29,64
555,721	29,39
556,197	29,2
556,672	29,21
557,148	29,07
557,623	29,39
558,099	29,42
558,574	29,02
559,049	28,67
559,524	29,15
559,999	29,19
560,474	28,52
560,948	28,55
561,423	28,79
561,897	28,69
562,372	28,54
562,846	28,34
563,32	28,03
563,794	27,87
564,268	28,04
564,742	27,76
565,216	27,47
565,69	27,2
566,163	27,44
566,636	26,89
567,11	26,98
567,583	26,78
568,056	26,35
568,529	26,68
569,002	26,16
569,475	25,97
569,947	25,85
570,42	25,96
570,892	25,27
571,365	25,22
571,837	25,01
572,309	24,79
572,781	24,32
573,253	24,41
573,725	24,14
574,197	24,11
574,668	23,69
575,14	23,61
575,611	23,53
576,082	23,03
576,554	23
577,025	22,71
577,496	22,54
577,967	22,25
578,437	22,17
578,908	22,1
579,379	22,26
579,849	21,73
580,319	21,82
580,79	21,4
581,26	21,36
581,73	21,34
582,2	20,85
582,669	21,08
583,139	20,71
583,609	20,75
584,078	20,71
584,548	20,52
585,017	20,66
585,486	20
585,955	20,14
586,424	19,97
586,893	20,05
587,362	19,85
587,83	19,78
588,299	19,67
588,767	19,66
589,236	19,63
589,704	19,19
590,172	19,51
590,64	19,22
591,108	19,37
591,576	19,27
592,043	18,98
592,511	18,93
592,978	18,95
593,446	18,63
593,913	18,86
594,38	18,7
594,847	18,7
595,314	18,57
595,781	18,49
596,248	18,38
596,715	18,46
597,181	18,51
597,647	18,48
598,114	18,3
598,58	18,05
599,046	18,18
599,512	18,13
599,978	18,02
600,444	18,03
600,91	18,26
601,375	17,99
601,841	18,15
602,306	18,04
602,771	18
603,236	17,68
603,702	17,99
604,167	17,96
604,631	17,69
605,096	17,52
605,561	17,4
606,025	17,6
606,49	17,36
606,954	17,3
607,418	16,94
607,882	17,02
608,347	17,11
608,81	16,88
609,274	16,85
609,738	16,74
610,202	16,81
610,665	16,53
611,128	16,43
611,592	16,09
612,055	16
612,518	16,24
612,981	16,07
613,444	15,65
613,907	15,59
614,369	15,61
614,832	15,58
615,294	15,45
615,757	15,42
616,219	15,38
616,681	14,98
617,143	15,06
617,605	15,05
618,067	14,84
618,529	14,82
618,99	14,73
619,452	14,64
619,913	14,54
620,375	14,58
620,836	14,6
621,297	14,5
621,758	14,41
622,219	14,32
622,68	14,1
623,14	14,05
623,601	14,06
624,061	14,22
624,522	14
624,982	14,22
625,442	14,27
625,902	13,86
626,362	14,08
626,822	14,05
627,282	14,17
627,742	14,04
628,201	13,88
628,661	13,73
629,12	13,83
629,579	13,74
630,038	13,89
630,497	13,79
630,956	13,79
631,415	13,78
631,874	13,56
632,332	13,54
632,791	13,43
633,249	13,47
633,708	13,57
634,166	13,26
634,624	13,22
635,082	13,32
635,54	13,2
635,998	13,05
636,455	13,13
636,913	12,79
637,37	12,72
637,828	12,67
638,285	12,61
638,742	12,46
639,199	12,29
639,656	12,32
640,113	12,17
640,57	11,97
641,027	11,78
641,483	11,88
641,94	11,45
642,396	11,56
642,852	11,4
643,309	11,24
643,765	10,94
644,221	10,92
644,676	10,83
645,132	10,69
645,588	10,65
646,043	10,48
646,499	10,41
646,954	10,26
647,409	10,31
647,864	10,08
648,319	9,93
648,774	9,92
649,229	9,79
649,684	9,79
650,139	9,57
650,593	9,51
651,047	9,6
651,502	9,46
651,956	9,41
652,41	9,35
652,864	9,41
653,318	9,4
653,772	9,3
654,225	9,25
654,679	9,09
655,133	9,06
655,586	9,05
656,039	8,96
656,492	9
656,946	8,96
657,399	8,74
657,851	8,87
658,304	8,74
658,757	8,59
659,209	8,59
659,662	8,57
660,114	8,46
660,567	8,4
661,019	8,34
661,471	8,3
661,923	8,16
662,375	8,09
662,826	8,18
663,278	8
663,73	7,99
664,181	7,9
664,632	8
665,084	7,83
665,535	7,91
665,986	7,82
666,437	7,81
666,888	7,73
667,338	7,86
667,789	7,87
668,24	7,78
668,69	7,82
669,14	7,85
669,591	7,87
670,041	7,89
670,491	7,93
670,941	7,9
671,391	7,93
671,84	8,08
672,29	8,08
672,74	8,17
673,189	8,14
673,638	8,28
674,088	8,49
674,537	8,42
674,986	8,47
675,435	8,6
675,883	8,8
676,332	8,73
676,781	8,79
677,229	9,01
677,678	9,02
678,126	9,17
678,574	9,28
679,022	9,37
679,47	9,59
679,918	9,73
680,366	9,82
680,814	9,98
681,261	10
681,709	10,24
682,156	10,27
682,604	10,47
683,051	10,62
683,498	10,76
683,945	10,67
684,392	10,91
684,839	10,95
685,286	11,2
685,732	11,17
686,179	11,4
686,625	11,57
687,071	11,67
687,518	11,91
687,964	11,98
688,41	12,16
688,856	12,41
689,301	12,8
689,747	12,95
690,193	13,25
690,638	13,38
691,084	13,88
691,529	14,38
691,974	14,87
692,419	15,22
692,864	15,82
693,309	16,11
693,754	16,61
694,199	17,38
694,643	17,82
695,088	18,52
695,532	18,99
695,977	19,6
696,421	20,06
696,865	20,73
697,309	21,1
697,753	21,79
698,197	22,7
698,64	23,24
699,084	23,98
699,527	24,41
699,971	25,01
700,414	25,4
700,857	26,23
701,3	26,8
701,743	27,74
702,186	28,09
702,629	28,68
703,072	29,28
703,515	29,71
703,957	30,11
704,399	31,06
704,842	31,5
705,284	31,94
705,726	32,08
706,168	32,95
706,61	33,89
707,052	33,93
707,494	34,74
707,935	35,08
708,377	35,48
708,818	35,95
709,26	36,45
709,701	36,97
710,142	37,59
710,583	37,73
711,024	38,16
711,465	38,71
711,905	39
712,346	39,44
712,787	39,64
713,227	40,33
713,667	40,88
714,108	41,34
714,548	41,44
714,988	42,31
715,428	42,27
715,868	42,87
716,307	42,95
716,747	43,22
717,186	43,77
717,626	44,34
718,065	44,6
718,504	44,77
718,944	45,03
719,383	45,22
719,822	45,51
720,261	45,61
720,699	46,24
721,138	45,96
721,576	46,77
722,015	47,11
722,453	47,37
722,892	47,25
723,33	47,9
723,768	48,47
724,206	48,42
724,644	48,5
725,081	48,73
725,519	49,02
725,957	49,15
726,394	49,33
726,832	49,88
727,269	49,43
727,706	49,76
728,143	49,65
728,58	50,19
729,017	50,1
729,454	50,53
729,89	50,81
730,327	50,32
730,764	51,14
731,2	50,97
731,636	51,32
732,072	51,64
732,509	51,44
732,945	51,4
733,38	51,43
733,816	51,88
734,252	51,83
734,688	51,86
735,123	52,02
735,559	51,95
735,994	52,29
736,429	52,32
736,864	52,61
737,299	52,09
737,734	52,68
738,169	52,31
738,604	52,41
739,038	52,46
739,473	52,49
739,907	52,79
740,342	52,63
740,776	52,82
741,21	52,63
741,644	52,91
742,078	52,69
742,512	52,36
742,946	52,87
743,379	52,35
743,813	52,48
744,246	52,46
744,68	52,53
745,113	52,14
745,546	52,27
745,979	52,83
746,412	52,36
746,845	52,54
747,278	52,59
747,711	52,11
748,143	52,27
748,576	52,74
749,008	52,7
749,441	52,36
749,873	52,04
750,305	52,32
750,737	52,22
751,169	52,06
751,601	52,2
752,032	52,04
752,464	51,99
752,896	51,67
753,327	52,14
753,758	51,97
754,19	51,87
754,621	52
755,052	51,63
755,483	52,06
755,914	51,67
756,344	51,73
756,775	51,9
757,206	51,69
757,636	51,77
758,066	51,38
758,497	51,75
758,927	51,67
759,357	51,77
759,787	51,19
760,217	51,31
760,647	51,3
761,076	51,66
761,506	51,11
761,935	51,07
762,365	51,46
762,794	51,22
763,223	51,15
763,653	51,42
764,082	51,14
764,51	51,25
764,939	51,28
765,368	51,01
765,797	51,19
766,225	50,73
766,654	50,86
767,082	50,4
767,51	50,89
767,938	50,63
768,367	50,42
768,795	50,38
769,222	50,95
769,65	50,82
770,078	50,53
770,505	50,59
770,933	50,66
771,36	50,81
771,788	50,64
772,215	50,45
772,642	50,24
773,069	50,66
773,496	50,28
773,923	50,05
774,349	50,1
774,776	50,41
775,203	49,96
775,629	50,49
776,055	49,88
776,482	49,95
776,908	50,12
777,334	50,03
777,76	50,13
778,186	50,08
778,611	50,24
779,037	50,31
779,463	50,03
779,888	50,31
780,314	50,13
780,739	50,17
781,164	50,6
781,589	49,78
782,014	49,97
782,439	49,98
782,864	49,97
783,289	50,29
783,713	49,72
784,138	49,89
784,562	49,76
784,987	49,5
785,411	49,7
785,835	49,46
786,259	49,65
786,683	49,98
787,107	49,62
787,531	49,41
787,954	49,81
788,378	49,96
788,802	49,95
789,225	49,5
789,648	49,81
790,071	49,22
790,495	49,87
790,918	49,75
791,34	49,54
791,763	49,4
792,186	49,7
792,609	49,42
793,031	49,71
793,454	49,48
793,876	49,52
794,298	49,4
794,721	49,4
795,143	49,81
795,565	49,42
795,986	49,36
796,408	49,37
796,83	49,35
797,252	49,37
797,673	49,48
798,094	50
798,516	49,45
798,937	49,58
799,358	49,15
799,779	49,28
800,2	49,49
800,621	49,02
801,042	49,09
801,462	49,23
801,883	49,38
802,303	48,92
802,724	49,26
803,144	49,29
803,564	49,35
803,984	49,67
804,404	49,54
804,824	49,14
805,244	49,08
805,664	49,28
806,084	49,66
806,503	49,5
806,923	49,27
807,342	49,02
807,761	48,99
808,18	49,03
808,599	48,82
809,018	49,29
809,437	49,18
809,856	48,89
810,275	49,38
810,693	48,89
811,112	49,52
811,53	49,21
811,949	49,47
812,367	49,84
812,785	49,22
813,203	49,22
813,621	49,01
814,039	48,84
814,457	49,16
814,874	49,03
815,292	49,2
815,709	48,9
816,127	49,28
816,544	49,08
816,961	49,2
817,378	49,46
817,795	49,21
818,212	49,19
818,629	49,5
819,046	48,77
819,462	49,13
819,879	49,06
820,295	49,16
820,712	48,87
821,128	48,99
821,544	49,33
821,96	49,18
822,376	49,01
822,792	48,92
823,208	49,27
823,624	49,32
824,039	48,9
824,455	49,26
824,87	48,62
825,286	49,19
825,701	49,07
826,116	48,85
826,531	48,79
826,946	48,86
827,361	48,71
827,776	49
828,19	49,07
828,605	48,77
829,02	49,29
829,434	48,91
829,848	48,87
830,263	49,24
830,677	48,83
831,091	48,81
831,505	48,75
831,919	49,08
832,332	49,14
832,746	49,07
833,16	48,68
833,573	48,73
833,987	48,77
834,4	48,71
834,813	48,61
835,226	48,68
835,639	48,47
836,052	48,56
836,465	48,91
836,878	48,78
837,29	48,55
