Data from D1___Relative__3__00048.txt Node

Date: Wed Jan 31 18:22:24 CET 2024
User: diatiterra
Spectrometer: HDX00911
Trigger mode: 0
Integration Time (sec): 6,000000E-3
Scans to average: 2
Nonlinearity correction enabled: false
Boxcar width: 0
Storing dark spectrum: false
XAxis mode: Wavelengths
Number of Pixels in Spectrum: 2068
>>>>>Begin Spectral Data<<<<<
194,468	216,98
195,025	148,18
195,581	215,85
196,138	210,26
196,694	134,57
197,251	108,08
197,807	95,28
198,363	99,6
198,919	86,9
199,474	98,53
200,03	99,59
200,586	104,46
201,141	83,55
201,696	86,58
202,251	91,67
202,806	85,31
203,361	92,96
203,916	88,19
204,471	95,62
205,025	111,69
205,58	89,64
206,134	100,4
206,688	92,31
207,242	104,42
207,796	92,11
208,35	86,96
208,904	98,97
209,457	81,6
210,011	85,11
210,564	91,2
211,117	95,11
211,67	98,13
212,223	92,12
212,776	100,4
213,329	87,33
213,881	111,27
214,434	85,2
214,986	105,79
215,538	95,96
216,09	88,03
216,642	108,26
217,194	93,18
217,746	97,37
218,297	98,09
218,849	90,44
219,4	99,16
219,951	95,97
220,502	95,95
221,053	105,73
221,604	87,25
222,155	101,98
222,705	93,75
223,256	95,15
223,806	97,64
224,356	96,54
224,906	95,97
225,456	94,57
226,006	97,62
226,556	76,62
227,106	97,58
227,655	82,64
228,204	97,5
228,754	95,07
229,303	87,5
229,852	82,73
230,401	91,79
230,949	89,21
231,498	79,58
232,047	84,42
232,595	89,31
233,143	96,06
233,691	93,41
234,239	84,29
234,787	93,6
235,335	87,69
235,883	91,26
236,43	92,05
236,978	95
237,525	86,5
238,072	91,13
238,619	91,67
239,166	83,69
239,713	88,69
240,26	86,07
240,806	87,15
241,353	88,1
241,899	86,71
242,445	82,48
242,991	97,33
243,537	81,82
244,083	102,29
244,629	88,08
245,174	104,87
245,72	90
246,265	82,14
246,81	96,4
247,355	95,24
247,9	87,69
248,445	99,6
248,99	89,39
249,534	106,52
250,079	84,59
250,623	85,19
251,168	95,04
251,712	89,06
252,256	97,54
252,8	92,31
253,343	85,71
253,887	91,94
254,43	97,71
254,974	88,17
255,517	83,22
256,06	107,69
256,603	82,96
257,146	99,22
257,689	94,88
258,232	100
258,774	91,13
259,317	98,31
259,859	97,71
260,401	100
260,943	87,59
261,485	96,1
262,027	97,2
262,569	100
263,11	82,31
263,652	104,72
264,193	89,67
264,734	96,72
265,275	95,49
265,816	91,98
266,357	97,29
266,898	101,54
267,438	99,61
267,979	96,76
268,519	87,69
269,059	111,68
269,6	103,01
270,14	99,19
270,68	89,86
271,219	100,85
271,759	90,6
272,298	90,23
272,838	91,92
273,377	93,65
273,916	90,29
274,455	95,26
274,994	99,2
275,533	93,48
276,072	95,93
276,61	93,84
277,149	102,92
277,687	98,5
278,225	84,67
278,763	105,26
279,301	102,5
279,839	95,16
280,377	105,74
280,914	87,76
281,452	97,01
281,989	100,41
282,526	93,7
283,064	102,52
283,601	88,85
284,137	94,63
284,674	100,42
285,211	110,53
285,747	85,23
286,284	107,66
286,82	95,45
287,356	87,5
287,892	96,12
288,428	100,41
288,964	111,34
289,5	96,69
290,035	90
290,571	93,28
291,106	97,15
291,641	108,04
292,176	99,22
292,711	103,25
293,246	93,08
293,781	102,48
294,315	84,15
294,85	108,33
295,384	99,18
295,918	86,03
296,453	89,18
296,987	88,43
297,52	102,07
298,054	93,51
298,588	94,58
299,121	91,42
299,655	93,43
300,188	95
300,721	94,72
301,254	92,34
301,787	95,31
302,32	101,22
302,853	90
303,385	90
303,918	86,82
304,45	92,69
304,982	83,69
305,514	89,15
306,046	88,02
306,578	92,25
307,11	87,21
307,641	95,26
308,173	97,93
308,704	85,12
309,236	83,08
309,767	97,16
310,298	92,74
310,829	94,78
311,359	95,56
311,89	97,9
312,421	104,05
312,951	101,63
313,481	81,72
314,012	92,54
314,542	99,58
315,072	83,97
315,601	90,8
316,131	91,73
316,661	86,25
317,19	90
317,72	96,69
318,249	99,6
318,778	93,75
319,307	91,02
319,836	110,18
320,365	95,65
320,893	88,84
321,422	103,66
321,95	100
322,479	95,04
323,007	100,45
323,535	85
324,063	95,6
324,591	98,4
325,118	93,07
325,646	97,9
326,173	95
326,701	98,78
327,228	91,81
327,755	86,09
328,282	91,98
328,809	99,15
329,336	94,88
329,862	92,65
330,389	85,16
330,915	89,37
331,441	91,22
331,968	94,59
332,494	87,88
333,02	90,42
333,545	87,69
334,071	100,41
334,597	82,04
335,122	87,04
335,648	100,86
336,173	87,12
336,698	82,59
337,223	91,54
337,748	79,86
338,272	88,01
338,797	87,68
339,322	88,32
339,846	82,72
340,37	93,55
340,894	85,07
341,419	87,59
341,942	82,17
342,466	76,28
342,99	81,88
343,514	78,52
344,037	75,95
344,56	94,07
345,084	83,56
345,607	85,42
346,13	88,03
346,653	85
347,175	80,45
347,698	72,96
348,221	87,14
348,743	77,33
349,265	85,97
349,787	75,15
350,309	76,27
350,831	72,22
351,353	76,52
351,875	74,85
352,397	85,66
352,918	78,95
353,439	80,13
353,961	70,93
354,482	77,78
355,003	74,42
355,524	76,94
356,044	69,32
356,565	82,23
357,086	74,86
357,606	65,38
358,126	67,55
358,646	65,82
359,167	71,08
359,687	70,62
360,206	69,13
360,726	61,85
361,246	64,89
361,765	71,19
362,285	63,75
362,804	67,89
363,323	61,71
363,842	66,48
364,361	61,69
364,88	60,34
365,398	55,68
365,917	58,49
366,435	68,75
366,954	57,14
367,472	62,03
367,99	63,98
368,508	58,3
369,026	67,05
369,544	57,02
370,061	58,4
370,579	53,69
371,096	60,78
371,613	53,23
372,131	53,54
372,648	54,92
373,165	57,42
373,681	53,38
374,198	59,96
374,715	54,14
375,231	50
375,747	51,03
376,264	47,62
376,78	49,82
377,296	50,56
377,812	47,51
378,327	47,35
378,843	49,32
379,359	49,5
379,874	52,6
380,389	50,63
380,905	41,64
381,42	42,55
381,935	46,19
382,449	45,13
382,964	44,14
383,479	43,82
383,993	42,38
384,508	41,08
385,022	41,19
385,536	42,63
386,05	39,37
386,564	40,05
387,078	38,64
387,592	37,96
388,105	40,9
388,619	37,72
389,132	34,72
389,645	37,59
390,158	33,8
390,671	34,93
391,184	30,67
391,697	33,77
392,21	30,97
392,722	31,85
393,235	35,55
393,747	35,99
394,259	32,77
394,771	30,16
395,283	31,04
395,795	30,88
396,307	30,93
396,818	31,75
397,33	27,13
397,841	30,44
398,353	29,22
398,864	27,28
399,375	25,38
399,886	27,7
400,397	25,36
400,907	24,38
401,418	24,51
401,928	23,63
402,439	25,33
402,949	23,44
403,459	23,98
403,969	21,73
404,479	23,11
404,989	21,22
405,498	21,02
406,008	20,61
406,517	20,01
407,027	19
407,536	18,27
408,045	16,45
408,554	16,54
409,063	15,96
409,572	15,21
410,08	16,15
410,589	15,02
411,097	14,18
411,606	14,71
412,114	13,02
412,622	13,43
413,13	12,87
413,638	13,02
414,145	11,7
414,653	12,16
415,16	10,82
415,668	11,69
416,175	10,94
416,682	11,61
417,189	10,13
417,696	11,12
418,203	10,06
418,71	9,96
419,216	9,89
419,723	9,26
420,229	9,56
420,735	9,44
421,242	9,15
421,748	9,18
422,254	8,91
422,759	8,71
423,265	8,72
423,771	9,02
424,276	8,42
424,781	8,57
425,287	8,94
425,792	8,02
426,297	8,34
426,802	7,47
427,306	8,45
427,811	8,11
428,316	8,47
428,82	7,99
429,324	8,05
429,829	8,04
430,333	7,58
430,837	7,92
431,34	7,49
431,844	7,51
432,348	7,22
432,851	7,15
433,355	7,07
433,858	7,4
434,361	7,16
434,864	7,51
435,367	7,07
435,87	7,93
436,373	7,5
436,876	7,39
437,378	7,43
437,88	7,15
438,383	7,37
438,885	7,09
439,387	7,1
439,889	6,9
440,391	7,05
440,892	7,19
441,394	7,27
441,896	6,99
442,397	6,92
442,898	6,99
443,399	7,12
443,9	6,35
444,401	6,94
444,902	6,87
445,403	6,96
445,903	6,97
446,404	7,16
446,904	6,95
447,405	6,79
447,905	6,87
448,405	6,88
448,905	7,13
449,404	6,67
449,904	6,79
450,404	6,71
450,903	7,2
451,403	6,6
451,902	7,14
452,401	6,64
452,9	6,71
453,399	6,7
453,898	6,49
454,396	6,68
454,895	6,78
455,393	6,66
455,892	6,98
456,39	6,72
456,888	6,74
457,386	6,73
457,884	6,48
458,382	6,81
458,879	7,11
459,377	6,99
459,874	6,89
460,372	6,69
460,869	6,54
461,366	6,53
461,863	6,53
462,36	6,77
462,857	6,7
463,353	6,5
463,85	6,81
464,346	6,5
464,843	6,72
465,339	6,63
465,835	6,84
466,331	6,7
466,827	6,13
467,323	6,66
467,818	6,85
468,314	6,65
468,809	6,51
469,305	6,5
469,8	6,76
470,295	6,24
470,79	6,47
471,285	6,53
471,78	6,22
472,274	6,4
472,769	6,29
473,263	6,24
473,758	6,46
474,252	6,34
474,746	6,56
475,24	6,53
475,734	6,41
476,228	6,44
476,721	6,58
477,215	6,24
477,708	6,47
478,202	6,68
478,695	6,47
479,188	6,36
479,681	6,37
480,174	6,38
480,667	6,55
481,159	6,27
481,652	6,53
482,144	6,63
482,637	6,44
483,129	6,27
483,621	6,29
484,113	6,76
484,605	6,5
485,097	6,4
485,588	6,36
486,08	6,35
486,571	6,54
487,063	6,46
487,554	6,6
488,045	6,63
488,536	6,53
489,027	6,59
489,518	6,76
490,008	6,3
490,499	6,62
490,989	6,44
491,48	6,6
491,97	6,49
492,46	6,62
492,95	6,72
493,44	6,91
493,93	6,47
494,419	6,79
494,909	6,84
495,398	6,73
495,888	6,68
496,377	6,97
496,866	6,97
497,355	6,93
497,844	6,88
498,333	7,06
498,821	6,88
499,31	7,01
499,798	7,34
500,287	7,18
500,775	7,24
501,263	7,57
501,751	7,4
502,239	7,6
502,727	7,65
503,215	7,57
503,702	7,87
504,19	7,55
504,677	7,85
505,164	8,02
505,651	7,95
506,139	7,98
506,625	8,1
507,112	8,43
507,599	8,61
508,086	8,16
508,572	8,43
509,058	9,17
509,545	8,85
510,031	9,22
510,517	9,43
511,003	9,58
511,489	9,35
511,974	9,9
512,46	9,99
512,946	10,13
513,431	10,58
513,916	10,72
514,401	10,64
514,887	11,16
515,371	11,15
515,856	11,51
516,341	11,68
516,826	11,7
517,31	12,3
517,795	12,26
518,279	12,19
518,763	13,04
519,247	12,87
519,731	13,42
520,215	13,53
520,699	13,81
521,182	14,03
521,666	14,27
522,149	14,84
522,633	14,82
523,116	15,22
523,599	15,82
524,082	15,84
524,565	15,94
525,048	16,49
525,53	16,16
526,013	16,87
526,495	17,01
526,978	17,2
527,46	17,37
527,942	17,27
528,424	17,85
528,906	18,11
529,388	18,07
529,87	18,59
530,351	18,79
530,833	19,06
531,314	19,11
531,795	18,76
532,277	19,48
532,758	19,44
533,238	19,36
533,719	19,66
534,2	19,56
534,681	20,33
535,161	20,08
535,642	20,59
536,122	19,91
536,602	20,06
537,082	20,39
537,562	20,87
538,042	20,54
538,522	20,41
539,001	20,62
539,481	21,02
539,96	20,32
540,44	20,78
540,919	20,55
541,398	20,96
541,877	20,57
542,356	21,09
542,835	21,06
543,313	21,04
543,792	21,42
544,27	20,99
544,749	21,43
545,227	21,32
545,705	21,5
546,183	21,6
546,661	21,34
547,139	21,44
547,616	21,29
548,094	21,72
548,571	21,67
549,049	21,93
549,526	21,41
550,003	21,94
550,48	21,63
550,957	21,49
551,434	21,82
551,911	21,48
552,387	21,81
552,864	21,73
553,34	21,72
553,817	21,75
554,293	21,73
554,769	21,43
555,245	21,83
555,721	21,6
556,197	21,95
556,672	21,5
557,148	21,72
557,623	21,75
558,099	21,38
558,574	21,76
559,049	21,24
559,524	21,89
559,999	21,41
560,474	21,13
560,948	21,24
561,423	21,27
561,897	21,02
562,372	20,91
562,846	21,09
563,32	21,09
563,794	20,61
564,268	20,67
564,742	20,44
565,216	20,16
565,69	20,03
566,163	20,15
566,636	19,66
567,11	19,48
567,583	19,61
568,056	19,46
568,529	19,37
569,002	18,97
569,475	19,16
569,947	18,56
570,42	18,75
570,892	18,65
571,365	18,2
571,837	18,43
572,309	18,35
572,781	18,07
573,253	18,02
573,725	17,53
574,197	17,63
574,668	17,3
575,14	17,04
575,611	17,16
576,082	16,68
576,554	16,61
577,025	16,53
577,496	16,6
577,967	16,22
578,437	16,06
578,908	16,17
579,379	15,85
579,849	15,94
580,319	15,71
580,79	15,37
581,26	15,41
581,73	15,36
582,2	14,98
582,669	15,19
583,139	14,92
583,609	14,99
584,078	14,96
584,548	14,46
585,017	14,68
585,486	14,47
585,955	14,6
586,424	14,52
586,893	14,38
587,362	14,1
587,83	13,93
588,299	14,2
588,767	14,21
589,236	14,11
589,704	13,84
590,172	13,93
590,64	13,81
591,108	13,7
591,576	13,54
592,043	13,37
592,511	13,47
592,978	13,5
593,446	13,35
593,913	13,44
594,38	13,46
594,847	13,38
595,314	13,3
595,781	13,19
596,248	13,29
596,715	13,19
597,181	13,04
597,647	13,11
598,114	13,11
598,58	13,12
599,046	13,05
599,512	12,91
599,978	12,8
600,444	12,96
600,91	12,96
601,375	12,82
601,841	12,92
602,306	12,68
602,771	12,62
603,236	12,57
603,702	12,84
604,167	12,57
604,631	12,6
605,096	12,67
605,561	12,41
606,025	12,44
606,49	12,29
606,954	12,02
607,418	12,08
607,882	12,02
608,347	11,86
608,81	12,01
609,274	11,66
609,738	11,66
610,202	11,74
610,665	11,59
611,128	11,47
611,592	11,51
612,055	11,38
612,518	11,4
612,981	11,21
613,444	11,12
613,907	11,02
614,369	11,03
614,832	10,83
615,294	10,77
615,757	10,82
616,219	10,89
616,681	10,64
617,143	10,71
617,605	10,65
618,067	10,56
618,529	10,21
618,99	10,44
619,452	10,19
619,913	10,23
620,375	10,3
620,836	10,23
621,297	10,1
621,758	10,13
622,219	10,02
622,68	9,99
623,14	9,84
623,601	9,97
624,061	9,85
624,522	9,93
624,982	9,92
625,442	9,92
625,902	9,78
626,362	9,55
626,822	9,85
627,282	9,97
627,742	9,84
628,201	9,75
628,661	9,87
629,12	9,84
629,579	9,78
630,038	9,61
630,497	9,83
630,956	9,72
631,415	9,51
631,874	9,55
632,332	9,62
632,791	9,63
633,249	9,44
633,708	9,48
634,166	9,38
634,624	9,26
635,082	9,37
635,54	9,28
635,998	9,17
636,455	9,02
636,913	9,15
637,37	9,02
637,828	8,78
638,285	8,83
638,742	8,79
639,199	8,59
639,656	8,66
640,113	8,53
640,57	8,48
641,027	8,25
641,483	8,28
641,94	8,32
642,396	8,14
642,852	8,1
643,309	7,89
643,765	7,94
644,221	7,69
644,676	7,71
645,132	7,6
645,588	7,61
646,043	7,37
646,499	7,42
646,954	7,45
647,409	7,37
647,864	7,22
648,319	7,17
648,774	7,12
649,229	7,05
649,684	6,96
650,139	7,05
650,593	6,88
651,047	6,86
651,502	6,79
651,956	6,82
652,41	6,84
652,864	6,7
653,318	6,68
653,772	6,68
654,225	6,62
654,679	6,67
655,133	6,59
655,586	6,62
656,039	6,41
656,492	6,49
656,946	6,45
657,399	6,49
657,851	6,45
658,304	6,43
658,757	6,36
659,209	6,31
659,662	6,27
660,114	6,18
660,567	6,35
661,019	6,06
661,471	6,05
661,923	6,03
662,375	6,03
662,826	6,05
663,278	6,08
663,73	5,98
664,181	5,8
664,632	6
665,084	5,94
665,535	5,87
665,986	6
666,437	5,97
666,888	6,01
667,338	5,92
667,789	5,97
668,24	5,9
668,69	6,02
669,14	6,02
669,591	5,97
670,041	6,14
670,491	6,21
670,941	6,14
671,391	6,25
671,84	6,28
672,29	6,38
672,74	6,5
673,189	6,44
673,638	6,56
674,088	6,61
674,537	6,66
674,986	6,7
675,435	6,79
675,883	6,85
676,332	6,87
676,781	7,08
677,229	7,07
677,678	7,11
678,126	7,2
678,574	7,42
679,022	7,49
679,47	7,6
679,918	7,68
680,366	7,74
680,814	7,81
681,261	7,89
681,709	8,04
682,156	8,29
682,604	8,24
683,051	8,28
683,498	8,5
683,945	8,4
684,392	8,46
684,839	8,57
685,286	8,64
685,732	8,76
686,179	8,93
686,625	8,96
687,071	9,02
687,518	9
687,964	9,17
688,41	9,22
688,856	9,36
689,301	9,66
689,747	9,66
690,193	9,9
690,638	10,17
691,084	10,36
691,529	10,6
691,974	10,95
692,419	11,15
692,864	11,64
693,309	11,86
693,754	12,21
694,199	12,65
694,643	12,93
695,088	13,44
695,532	13,86
695,977	14,46
696,421	14,8
696,865	15,34
697,309	15,8
697,753	16,23
698,197	16,74
698,64	17,36
699,084	17,7
699,527	18,29
699,971	18,76
700,414	19,23
700,857	19,82
701,3	20,25
701,743	20,95
702,186	21,07
702,629	21,59
703,072	22,48
703,515	22,62
703,957	22,94
704,399	23,59
704,842	24,19
705,284	24,49
705,726	24,77
706,168	25,46
706,61	25,96
707,052	26,28
707,494	26,82
707,935	27,2
708,377	27,92
708,818	28,1
709,26	28,6
709,701	28,93
710,142	29,56
710,583	29,59
711,024	29,9
711,465	30,47
711,905	30,97
712,346	31,14
712,787	31,2
713,227	31,99
713,667	32,27
714,108	32,78
714,548	32,96
714,988	33,32
715,428	33,98
715,868	34,06
716,307	34,25
716,747	34,86
717,186	35,23
717,626	35,34
718,065	35,75
718,504	35,86
718,944	36,35
719,383	36,99
719,822	36,88
720,261	36,95
720,699	37,5
721,138	37,57
721,576	37,81
722,015	38,53
722,453	38,46
722,892	38,61
723,33	39,06
723,768	39,57
724,206	39,32
724,644	39,47
725,081	39,89
725,519	39,81
725,957	40,26
726,394	40,58
726,832	40,43
727,269	40,39
727,706	40,98
728,143	40,83
728,58	41,34
729,017	41,05
729,454	41,61
729,89	41,7
730,327	41,64
730,764	42,27
731,2	42,04
731,636	42,38
732,072	42,39
732,509	42,66
732,945	42,47
733,38	42,42
733,816	43,09
734,252	42,87
734,688	42,91
735,123	42,83
735,559	43,04
735,994	43,01
736,429	43,49
736,864	43,31
737,299	43,29
737,734	43,63
738,169	43,35
738,604	43,64
739,038	43,53
739,473	43,87
739,907	43,82
740,342	43,66
740,776	43,81
741,21	43,68
741,644	43,67
742,078	43,8
742,512	43,84
742,946	43,59
743,379	43,61
743,813	44,03
744,246	43,73
744,68	43,77
745,113	43,78
745,546	43,64
745,979	43,79
746,412	43,64
746,845	43,5
747,278	43,87
747,711	43,98
748,143	43,59
748,576	43,8
749,008	44,08
749,441	43,57
749,873	43,52
750,305	43,81
750,737	43,45
751,169	43,32
751,601	43,55
752,032	43,52
752,464	43,24
752,896	43,21
753,327	43,42
753,758	43,47
754,19	42,98
754,621	43,3
755,052	43,17
755,483	43,55
755,914	43,31
756,344	43,28
756,775	43,56
757,206	42,95
757,636	43,3
758,066	43,14
758,497	42,93
758,927	43,32
759,357	43,05
759,787	43,1
760,217	42,87
760,647	42,82
761,076	42,84
761,506	42,47
761,935	42,85
762,365	42,75
762,794	42,68
763,223	42,73
763,653	42,72
764,082	42,4
764,51	42,73
764,939	42,64
765,368	42,52
765,797	42,49
766,225	42,59
766,654	42,2
767,082	42,16
767,51	42,49
767,938	41,95
768,367	42,32
768,795	42,23
769,222	42,47
769,65	42,53
770,078	42,17
770,505	42,16
770,933	42,23
771,36	42,26
771,788	42,26
772,215	41,93
772,642	42,3
773,069	42,12
773,496	42,11
773,923	41,67
774,349	41,97
774,776	42,13
775,203	42,1
775,629	42,01
776,055	41,83
776,482	41,86
776,908	41,67
777,334	41,69
777,76	41,86
778,186	41,99
778,611	41,96
779,037	41,73
779,463	41,75
779,888	41,88
780,314	41,64
780,739	42,07
781,164	41,7
781,589	41,7
782,014	41,75
782,439	41,74
782,864	41,84
783,289	42,06
783,713	41,55
784,138	41,62
784,562	41,51
784,987	41,53
785,411	41,38
785,835	41,57
786,259	41,51
786,683	41,92
787,107	41,63
787,531	41,46
787,954	41,53
788,378	41,46
788,802	41,33
789,225	41,35
789,648	41,74
790,071	40,84
790,495	41,63
790,918	41,46
791,34	41,33
791,763	41,42
792,186	41,31
792,609	41,42
793,031	41,29
793,454	41,49
793,876	41,43
794,298	41,32
794,721	41,12
795,143	41,46
795,565	40,95
795,986	41,07
796,408	41,23
796,83	41,27
797,252	41,37
797,673	41,42
798,094	41,41
798,516	41,36
798,937	41,47
799,358	41,13
799,779	40,71
800,2	41,6
800,621	41,23
801,042	41,34
801,462	41,08
801,883	41,06
802,303	41,19
802,724	41,16
803,144	41,05
803,564	41,31
803,984	41,47
804,404	41,23
804,824	41,22
805,244	41,39
805,664	41,51
806,084	41,48
806,503	41,33
806,923	41,27
807,342	41,2
807,761	41,04
808,18	41,18
808,599	40,88
809,018	41,39
809,437	41,04
809,856	40,77
810,275	41,35
810,693	41,2
811,112	41,24
811,53	41,47
811,949	41,34
812,367	41,55
812,785	41,11
813,203	41,14
813,621	41,06
814,039	41,17
814,457	41,08
814,874	40,87
815,292	40,98
815,709	41,06
816,127	41,04
816,544	41,29
816,961	41,11
817,378	41,58
817,795	41,66
818,212	41,31
818,629	41,47
819,046	40,65
819,462	41,02
819,879	41,13
820,295	41,2
820,712	40,93
821,128	40,89
821,544	41,05
821,96	40,99
822,376	41,09
822,792	40,91
823,208	40,9
823,624	41,23
824,039	40,88
824,455	40,97
824,87	40,66
825,286	40,83
825,701	41,05
826,116	40,87
826,531	40,8
826,946	40,68
827,361	40,7
827,776	40,88
828,19	40,63
828,605	40,44
829,02	40,55
829,434	40,72
829,848	40,95
830,263	40,83
830,677	40,83
831,091	40,74
831,505	40,7
831,919	41
832,332	40,84
832,746	40,71
833,16	40,57
833,573	40,75
833,987	41,1
834,4	40,33
834,813	40,62
835,226	40,62
835,639	40,75
836,052	40,52
836,465	40,81
836,878	40,51
837,29	40,76
837,703	40,73
838,116	40,71
838,528	40,81
838,94	40,87
839,352	40,92
839,765	40,83
840,177	40,63
840,589	40,9
841	40,45
841,412	40,89
841,824	40,67
842,235	40,74
842,647	40,6
