Data from D3___Relative__2__00057.txt Node

Date: Wed Jan 31 18:23:05 CET 2024
User: diatiterra
Spectrometer: HDX00911
Trigger mode: 0
Integration Time (sec): 6,000000E-3
Scans to average: 2
Nonlinearity correction enabled: false
Boxcar width: 0
Storing dark spectrum: false
XAxis mode: Wavelengths
Number of Pixels in Spectrum: 2068
>>>>>Begin Spectral Data<<<<<
194,468	229,25
195,025	168,18
195,581	213,41
196,138	207,69
196,694	141,98
197,251	121,21
197,807	100,79
198,363	102,4
198,919	88,28
199,474	101,1
200,03	105,33
200,586	114,73
201,141	80,65
201,696	94,3
202,251	95,45
202,806	91,26
203,361	97,78
203,916	94,1
204,471	95,62
205,025	114,52
205,58	105
206,134	107,2
206,688	97,31
207,242	112,39
207,796	96,99
208,35	97,46
208,904	102,41
209,457	85,76
210,011	92,55
210,564	100
211,117	94,74
211,67	108,58
212,223	105,82
212,776	115,73
213,329	91
213,881	125,49
214,434	92,43
214,986	115,29
215,538	104,41
216,09	93,31
216,642	104,13
217,194	101,52
217,746	103,38
218,297	109,92
218,849	106,25
219,4	117,65
219,951	103,63
220,502	98,99
221,053	108,78
221,604	99,33
222,155	103,17
222,705	93,01
223,256	110,45
223,806	112,99
224,356	103,08
224,906	112,9
225,456	105,81
226,006	97,22
226,556	79,55
227,106	106,05
227,655	96,18
228,204	100,83
228,754	97,89
229,303	102,5
229,852	99,64
230,401	98,88
230,949	101,8
231,498	100
232,047	92,86
232,595	102,76
233,143	102,36
233,691	102,71
234,239	95,71
234,787	101,6
235,335	97,01
235,883	98,25
236,43	104,17
236,978	108,08
237,525	100,73
238,072	96,81
238,619	96,21
239,166	100
239,713	102,55
240,26	98,21
240,806	103,12
241,353	106,75
241,899	98,6
242,445	102,19
242,991	104,2
243,537	101,14
244,083	108,4
244,629	106,92
245,174	111,06
245,72	102,22
246,265	101,19
246,81	110,8
247,355	106,75
247,9	85,07
248,445	107,14
248,99	95,45
249,534	118,26
250,079	103,01
250,623	101,85
251,168	113,64
251,712	112,5
252,256	114,75
252,8	107,31
253,343	95,36
253,887	99,6
254,43	114,12
254,974	109,92
255,517	97,26
256,06	110
256,603	99,63
257,146	105,04
257,689	111,81
258,232	119,92
258,774	103,9
259,317	116,53
259,859	120,64
260,401	113,57
260,943	97,52
261,485	107,8
262,027	107,2
262,569	106,34
263,11	102,69
263,652	119,29
264,193	107,02
264,734	105,11
265,275	119,26
265,816	106,87
266,357	111,63
266,898	100,38
267,438	110,63
267,979	105,76
268,519	100,37
269,059	115,89
269,6	108,27
270,14	123,39
270,68	103,26
271,219	111,86
271,759	96,99
272,298	104,89
272,838	108,46
273,377	108,33
273,916	99,28
274,455	106,57
274,994	92
275,533	102,9
276,072	110,16
276,61	96,38
277,149	109,58
277,687	103,38
278,225	95,33
278,763	126,75
279,301	115
279,839	106,45
280,377	109,43
280,914	94,06
281,452	118,38
281,989	110,33
282,526	109,06
283,064	117,65
283,601	90,88
284,137	111,98
284,674	107,92
285,211	117,98
285,747	101,89
286,284	124,77
286,82	109,92
287,356	88,49
287,892	105,81
288,428	108,26
288,964	126,47
289,5	117,36
290,035	110,8
290,571	108,4
291,106	112,6
291,641	120,98
292,176	110,16
292,711	107,72
293,246	104,23
293,781	116,94
294,315	89,08
294,85	122,69
295,384	104,92
295,918	93,75
296,453	89,18
296,987	98,76
297,52	98,76
298,054	100
298,588	99,17
299,121	97,76
299,655	100
300,188	100,42
300,721	100,41
301,254	101,21
301,787	107,03
302,32	115,45
302,853	105,2
303,385	101,07
303,918	105,43
304,45	107,31
304,982	96,45
305,514	100
306,046	95,45
306,578	97,67
307,11	101,55
307,641	104,31
308,173	99,17
308,704	90,5
309,236	92,48
309,767	97,87
310,298	95,97
310,829	108,7
311,359	101,21
311,89	111,34
312,421	114,41
312,951	108,94
313,481	87,93
314,012	96,27
314,542	111,02
315,072	97,33
315,601	102,4
316,131	107,48
316,661	106,67
317,19	93,33
317,72	116,94
318,249	105,95
318,778	101,17
319,307	107,03
319,836	104,42
320,365	103,04
320,893	111,98
321,422	110,57
321,95	105,64
322,479	110,31
323,007	105,91
323,535	99,64
324,063	105,6
324,591	106,8
325,118	99,27
325,646	112,18
326,173	108,33
326,701	112,2
327,228	116,38
327,755	100
328,282	101,91
328,809	111,02
329,336	110,24
329,862	99,63
330,389	98,83
330,915	105,91
331,441	98,85
331,968	111,71
332,494	101,89
333,02	103,33
333,545	94,78
334,071	110,74
334,597	90,85
335,122	100,74
335,648	108,62
336,173	96,21
336,698	90,19
337,223	93,38
337,748	95,83
338,272	94,18
338,797	92,03
339,322	85,77
339,846	90,81
340,37	105,24
340,894	91,67
341,419	100,38
341,942	93,71
342,466	89,74
342,99	87,25
343,514	99,3
344,037	81,65
344,56	98,89
345,084	95,55
345,607	95,49
346,13	98,59
346,653	95
347,175	91,35
347,698	84,91
348,221	88,57
348,743	84,47
349,265	88,85
349,787	80,67
350,309	86,71
350,831	79,01
351,353	89,33
351,875	78,95
352,397	90,21
352,918	86,84
353,439	90,07
353,961	71,8
354,482	79,82
355,003	79,36
355,524	80
356,044	75,57
356,565	86,45
357,086	78,81
357,606	68,96
358,126	71,54
358,646	72,45
359,167	83,24
359,687	73,73
360,206	72,95
360,726	71,33
361,246	73,14
361,765	79,94
362,285	67,25
362,804	73,68
363,323	67,07
363,842	73,08
364,361	70,4
364,88	69,21
365,398	68,12
365,917	69,34
366,435	80,47
366,954	70,76
367,472	66,51
367,99	72,75
368,508	66,19
369,026	72,5
369,544	68,2
370,061	66,81
370,579	66,39
371,096	71,56
371,613	64,44
372,131	61,02
372,648	61,61
373,165	65,23
373,681	62,87
374,198	70,7
374,715	66,73
375,231	65,91
375,747	58,45
376,264	60,71
376,78	60,79
377,296	67,1
377,812	60,96
378,327	60,93
378,843	61,26
379,359	62,75
379,874	63,49
380,389	55,99
380,905	52,54
381,42	56,99
381,935	57,93
382,449	56,78
382,964	54,57
383,479	53,3
383,993	54,85
384,508	51,84
385,022	49,87
385,536	51,97
386,05	51,44
386,564	51,99
387,078	51,2
387,592	51,09
388,105	53,9
388,619	48,77
389,132	48,43
389,645	47,93
390,158	44,42
390,671	47,15
391,184	44,84
391,697	42,38
392,21	38,52
392,722	42,06
393,235	43,34
393,747	39,98
394,259	44,01
394,771	39,76
395,283	41,03
395,795	40,67
396,307	41,31
396,818	40,61
397,33	36,73
397,841	37,88
398,353	36,8
398,864	36,98
399,375	36,81
399,886	35,62
400,397	34,74
400,907	34,48
401,418	31,88
401,928	32,62
402,439	32,33
402,949	30,94
403,459	32,04
403,969	32,94
404,479	28,77
404,989	29,19
405,498	28,21
406,008	28,66
406,517	26,1
407,027	24,34
407,536	25,58
408,045	24,44
408,554	23,26
409,063	22,03
409,572	21,71
410,08	21,11
410,589	20,81
411,097	20,17
411,606	21,23
412,114	19,37
412,622	18,8
413,13	18,25
413,638	16,95
414,145	17,29
414,653	16,3
415,16	15,68
415,668	16,39
416,175	15,22
416,682	14,59
417,189	14
417,696	14,65
418,203	14,93
418,71	14,41
419,216	13,99
419,723	13,6
420,229	14,03
420,735	13,05
421,242	13,08
421,748	12,9
422,254	12,6
422,759	12,21
423,265	12,12
423,771	12,41
424,276	12,11
424,781	11,79
425,287	12,16
425,792	11,63
426,297	11,93
426,802	11,69
427,306	12,04
427,811	12,07
428,316	11,33
428,82	11,4
429,324	11,43
429,829	11,4
430,333	11,13
430,837	10,9
431,34	11,04
431,844	11,08
432,348	10,83
432,851	10,49
433,355	10,81
433,858	10,69
434,361	10,49
434,864	10,65
435,367	10,26
435,87	11,33
436,373	10,88
436,876	10,48
437,378	10,85
437,88	10,67
438,383	10,85
438,885	10,27
439,387	10,51
439,889	11,12
440,391	10,34
440,892	10,56
441,394	10,16
441,896	10,28
442,397	10,68
442,898	10,33
443,399	10,28
443,9	10,06
444,401	9,94
444,902	10,29
445,403	10,36
445,903	10,55
446,404	10,5
446,904	10,39
447,405	10,09
447,905	10,24
448,405	10,38
448,905	10,38
449,404	10,69
449,904	10,45
450,404	10,12
450,903	10,43
451,403	10,31
451,902	10,43
452,401	10,65
452,9	10,38
453,399	10,41
453,898	10,31
454,396	10,16
454,895	10,15
455,393	10,22
455,892	10,37
456,39	10,22
456,888	10,36
457,386	10,4
457,884	10,67
458,382	10,5
458,879	10,27
459,377	10,76
459,874	10,55
460,372	10,51
460,869	9,95
461,366	10,21
461,863	10,39
462,36	10,07
462,857	10,37
463,353	10,57
463,85	10,62
464,346	10,18
464,843	10,29
465,339	9,98
465,835	10,36
466,331	10,2
466,827	10,31
467,323	10,21
467,818	10,1
468,314	10,5
468,809	10,02
469,305	9,88
469,8	10,53
470,295	10,48
470,79	10,22
471,285	10,2
471,78	10,13
472,274	9,96
472,769	9,99
473,263	10,11
473,758	10,15
474,252	10,08
474,746	10,26
475,24	10,32
475,734	9,79
476,228	10,38
476,721	10,14
477,215	10
477,708	10,08
478,202	10,14
478,695	10,05
479,188	10,16
479,681	10,02
480,174	10,44
480,667	10,41
481,159	10,62
481,652	10,23
482,144	10,43
482,637	10,78
483,129	10,2
483,621	10,41
484,113	10,51
484,605	10,51
485,097	10,4
485,588	10,35
486,08	10,38
486,571	10,55
487,063	10,4
487,554	10,35
488,045	10,54
488,536	10,8
489,027	10,8
489,518	10,79
490,008	10,55
490,499	10,62
490,989	10,5
491,48	10,77
491,97	11,1
492,46	10,44
492,95	10,77
493,44	11,06
493,93	10,86
494,419	10,64
494,909	11,13
495,398	11,06
495,888	10,92
496,377	11,2
496,866	11,17
497,355	11,22
497,844	11,06
498,333	11,69
498,821	11,37
499,31	11,64
499,798	11,59
500,287	11,72
500,775	11,66
501,263	12,13
501,751	11,72
502,239	12,54
502,727	12,4
503,215	12,52
503,702	12,66
504,19	12,75
504,677	13,06
505,164	13,33
505,651	13,45
506,139	13,6
506,625	13,6
507,112	13,53
507,599	14,19
508,086	14,27
508,572	14,65
509,058	14,82
509,545	14,69
510,031	15,11
510,517	15,36
511,003	15,35
511,489	16,07
511,974	16,3
512,46	16,28
512,946	16,54
513,431	17,11
513,916	17,19
514,401	17,42
514,887	17,58
515,371	18,2
515,856	18,51
516,341	18,71
516,826	18,85
517,31	19,12
517,795	19,94
518,279	19,84
518,763	20,75
519,247	20,8
519,731	21,19
520,215	21,78
520,699	21,72
521,182	22,02
521,666	22,63
522,149	22,94
522,633	23,45
523,116	24,18
523,599	24,63
524,082	24,08
524,565	24,58
525,048	25,26
525,53	25,43
526,013	25,76
526,495	25,86
526,978	26,51
527,46	26,94
527,942	26,97
528,424	27,82
528,906	27,31
529,388	27,18
529,87	28,43
530,351	27,97
530,833	28,63
531,314	28,79
531,795	28,48
532,277	29,26
532,758	28,96
533,238	29,17
533,719	29,37
534,2	29,11
534,681	30,15
535,161	30,27
535,642	30,45
536,122	30,08
536,602	29,86
537,082	30,38
537,562	30,84
538,042	30,38
538,522	30,65
539,001	30,76
539,481	30,76
539,96	30,76
540,44	30,73
540,919	31,14
541,398	30,73
541,877	31,07
542,356	31,04
542,835	30,98
543,313	31,23
543,792	31,22
544,27	31,38
544,749	31,73
545,227	31,96
545,705	31,88
546,183	32,06
546,661	31,65
547,139	31,71
547,616	31,29
548,094	31,33
548,571	31,9
549,049	31,9
549,526	31,67
550,003	32,41
550,48	31,8
550,957	32,12
551,434	31,53
551,911	32,05
552,387	31,9
552,864	32,13
553,34	32,55
553,817	31,91
554,293	31,93
554,769	31,97
555,245	31,96
555,721	32,08
556,197	32,43
556,672	31,94
557,148	32,08
557,623	32,04
558,099	31,87
558,574	32,2
559,049	31,42
559,524	32,08
559,999	31,63
560,474	31,51
560,948	31,24
561,423	31,58
561,897	31,03
562,372	31,14
562,846	31,11
563,32	30,84
563,794	31,05
564,268	30,91
564,742	30,74
565,216	30,26
565,69	29,92
566,163	30,17
566,636	29,57
567,11	29,66
567,583	29,28
568,056	29,23
568,529	29,4
569,002	28,97
569,475	28,82
569,947	28,67
570,42	28,48
570,892	28,21
571,365	27,79
571,837	27,72
572,309	27,81
572,781	27,23
573,253	27,37
573,725	27
574,197	27,01
574,668	26,63
575,14	26,34
575,611	26,43
576,082	25,85
576,554	25,38
577,025	25,33
577,496	25,2
577,967	24,91
578,437	25,29
578,908	24,67
579,379	24,5
579,849	24,72
580,319	24,26
580,79	24,1
581,26	24,11
581,73	23,86
582,2	23,79
582,669	23,54
583,139	23,56
583,609	23,35
584,078	23,69
584,548	22,97
585,017	23,42
585,486	22,89
585,955	22,77
586,424	22,55
586,893	22,68
587,362	22,51
587,83	22,44
588,299	22,07
588,767	22,4
589,236	22,53
589,704	22,02
590,172	21,97
590,64	21,73
591,108	21,68
591,576	21,81
592,043	21,96
592,511	21,93
592,978	21,72
593,446	21,15
593,913	21,13
594,38	21,22
594,847	21,19
595,314	21,23
595,781	21,33
596,248	21,05
596,715	21,12
597,181	21,05
597,647	20,94
598,114	20,82
598,58	20,78
599,046	20,94
599,512	20,95
599,978	20,46
600,444	20,59
600,91	20,62
601,375	20,7
601,841	20,77
602,306	20,54
602,771	20,54
603,236	20,41
603,702	20,42
604,167	20,48
604,631	20,02
605,096	20,19
605,561	20,29
606,025	20,04
606,49	19,84
606,954	19,81
607,418	19,53
607,882	19,54
608,347	19,51
608,81	19,38
609,274	19,23
609,738	19,18
610,202	19,05
610,665	19,09
611,128	18,76
611,592	18,93
612,055	18,63
612,518	18,45
612,981	18,66
613,444	18,53
613,907	18,29
614,369	18,09
614,832	18,22
615,294	18,01
615,757	17,95
616,219	17,94
616,681	17,45
617,143	17,85
617,605	17,73
618,067	17,33
618,529	17,39
618,99	17,19
619,452	17,05
619,913	17,09
620,375	17,23
620,836	17,29
621,297	17,26
621,758	16,94
622,219	16,61
622,68	17,02
623,14	16,65
623,601	16,59
624,061	16,65
624,522	16,61
624,982	16,49
625,442	16,71
625,902	16,52
626,362	16,37
626,822	16,32
627,282	16,45
627,742	16,66
628,201	16,48
628,661	16,4
629,12	16,34
629,579	16,24
630,038	16,4
630,497	16,38
630,956	16,27
631,415	16,01
631,874	16,35
632,332	16,19
632,791	16,02
633,249	16,07
633,708	16,01
634,166	15,88
634,624	15,71
635,082	15,66
635,54	15,84
635,998	15,47
636,455	15,5
636,913	15,31
637,37	15,3
637,828	15,31
638,285	15,09
638,742	14,86
639,199	14,95
639,656	14,75
640,113	14,78
640,57	14,51
641,027	14,33
641,483	14,17
641,94	14,04
642,396	13,99
642,852	13,99
643,309	13,73
643,765	13,52
644,221	13,44
644,676	13,28
645,132	13,22
645,588	13,08
646,043	12,95
646,499	12,9
646,954	12,77
647,409	12,59
647,864	12,66
648,319	12,5
648,774	12,31
649,229	12,18
649,684	12,25
650,139	11,93
650,593	11,97
651,047	12,04
651,502	11,89
651,956	11,8
652,41	11,87
652,864	11,73
653,318	11,76
653,772	11,41
654,225	11,71
654,679	11,51
655,133	11,51
655,586	11,43
656,039	11,3
656,492	11,2
656,946	11,11
657,399	11,19
657,851	11,23
658,304	11,09
658,757	11,03
659,209	11,09
659,662	10,84
660,114	10,86
660,567	10,79
661,019	10,54
661,471	10,66
661,923	10,49
662,375	10,53
662,826	10,56
663,278	10,31
663,73	10,39
664,181	10,17
664,632	10,24
665,084	10,26
665,535	10,15
665,986	10,23
666,437	10,05
666,888	10,11
667,338	10,11
667,789	10,2
668,24	10,23
668,69	10,07
669,14	10,08
669,591	10,25
670,041	10,41
670,491	10,36
670,941	10,25
671,391	10,2
671,84	10,48
672,29	10,35
672,74	10,43
673,189	10,62
673,638	10,6
674,088	10,8
674,537	10,7
674,986	10,89
675,435	11,05
675,883	11,04
676,332	11,11
676,781	11,14
677,229	11,34
677,678	11,45
678,126	11,55
678,574	11,65
679,022	11,88
679,47	11,99
679,918	12,09
680,366	12,17
680,814	12,24
681,261	12,45
681,709	12,48
682,156	12,7
682,604	12,74
683,051	12,97
683,498	13,09
683,945	13,01
684,392	13,21
684,839	13,43
685,286	13,5
685,732	13,79
686,179	13,81
686,625	14,12
687,071	14,22
687,518	14,44
687,964	14,69
688,41	14,83
688,856	14,92
689,301	15,31
689,747	15,47
690,193	16,11
690,638	16,04
691,084	16,49
691,529	16,96
691,974	17,44
692,419	17,9
692,864	18,49
693,309	18,73
693,754	19,26
694,199	20,01
694,643	20,37
695,088	21,1
695,532	21,53
695,977	22,35
696,421	22,83
696,865	23,36
697,309	23,97
697,753	24,55
698,197	25,44
698,64	25,94
699,084	26,61
699,527	27,16
699,971	27,72
700,414	28,37
700,857	29,32
701,3	29,36
701,743	30,45
702,186	30,76
702,629	31,39
703,072	32,25
703,515	32,42
703,957	33,09
704,399	33,69
704,842	34,18
705,284	34,61
705,726	35,12
706,168	35,38
706,61	36,44
707,052	36,66
707,494	37,34
707,935	37,57
708,377	38,26
708,818	38,57
709,26	38,93
709,701	39,53
710,142	40,19
710,583	40,1
711,024	40,73
711,465	41,36
711,905	41,66
712,346	41,82
712,787	42,3
713,227	42,8
713,667	43,06
714,108	43,64
714,548	44,02
714,988	44,52
715,428	44,68
715,868	45,49
716,307	45,47
716,747	45,77
717,186	46,11
717,626	46,33
718,065	46,83
718,504	47,1
718,944	47,67
719,383	47,93
719,822	48,14
720,261	48,15
720,699	48,64
721,138	48,27
721,576	49,24
722,015	49,67
722,453	49,65
722,892	49,92
723,33	50
723,768	50,54
724,206	50,72
724,644	50,69
725,081	51,02
725,519	51,19
725,957	51,44
726,394	51,53
726,832	51,48
727,269	51,47
727,706	52,15
728,143	52,08
728,58	52,32
729,017	52,35
729,454	52,55
729,89	52,93
730,327	52,58
730,764	53,15
731,2	53,28
731,636	53,31
732,072	53,71
732,509	53,53
732,945	53,65
733,38	53,54
733,816	53,88
734,252	53,83
734,688	54,1
735,123	53,93
735,559	54,46
735,994	54,2
736,429	54,31
736,864	54,69
737,299	54,5
737,734	54,81
738,169	54,74
738,604	54,58
739,038	54,17
739,473	54,53
739,907	54,62
740,342	54,54
740,776	54,82
741,21	54,63
741,644	55,18
742,078	54,9
742,512	54,61
742,946	54,97
743,379	54,52
743,813	54,66
744,246	54,71
744,68	54,6
745,113	54,58
745,546	54,6
745,979	54,76
746,412	54,58
746,845	54,41
747,278	54,34
747,711	54,18
748,143	54,52
748,576	54,54
749,008	54,65
749,441	54,15
749,873	54,25
750,305	54,52
750,737	53,86
751,169	54,15
751,601	53,99
752,032	53,82
752,464	53,91
752,896	54,01
753,327	54,11
753,758	54,2
754,19	53,7
754,621	53,69
755,052	53,63
755,483	53,94
755,914	53,83
756,344	53,72
756,775	54,06
757,206	53,76
757,636	53,67
758,066	53,61
758,497	53,7
758,927	53,79
759,357	53,75
759,787	53,54
760,217	53,22
760,647	53,27
761,076	53,38
761,506	52,75
761,935	53,1
762,365	53,54
762,794	52,81
763,223	53,42
763,653	53,31
764,082	52,72
764,51	53,23
764,939	53,32
765,368	52,92
765,797	53,09
766,225	52,86
766,654	52,72
767,082	52,65
767,51	52,73
767,938	52,5
768,367	52,73
768,795	52,12
769,222	52,9
769,65	52,82
770,078	52,42
770,505	52,85
770,933	52,41
771,36	53,05
771,788	52,22
772,215	52,46
772,642	52,36
773,069	52,51
773,496	52,05
773,923	52,16
774,349	51,96
774,776	52,38
775,203	52,27
775,629	52,43
776,055	51,62
776,482	52,12
776,908	51,85
777,334	51,78
777,76	52,07
778,186	52,28
778,611	52,38
779,037	52,3
779,463	52,09
779,888	51,94
780,314	51,77
780,739	52,11
781,164	52,16
781,589	51,69
782,014	51,94
782,439	51,98
782,864	51,93
783,289	51,99
783,713	51,64
784,138	51,66
784,562	51,64
784,987	51,66
785,411	51,54
785,835	51,3
786,259	51,64
786,683	52,11
787,107	51,66
787,531	51,57
787,954	51,44
788,378	51,46
788,802	51,76
789,225	51,48
789,648	52,07
790,071	50,81
790,495	51,75
790,918	51,84
791,34	51,29
791,763	51,49
792,186	51,47
792,609	51,57
793,031	51,51
793,454	51,2
793,876	51,54
794,298	51,22
794,721	51,13
795,143	51,7
795,565	51,05
795,986	51,1
796,408	51,49
796,83	51,18
797,252	51,54
797,673	51,68
798,094	51,91
798,516	51,4
798,937	51,64
799,358	51
799,779	51,22
800,2	51,25
800,621	51,35
801,042	51,1
801,462	51,23
801,883	51,07
802,303	50,93
802,724	50,99
803,144	51,34
803,564	51,11
803,984	51,37
804,404	51,36
804,824	51,07
805,244	51,29
805,664	51,4
806,084	51,5
806,503	51,02
806,923	51,19
807,342	50,99
807,761	50,99
808,18	51,02
808,599	50,83
809,018	50,9
809,437	51,21
809,856	50,94
810,275	51,17
810,693	51,52
811,112	51,73
811,53	51,4
811,949	51,26
812,367	51,33
812,785	51,07
813,203	51,12
813,621	51,16
814,039	50,78
814,457	51,27
814,874	50,82
815,292	50,87
815,709	50,7
816,127	51,2
816,544	51,02
816,961	51,11
817,378	51,52
817,795	51
818,212	51,12
818,629	51,51
819,046	50,5
819,462	51,11
819,879	50,82
820,295	50,82
820,712	50,71
821,128	50,92
821,544	50,96
821,96	51,36
822,376	50,79
822,792	51,13
823,208	51,22
823,624	51,14
824,039	51
824,455	51,35
824,87	50,44
825,286	51,11
825,701	50,78
826,116	50,65
826,531	50,82
826,946	50,97
827,361	50,47
827,776	50,9
828,19	50,8
828,605	50,55
829,02	50,86
829,434	50,67
829,848	50,72
