Data from D3___Relative__1__00056.txt Node

Date: Wed Jan 31 18:23:02 CET 2024
User: diatiterra
Spectrometer: HDX00911
Trigger mode: 0
Integration Time (sec): 6,000000E-3
Scans to average: 2
Nonlinearity correction enabled: false
Boxcar width: 0
Storing dark spectrum: false
XAxis mode: Wavelengths
Number of Pixels in Spectrum: 2068
>>>>>Begin Spectral Data<<<<<
194,468	209,43
195,025	136,36
195,581	179,27
196,138	203,85
196,694	135,19
197,251	106,57
197,807	90,55
198,363	88,4
198,919	84,48
199,474	86,4
200,03	98,77
200,586	104,02
201,141	85,16
201,696	78,86
202,251	93,56
202,806	83,57
203,361	92,96
203,916	80,9
204,471	85,4
205,025	104,03
205,58	81,07
206,134	90,4
206,688	90,77
207,242	96,46
207,796	92,48
208,35	92,39
208,904	92,41
209,457	85,42
210,011	82,62
210,564	83,8
211,117	94,74
211,67	95,15
212,223	91,1
212,776	104,03
213,329	86,67
213,881	110,29
214,434	87,17
214,986	96,69
215,538	99,63
216,09	86,62
216,642	100
217,194	92,8
217,746	95,86
218,297	95,04
218,849	89,34
219,4	100
219,951	95,16
220,502	88,85
221,053	102,67
221,604	83,89
222,155	93,25
222,705	86,03
223,256	95,15
223,806	93,31
224,356	91,15
224,906	107,66
225,456	89,92
226,006	92,86
226,556	72,73
227,106	100,4
227,655	79,51
228,204	97,92
228,754	86,62
229,303	93,93
229,852	83,81
230,401	89,55
230,949	91,73
231,498	84,15
232,047	80,84
232,595	91,72
233,143	99,61
233,691	94,19
234,239	79,29
234,787	88
235,335	89,55
235,883	91,61
236,43	89,02
236,978	93,46
237,525	89,78
238,072	87,94
238,619	95,45
239,166	83,33
239,713	77,37
240,26	80
240,806	89,93
241,353	91,27
241,899	84,62
242,445	84,67
242,991	95,04
243,537	77,27
244,083	92,37
244,629	93,08
245,174	103,1
245,72	81,48
246,265	82,94
246,81	88,8
247,355	101,59
247,9	78,73
248,445	90,87
248,99	89,77
249,534	102,61
250,079	93,61
250,623	86,67
251,168	93,39
251,712	94,14
252,256	96,72
252,8	97,31
253,343	93,21
253,887	89,92
254,43	89,31
254,974	93,13
255,517	83,22
256,06	96,92
256,603	82,22
257,146	92,25
257,689	93,31
258,232	105,51
258,774	88,3
259,317	100
259,859	108,72
260,401	97,67
260,943	87,94
261,485	90,43
262,027	99,6
262,569	91,79
263,11	91,54
263,652	102,76
264,193	90,91
264,734	93,43
265,275	94,26
265,816	92,37
266,357	94,19
266,898	95,77
267,438	94,88
267,979	83,81
268,519	91,04
269,059	103,27
269,6	95,11
270,14	101,21
270,68	98,91
271,219	100,42
271,759	95,49
272,298	86,47
272,838	88,46
273,377	97,22
273,916	79,5
274,455	90,51
274,994	92,4
275,533	87,68
276,072	89,43
276,61	85,14
277,149	100,83
277,687	98,87
278,225	82,33
278,763	107,46
279,301	97,92
279,839	94,76
280,377	92,62
280,914	89,16
281,452	105,56
281,989	94,21
282,526	94,88
283,064	102,52
283,601	86,82
284,137	97,11
284,674	101,67
285,211	105,26
285,747	91,29
286,284	111,71
286,82	95,45
287,356	80,26
287,892	102,71
288,428	88,02
288,964	109,24
289,5	97,93
290,035	91,2
290,571	100,42
291,106	102,03
291,641	111,61
292,176	93,75
292,711	97,97
293,246	85,77
293,781	105,79
294,315	84,15
294,85	110,65
295,384	93,03
295,918	87,13
296,453	86,19
296,987	92,98
297,52	94,63
298,054	90,46
298,588	90,83
299,121	84,33
299,655	87,96
300,188	85,42
300,721	96,34
301,254	96,37
301,787	86,33
302,32	98,37
302,853	85,2
303,385	94,29
303,918	86,82
304,45	89,62
304,982	76,24
305,514	94,57
306,046	95,04
306,578	86,82
307,11	86,05
307,641	94,83
308,173	97,52
308,704	89,26
309,236	86,84
309,767	88,3
310,298	88,31
310,829	96,96
311,359	87,5
311,89	92,86
312,421	95,5
312,951	95,93
313,481	80
314,012	80,6
314,542	93,64
315,072	88,17
315,601	96,4
316,131	96,06
316,661	87,08
317,19	86,67
317,72	101,24
318,249	95,24
318,778	93,36
319,307	89,45
319,836	103,98
320,365	96,09
320,893	94,63
321,422	103,25
321,95	99,62
322,479	93,51
323,007	103,64
323,535	89,29
324,063	101,6
324,591	99,6
325,118	97,81
325,646	99,16
326,173	95,83
326,701	101,63
327,228	102,59
327,755	90,98
328,282	93,51
328,809	105,93
329,336	100
329,862	90,44
330,389	91,41
330,915	100,79
331,441	92,75
331,968	106,76
332,494	92,8
333,02	99,17
333,545	84,33
334,071	99,59
334,597	81,34
335,122	86,67
335,648	102,59
336,173	93,56
336,698	85,44
337,223	83,09
337,748	82,99
338,272	92,12
338,797	97,1
339,322	77,74
339,846	80,51
340,37	99,19
340,894	88,19
341,419	87,97
341,942	89,51
342,466	82,05
342,99	78,52
343,514	87,68
344,037	75,95
344,56	92,59
345,084	81,85
345,607	87,15
346,13	83,1
346,653	92,67
347,175	80,77
347,698	75,79
348,221	86,79
348,743	82,92
349,265	80,94
349,787	75,15
350,309	78,8
350,831	73,15
351,353	79,88
351,875	78,36
352,397	87,41
352,918	86,84
353,439	86,75
353,961	70,93
354,482	82,16
355,003	75,29
355,524	79,17
356,044	76,99
356,565	84,64
357,086	74,29
357,606	68,96
358,126	70,21
358,646	70,41
359,167	75,41
359,687	80,51
360,206	75,14
360,726	68,48
361,246	81,12
361,765	72,32
362,285	75,5
362,804	78,16
363,323	68,29
363,842	74,45
364,361	72,14
364,88	70,44
365,398	63,1
365,917	68,63
366,435	75,78
366,954	67,19
367,472	66,51
367,99	72,99
368,508	61,94
369,026	72,27
369,544	66,89
370,061	65,97
370,579	63,73
371,096	75,46
371,613	64,44
372,131	62,99
372,648	64,37
373,165	61,52
373,681	66,46
374,198	69,73
374,715	68,23
375,231	62,12
375,747	63,45
376,264	58,67
376,78	61,51
377,296	65,61
377,812	58,97
378,327	62,75
378,843	60,41
379,359	62,42
379,874	65,92
380,389	55,84
380,905	52,84
381,42	54,71
381,935	51,83
382,449	56,78
382,964	55,43
383,479	54,31
383,993	51,8
384,508	51,18
385,022	51,17
385,536	52,5
386,05	50,52
386,564	55,72
387,078	50,36
387,592	51,34
388,105	52,6
388,619	49,11
389,132	45,84
389,645	47,01
390,158	47,32
390,671	46,54
391,184	45,04
391,697	44,89
392,21	41,35
392,722	41,37
393,235	43,06
393,747	42,61
394,259	42,13
394,771	40,86
395,283	42,49
395,795	41,7
396,307	40,84
396,818	39,82
397,33	36,39
397,841	40,09
398,353	36,8
398,864	37,15
399,375	38,15
399,886	36,68
400,397	35,83
400,907	33,79
401,418	34,45
401,928	33,72
402,439	32,79
402,949	31,56
403,459	29,49
403,969	31,94
404,479	29,01
404,989	28,14
405,498	28,6
406,008	28,55
406,517	25,58
407,027	24,88
407,536	25,15
408,045	24
408,554	23,99
409,063	22,91
409,572	23,09
410,08	22,61
410,589	21,61
411,097	21,14
411,606	20,07
412,114	19,72
412,622	19
413,13	17,95
413,638	18,52
414,145	17,29
414,653	17,41
415,16	16,21
415,668	16,45
416,175	14,92
416,682	15,3
417,189	14,33
417,696	14,38
418,203	13,78
418,71	14,34
419,216	14,08
419,723	13,54
420,229	13,19
420,735	13,2
421,242	13,49
421,748	13,62
422,254	13,17
422,759	12,56
423,265	13,12
423,771	13
424,276	12,64
424,781	12,15
425,287	12,4
425,792	12,62
426,297	12,09
426,802	11,41
427,306	11,48
427,811	12,3
428,316	11,43
428,82	11,62
429,324	11,22
429,829	11,1
430,333	10,82
430,837	11,58
431,34	10,95
431,844	10,97
432,348	10,82
432,851	10,23
433,355	11,07
433,858	10,64
434,361	10,52
434,864	10,97
435,367	10,66
435,87	11,22
436,373	10,71
436,876	10,92
437,378	10,55
437,88	10,12
438,383	10,62
438,885	10,33
439,387	10,35
439,889	10,58
440,391	10,34
440,892	10,22
441,394	10,55
441,896	10,19
442,397	10,62
442,898	10,09
443,399	10,45
443,9	9,99
444,401	9,91
444,902	10,17
445,403	10,2
445,903	10,63
446,404	10,49
446,904	10,47
447,405	10,11
447,905	10,35
448,405	10,35
448,905	10,54
449,404	10,5
449,904	10,77
450,404	10,27
450,903	10,31
451,403	10,7
451,902	10,78
452,401	10,86
452,9	11,02
453,399	11,05
453,898	10,58
454,396	10,92
454,895	10,71
455,393	10,38
455,892	10,73
456,39	11,07
456,888	10,48
457,386	11,12
457,884	11,08
458,382	11,24
458,879	11,14
459,377	11,09
459,874	10,85
460,372	11,19
460,869	10,53
461,366	10,63
461,863	10,88
462,36	11,14
462,857	10,98
463,353	10,71
463,85	11,15
464,346	10,47
464,843	10,93
465,339	10,9
465,835	11,29
466,331	10,73
466,827	10,78
467,323	11,14
467,818	11,15
468,314	10,99
468,809	11,02
469,305	10,81
469,8	11,03
470,295	10,6
470,79	10,85
471,285	11,09
471,78	10,52
472,274	10,57
472,769	10,38
473,263	10,88
473,758	10,94
474,252	10,27
474,746	11,07
475,24	10,99
475,734	11,04
476,228	10,89
476,721	10,93
477,215	10,71
477,708	10,91
478,202	10,92
478,695	10,54
479,188	10,88
479,681	10,85
480,174	11,15
480,667	10,91
481,159	11,12
481,652	11,22
482,144	10,99
482,637	11,22
483,129	10,94
483,621	11,05
484,113	11,3
484,605	11,29
485,097	11,14
485,588	10,88
486,08	11,22
486,571	11,03
487,063	11,32
487,554	11,24
488,045	11,56
488,536	11,31
489,027	11,31
489,518	11,28
490,008	11,53
490,499	11,58
490,989	11,31
491,48	11,43
491,97	11,69
492,46	11,56
492,95	11,81
493,44	11,92
493,93	11,94
494,419	12,1
494,909	12,19
495,398	12,44
495,888	12,1
496,377	12,51
496,866	12,26
497,355	12,25
497,844	12,36
498,333	13,02
498,821	12,46
499,31	12,72
499,798	13,21
500,287	13,39
500,775	13,33
501,263	13,51
501,751	13,47
502,239	13,38
502,727	13,58
503,215	13,92
503,702	14,28
504,19	13,94
504,677	14,4
505,164	14,5
505,651	14,99
506,139	14,93
506,625	15,08
507,112	15,07
507,599	15,73
508,086	15,58
508,572	16
509,058	16,09
509,545	16,13
510,031	16,29
510,517	16,58
511,003	16,64
511,489	17,24
511,974	17,42
512,46	17,43
512,946	17,65
513,431	18,23
513,916	18,09
514,401	18,39
514,887	18,44
515,371	19,29
515,856	19,33
516,341	19,27
516,826	19,71
517,31	19,94
517,795	20,14
518,279	20,61
518,763	21,19
519,247	20,81
519,731	21,46
520,215	21,68
520,699	21,98
521,182	22,31
521,666	22,16
522,149	22,64
522,633	23,18
523,116	23,21
523,599	23,65
524,082	23,53
524,565	24,03
525,048	24,23
525,53	24,39
526,013	24,61
526,495	24,69
526,978	25,21
527,46	25,3
527,942	25,28
528,424	25,81
528,906	25,75
529,388	25,79
529,87	26,23
530,351	26,05
530,833	26,31
531,314	26,3
531,795	26,55
532,277	26,74
532,758	27
533,238	26,86
533,719	26,85
534,2	26,56
534,681	27,64
535,161	27,22
535,642	27,56
536,122	27,43
536,602	27,41
537,082	27,26
537,562	27,47
538,042	27,65
538,522	27,44
539,001	27,73
539,481	27,48
539,96	27,92
540,44	28,08
540,919	28,27
541,398	27,95
541,877	27,96
542,356	28,12
542,835	27,76
543,313	27,9
543,792	28,19
544,27	27,73
544,749	27,97
545,227	28,22
545,705	28,9
546,183	28,83
546,661	28,05
547,139	28,24
547,616	28,27
548,094	27,97
548,571	28,77
549,049	29,12
549,526	28,38
550,003	28,7
550,48	28,26
550,957	27,96
551,434	28,5
551,911	28,48
552,387	28,29
552,864	28,81
553,34	28,73
553,817	28,56
554,293	28,58
554,769	28,76
555,245	28,78
555,721	28,71
556,197	28,43
556,672	28,69
557,148	28,45
557,623	28,81
558,099	28,39
558,574	28,79
559,049	28,19
559,524	28,94
559,999	28,53
560,474	28,4
560,948	28,09
561,423	28,47
561,897	28,44
562,372	28,68
562,846	28,63
563,32	28,45
563,794	28,21
564,268	28,38
564,742	27,89
565,216	27,84
565,69	27,54
566,163	27,53
566,636	27,19
567,11	27,16
567,583	27,2
568,056	27,17
568,529	27,14
569,002	26,82
569,475	26,71
569,947	26,55
570,42	26,85
570,892	26,21
571,365	26,16
571,837	26,2
572,309	26,12
572,781	25,74
573,253	25,81
573,725	25,71
574,197	25,61
574,668	25,34
575,14	24,91
575,611	25,23
576,082	24,92
576,554	24,72
577,025	24,62
577,496	24,34
577,967	24,31
578,437	24,11
578,908	24,22
579,379	24,04
579,849	23,78
580,319	23,92
580,79	23,66
581,26	23,74
581,73	23,5
582,2	23,13
582,669	23,28
583,139	23,05
583,609	23,21
584,078	23,32
584,548	22,91
585,017	23,35
585,486	22,54
585,955	22,72
586,424	22,72
586,893	22,32
587,362	22,6
587,83	22,36
588,299	22,13
588,767	22,36
589,236	22,29
589,704	22,09
590,172	21,91
590,64	22,21
591,108	21,67
591,576	22,24
592,043	21,77
592,511	21,74
592,978	21,64
593,446	21,37
593,913	21,73
594,38	21,25
594,847	21,35
595,314	21,66
595,781	21,38
596,248	21,11
596,715	21,3
597,181	21,31
597,647	21,12
598,114	21,04
598,58	21,08
599,046	21,22
599,512	21,27
599,978	20,91
600,444	21,07
600,91	21,04
601,375	21,28
601,841	21,23
602,306	21,06
602,771	20,7
603,236	20,98
603,702	20,9
604,167	20,83
604,631	20,6
605,096	20,53
605,561	20,62
606,025	20,43
606,49	20,48
606,954	20,49
607,418	20,23
607,882	20,32
608,347	20,1
608,81	20,17
609,274	19,84
609,738	19,98
610,202	19,99
610,665	19,73
611,128	19,6
611,592	19,42
612,055	19,32
612,518	19,67
612,981	19,63
613,444	19,34
613,907	19,17
614,369	19,06
614,832	19,15
615,294	18,97
615,757	19,01
616,219	18,95
616,681	18,65
617,143	18,79
617,605	18,59
618,067	18,43
618,529	18,37
618,99	18,33
619,452	18,22
619,913	18,39
620,375	18,33
620,836	18,07
621,297	18,42
621,758	18,17
622,219	18,02
622,68	17,83
623,14	17,87
623,601	17,88
624,061	17,92
624,522	17,81
624,982	17,73
625,442	17,93
625,902	18,03
626,362	17,68
626,822	17,75
627,282	17,89
627,742	17,65
628,201	17,46
628,661	17,85
629,12	17,45
629,579	17,4
630,038	17,64
630,497	17,65
630,956	17,33
631,415	17,38
631,874	17,23
632,332	17,26
632,791	17,07
633,249	17,29
633,708	17,28
634,166	17,29
634,624	16,97
635,082	16,99
635,54	17,04
635,998	16,87
636,455	16,82
636,913	16,68
637,37	16,55
637,828	16,66
638,285	16,35
638,742	16,11
639,199	16,16
639,656	16,22
640,113	16,14
640,57	15,88
641,027	15,7
641,483	15,9
641,94	15,43
642,396	15,52
642,852	15,38
643,309	15,24
643,765	15,01
644,221	14,86
644,676	14,88
645,132	14,6
645,588	14,7
646,043	14,39
646,499	14,28
646,954	14,16
647,409	14,14
647,864	13,92
648,319	13,71
648,774	13,79
649,229	13,71
649,684	13,61
650,139	13,58
650,593	13,58
651,047	13,51
651,502	13,44
651,956	13,32
652,41	13,14
652,864	13,22
653,318	13,23
653,772	12,98
654,225	12,99
654,679	13,07
655,133	12,93
655,586	12,87
656,039	12,86
656,492	12,7
656,946	12,58
657,399	12,64
657,851	12,64
658,304	12,5
658,757	12,21
659,209	12,32
659,662	12,16
660,114	12,14
660,567	11,85
661,019	11,99
661,471	11,86
661,923	11,69
662,375	11,56
662,826	11,46
663,278	11,58
663,73	11,33
664,181	11,36
664,632	11,18
665,084	11,29
665,535	11,05
665,986	11,05
666,437	10,97
666,888	10,86
667,338	10,85
667,789	10,89
668,24	10,72
668,69	10,7
669,14	10,83
669,591	10,8
670,041	10,79
670,491	10,84
670,941	10,78
671,391	10,75
671,84	10,75
672,29	10,75
672,74	10,58
673,189	10,79
673,638	10,87
674,088	11
674,537	10,99
674,986	11,04
675,435	11,1
675,883	11,2
676,332	11,23
676,781	11,32
677,229	11,34
677,678	11,48
678,126	11,48
678,574	11,63
679,022	11,76
679,47	11,8
679,918	11,97
680,366	11,86
680,814	12,04
681,261	12,24
681,709	12,43
682,156	12,49
682,604	12,59
683,051	12,81
683,498	12,99
683,945	13,07
684,392	13,18
684,839	13,58
685,286	13,81
685,732	13,74
686,179	14,01
686,625	14,42
687,071	14,31
687,518	14,67
687,964	14,89
688,41	15,32
688,856	15,44
689,301	15,8
689,747	16,09
690,193	16,3
690,638	16,58
691,084	17,04
691,529	17,33
691,974	18,09
692,419	18,31
692,864	18,66
693,309	18,98
693,754	19,3
694,199	19,88
694,643	20,19
695,088	20,67
695,532	21,12
695,977	21,42
696,421	22,04
696,865	22,46
697,309	22,75
697,753	23,24
698,197	23,67
698,64	24,02
699,084	24,48
699,527	25,1
699,971	25,35
700,414	25,32
700,857	25,94
701,3	26,35
701,743	26,83
702,186	27,14
702,629	27,63
703,072	27,86
703,515	28,12
703,957	28,24
704,399	28,82
704,842	29,1
705,284	29,34
705,726	29,7
706,168	29,89
706,61	30,3
707,052	30,18
707,494	30,98
707,935	30,93
708,377	31,37
708,818	31,55
709,26	31,76
709,701	31,8
710,142	32,28
710,583	32,35
711,024	32,68
711,465	32,99
711,905	33,05
712,346	33
712,787	33,35
713,227	33,96
713,667	33,69
714,108	33,92
714,548	34,28
714,988	34,72
715,428	34,64
715,868	35,08
716,307	35,19
716,747	34,94
717,186	35,37
717,626	35,49
718,065	35,83
718,504	35,76
718,944	36,11
719,383	36,15
719,822	36,07
720,261	36,27
720,699	36,49
721,138	36,34
721,576	36,79
722,015	37
722,453	36,86
722,892	37,31
723,33	37,23
723,768	37,79
724,206	37,57
724,644	37,45
725,081	37,68
725,519	37,96
725,957	37,59
726,394	37,94
726,832	38,08
727,269	37,93
727,706	38,39
728,143	38,43
728,58	38,45
729,017	37,95
729,454	38,35
729,89	38,55
730,327	38,24
730,764	38,78
731,2	38,75
731,636	38,63
732,072	38,87
732,509	38,7
732,945	38,83
733,38	38,91
733,816	39,15
734,252	39,03
734,688	39,19
735,123	39,08
735,559	39,22
735,994	38,96
736,429	39,17
736,864	39,53
737,299	39,15
737,734	39,63
738,169	39,05
738,604	39,17
739,038	39,08
739,473	39,42
739,907	39,12
740,342	39,23
740,776	39,34
741,21	39,44
741,644	39,39
742,078	39,1
742,512	39,19
742,946	39,29
743,379	39,06
743,813	39,05
744,246	39,31
744,68	39,25
745,113	39,28
745,546	38,91
745,979	39,38
746,412	39,15
746,845	38,96
747,278	38,84
747,711	38,84
748,143	39,02
748,576	39,43
749,008	39,33
749,441	38,88
749,873	38,63
750,305	38,85
750,737	38,75
751,169	38,64
751,601	38,65
752,032	38,6
752,464	38,49
752,896	38,26
753,327	38,87
753,758	38,36
754,19	38,51
754,621	38,28
755,052	38,23
755,483	38,5
755,914	38,53
756,344	38,36
756,775	38,48
757,206	38,39
757,636	38,28
758,066	38,73
758,497	38,04
758,927	38,43
759,357	38,39
759,787	38,22
760,217	38,15
760,647	38,2
761,076	37,97
761,506	37,93
761,935	37,95
762,365	38,1
762,794	38,01
763,223	38,16
763,653	38,16
764,082	37,68
764,51	37,96
764,939	37,86
765,368	37,59
765,797	37,86
766,225	37,8
766,654	37,67
767,082	37,54
767,51	37,79
767,938	37,5
768,367	37,41
768,795	37,26
769,222	37,85
769,65	37,72
770,078	37,5
770,505	37,4
770,933	37,72
771,36	37,43
771,788	37,44
772,215	37,65
772,642	37,49
773,069	37,38
773,496	37,48
773,923	37,48
774,349	37,27
774,776	37,64
775,203	37,31
775,629	37,41
776,055	37,08
776,482	37,33
776,908	37,28
777,334	37,2
777,76	37,55
778,186	37,35
778,611	37,43
779,037	37,47
779,463	37,38
779,888	37,23
780,314	37,16
780,739	37,23
781,164	37,25
781,589	36,94
782,014	37,05
782,439	37,27
782,864	37,34
783,289	37,17
783,713	36,97
784,138	37,24
784,562	37
784,987	37,04
785,411	37,02
785,835	36,92
786,259	36,94
786,683	37,2
787,107	37,21
787,531	36,8
787,954	37,07
788,378	36,94
788,802	36,9
789,225	36,85
789,648	37,07
790,071	36,59
790,495	36,97
790,918	37,02
791,34	37,07
791,763	37,06
792,186	36,67
792,609	36,82
793,031	36,87
793,454	36,82
793,876	36,98
794,298	36,73
794,721	36,57
795,143	36,89
795,565	36,57
795,986	36,7
796,408	36,86
796,83	36,71
797,252	36,83
797,673	36,91
798,094	37,1
798,516	36,77
798,937	36,92
799,358	36,59
799,779	36,78
800,2	36,99
800,621	36,72
801,042	36,58
801,462	36,98
801,883	36,63
802,303	36,73
802,724	36,83
803,144	36,77
803,564	36,6
803,984	36,79
804,404	36,66
804,824	36,7
805,244	36,59
805,664	37,01
806,084	36,85
806,503	36,94
806,923	36,63
807,342	36,86
807,761	36,36
808,18	36,4
808,599	36,85
809,018	36,57
809,437	36,83
809,856	36,45
810,275	36,68
810,693	36,46
811,112	36,85
811,53	36,8
811,949	36,82
812,367	36,97
812,785	36,73
813,203	36,54
813,621	36,74
814,039	36,59
814,457	36,41
814,874	36,4
815,292	36,42
815,709	36,4
816,127	36,81
816,544	36,66
816,961	36,51
817,378	36,95
817,795	36,89
818,212	36,59
818,629	36,84
819,046	36,43
819,462	36,25
819,879	36,18
820,295	36,37
820,712	36,63
821,128	36,44
821,544	36,51
821,96	36,61
822,376	36,62
822,792	36,42
823,208	36,42
823,624	36,72
824,039	36,42
824,455	36,47
824,87	36,3
825,286	36,46
825,701	36,47
826,116	36,28
826,531	36,59
826,946	36,36
827,361	36,22
827,776	36,6
828,19	36,24
828,605	36,13
829,02	36,43
829,434	36,24
829,848	36,46
830,263	36,62
830,677	36,34
831,091	36,24
831,505	36,27
831,919	36,24
832,332	36,19
