Data from D3___Relative__4__00059.txt Node

Date: Wed Jan 31 18:23:11 CET 2024
User: diatiterra
Spectrometer: HDX00911
Trigger mode: 0
Integration Time (sec): 6,000000E-3
Scans to average: 2
Nonlinearity correction enabled: false
Boxcar width: 0
Storing dark spectrum: false
XAxis mode: Wavelengths
Number of Pixels in Spectrum: 2068
>>>>>Begin Spectral Data<<<<<
194,468	217,92
195,025	148,18
195,581	187,8
196,138	201,28
196,694	117,9
197,251	109,6
197,807	91,34
198,363	86,4
198,919	79,31
199,474	81,62
200,03	86,07
200,586	102,68
201,141	75,48
201,696	81,54
202,251	79,17
202,806	76,22
203,361	88,89
203,916	82,99
204,471	82,48
205,025	96,77
205,58	80,36
206,134	100,4
206,688	90
207,242	91,15
207,796	91,73
208,35	86,96
208,904	85,17
209,457	78,12
210,011	82,62
210,564	80,99
211,117	87,59
211,67	91,79
212,223	83,22
212,776	97,58
213,329	84
213,881	109,8
214,434	76,97
214,986	102,89
215,538	93,75
216,09	88,73
216,642	97,11
217,194	87,88
217,746	92,86
218,297	86,64
218,849	96,32
219,4	100
219,951	92,34
220,502	88,51
221,053	98,47
221,604	92,28
222,155	96,03
222,705	82,72
223,256	89,55
223,806	92,13
224,356	91,54
224,906	92,34
225,456	90,31
226,006	89,29
226,556	73,05
227,106	96,37
227,655	78,12
228,204	93,75
228,754	79,93
229,303	89,64
229,852	76,98
230,401	88,43
230,949	86,33
231,498	84,51
232,047	80,84
232,595	89,31
233,143	94,49
233,691	89,53
234,239	84,64
234,787	82
235,335	91,42
235,883	84,62
236,43	87,5
236,978	93,46
237,525	85,77
238,072	82,98
238,619	92,42
239,166	80,5
239,713	87,59
240,26	82,14
240,806	83,68
241,353	87,7
241,899	77,62
242,445	89,05
242,991	92,37
243,537	85,98
244,083	98,47
244,629	86,15
245,174	93,36
245,72	87,04
246,265	81,75
246,81	93,6
247,355	94,05
247,9	84,33
248,445	94,84
248,99	90,15
249,534	103,91
250,079	85,34
250,623	85,56
251,168	103,72
251,712	85,94
252,256	92,62
252,8	96,92
253,343	85
253,887	84,68
254,43	90,84
254,974	81,68
255,517	81,85
256,06	91,92
256,603	79,63
257,146	94,96
257,689	94,88
258,232	90,25
258,774	81,21
259,317	95,34
259,859	99,08
260,401	99,22
260,943	84,04
261,485	87,23
262,027	93,6
262,569	89,93
263,11	87,69
263,652	105,51
264,193	95,87
264,734	95,26
265,275	100,82
265,816	96,95
266,357	93,02
266,898	90,77
267,438	101,18
267,979	89,21
268,519	80,6
269,059	112,15
269,6	88,35
270,14	97,58
270,68	86,59
271,219	107,2
271,759	86,47
272,298	89,1
272,838	85
273,377	86,9
273,916	85,61
274,455	93,43
274,994	89,2
275,533	85,14
276,072	91,06
276,61	84,06
277,149	92,5
277,687	96,99
278,225	81,67
278,763	107,02
279,301	92,5
279,839	93,55
280,377	95,08
280,914	84,62
281,452	104,27
281,989	93,39
282,526	92,52
283,064	102,1
283,601	84,12
284,137	92,56
284,674	93,75
285,211	92,54
285,747	87,5
286,284	102,7
286,82	92,98
287,356	81,58
287,892	93,02
288,428	98,35
288,964	101,26
289,5	101,65
290,035	88,4
290,571	93,7
291,106	94,31
291,641	89,73
292,176	95,7
292,711	94,31
293,246	84,23
293,781	94,63
294,315	79,23
294,85	107,87
295,384	94,67
295,918	83,46
296,453	86,94
296,987	91,32
297,52	90,91
298,054	90,46
298,588	95,42
299,121	83,21
299,655	87,59
300,188	94,17
300,721	84,96
301,254	93,15
301,787	94,14
302,32	100,41
302,853	87,6
303,385	79,64
303,918	91,09
304,45	96,15
304,982	79,08
305,514	90,7
306,046	85,95
306,578	89,15
307,11	95,74
307,641	95,26
308,173	90,08
308,704	84,3
309,236	79,32
309,767	86,88
310,298	77,02
310,829	91,74
311,359	92,74
311,89	95,38
312,421	92,34
312,951	94,31
313,481	78,97
314,012	85,45
314,542	90,25
315,072	85,88
315,601	94,4
316,131	101,57
316,661	85
317,19	87,78
317,72	95,87
318,249	98,02
318,778	94,14
319,307	92,58
319,836	96,9
320,365	91,3
320,893	95,87
321,422	95,12
321,95	96,24
322,479	87,79
323,007	95,45
323,535	81,07
324,063	98
324,591	94
325,118	97,45
325,646	94,54
326,173	90,83
326,701	92,28
327,228	101,72
327,755	86,09
328,282	88,17
328,809	103,81
329,336	86,22
329,862	88,24
330,389	86,72
330,915	85,83
331,441	85,5
331,968	97,75
332,494	89,39
333,02	86,67
333,545	90,3
334,071	104,96
334,597	73,94
335,122	86,67
335,648	97,84
336,173	89,39
336,698	75,95
337,223	90,07
337,748	84,38
338,272	81,85
338,797	86,59
339,322	77,74
339,846	79,04
340,37	97,18
340,894	71,18
341,419	86,47
341,942	75,17
342,466	80,77
342,99	78,19
343,514	84,86
344,037	76,9
344,56	90,37
345,084	77,74
345,607	83,68
346,13	78,17
346,653	85,67
347,175	79,17
347,698	75,16
348,221	78,21
348,743	74,84
349,265	75,54
349,787	70,86
350,309	75
350,831	72,22
351,353	72,26
351,875	70,47
352,397	78,67
352,918	75,33
353,439	76,82
353,961	66,57
354,482	69,88
355,003	67,44
355,524	68,61
356,044	62,5
356,565	71,99
357,086	67,51
357,606	56,04
358,126	60,64
358,646	58,93
359,167	67,57
359,687	67,8
360,206	63,11
360,726	58,29
361,246	67,82
361,765	65,82
362,285	59,5
362,804	60,26
363,323	55,85
363,842	61,54
364,361	58,46
364,88	57,64
365,398	55,24
365,917	56,37
366,435	63,28
366,954	58,04
367,472	58,02
367,99	61,85
368,508	52,63
369,026	64,77
369,544	51,97
370,061	57,56
370,579	53,48
371,096	57,34
371,613	50,86
372,131	51,57
372,648	52,76
373,165	48,05
373,681	52,95
374,198	51,76
374,715	50,94
375,231	50,38
375,747	47,24
376,264	42,52
376,78	49,64
377,296	48,14
377,812	46,01
378,327	43,87
378,843	47,78
379,359	44,54
379,874	47,92
380,389	45,58
380,905	39,7
381,42	38,91
381,935	41,92
382,449	40,56
382,964	43,43
383,479	39,51
383,993	38,37
384,508	38,58
385,022	37,44
385,536	39,34
386,05	36,22
386,564	37,19
387,078	38,04
387,592	34,91
388,105	37,59
388,619	34,49
389,132	34,16
389,645	35,75
390,158	32,19
390,671	32,99
391,184	29,86
391,697	32,36
392,21	30,6
392,722	29,46
393,235	32,27
393,747	30,06
394,259	28,84
394,771	29,25
395,283	28,85
395,795	29,57
396,307	30,93
396,818	28,33
397,33	25,94
397,841	27,88
398,353	27,26
398,864	27,2
399,375	26,71
399,886	26,79
400,397	23,4
400,907	24,66
401,418	23,52
401,928	22,72
402,439	24,35
402,949	21,31
403,459	22,08
403,969	22,54
404,479	19,87
404,989	18,82
405,498	19,41
406,008	18,24
406,517	18,01
407,027	17,3
407,536	16,37
408,045	16,9
408,554	16,13
409,063	15,61
409,572	14,86
410,08	14,32
410,589	14,46
411,097	14,18
411,606	14,2
412,114	13,34
412,622	13,12
413,13	12,94
413,638	12,25
414,145	11,34
414,653	12,28
415,16	11,13
415,668	11,07
416,175	10,53
416,682	10,18
417,189	9,7
417,696	10,1
418,203	10,11
418,71	9,21
419,216	9,43
419,723	8,62
420,229	8,77
420,735	8,87
421,242	8,48
421,748	8,29
422,254	9,03
422,759	8,63
423,265	8,47
423,771	8,47
424,276	8,3
424,781	7,82
425,287	8,4
425,792	8,02
426,297	8,01
426,802	7,29
427,306	7,64
427,811	8,25
428,316	7,83
428,82	7,63
429,324	7,88
429,829	7,68
430,333	7,19
430,837	7,33
431,34	7,28
431,844	7,14
432,348	7,23
432,851	6,84
433,355	6,82
433,858	6,91
434,361	6,56
434,864	7,02
435,367	7,29
435,87	7,59
436,373	7,04
436,876	6,87
437,378	7,17
437,88	6,79
438,383	6,95
438,885	7,18
439,387	6,83
439,889	6,65
440,391	6,58
440,892	6,75
441,394	6,8
441,896	7,09
442,397	6,69
442,898	6,49
443,399	7,04
443,9	6,73
444,401	6,35
444,902	6,55
445,403	6,86
445,903	6,65
446,404	6,87
446,904	6,67
447,405	6,19
447,905	6,81
448,405	6,85
448,905	6,82
449,404	6,23
449,904	6,32
450,404	6,23
450,903	6,8
451,403	6,6
451,902	6,88
452,401	6,76
452,9	6,76
453,399	6,6
453,898	6,21
454,396	6,46
454,895	6,34
455,393	6,68
455,892	6,23
456,39	6,5
456,888	6,44
457,386	6,38
457,884	6,52
458,382	6,78
458,879	6,42
459,377	6,69
459,874	6,37
460,372	6,38
460,869	6,55
461,366	6,4
461,863	6,52
462,36	6,81
462,857	6,48
463,353	6,19
463,85	6,45
464,346	6,18
464,843	6,91
465,339	6,32
465,835	6,72
466,331	6,29
466,827	6,43
467,323	6,56
467,818	6,5
468,314	6,55
468,809	6,42
469,305	6,38
469,8	6,56
470,295	6,65
470,79	6,53
471,285	6,27
471,78	6,25
472,274	6,38
472,769	6,08
473,263	6,28
473,758	6,4
474,252	6,27
474,746	6,47
475,24	6,37
475,734	6,4
476,228	6,51
476,721	6,27
477,215	6,13
477,708	6,38
478,202	6,51
478,695	6,61
479,188	6,19
479,681	6,25
480,174	6,58
480,667	6,75
481,159	6,3
481,652	6,86
482,144	6,48
482,637	6,59
483,129	6,29
483,621	6,3
484,113	6,46
484,605	6,58
485,097	6,38
485,588	6,58
486,08	6,47
486,571	6,65
487,063	6,52
487,554	6,68
488,045	6,57
488,536	6,41
489,027	6,39
489,518	6,73
490,008	6,6
490,499	6,45
490,989	6,45
491,48	6,6
491,97	6,6
492,46	6,61
492,95	6,92
493,44	6,93
493,93	6,82
494,419	7,02
494,909	6,9
495,398	6,81
495,888	6,86
496,377	7,17
496,866	7,13
497,355	7,1
497,844	7,1
498,333	7,4
498,821	7,22
499,31	7,42
499,798	7,59
500,287	7,51
500,775	7,69
501,263	7,71
501,751	7,59
502,239	7,55
502,727	7,7
503,215	7,88
503,702	8
504,19	8,18
504,677	8,15
505,164	8,66
505,651	8,59
506,139	8,87
506,625	8,98
507,112	9,4
507,599	9,43
508,086	9,21
508,572	9,83
509,058	9,6
509,545	9,91
510,031	10,07
510,517	9,96
511,003	10,04
511,489	10,59
511,974	10,79
512,46	10,85
512,946	10,7
513,431	11,16
513,916	11,38
514,401	11,79
514,887	11,78
515,371	12,45
515,856	12,68
516,341	12,63
516,826	12,75
517,31	13,19
517,795	13,75
518,279	13,51
518,763	13,94
519,247	14,01
519,731	14,38
520,215	14,64
520,699	14,59
521,182	15,42
521,666	15,19
522,149	15,44
522,633	16,06
523,116	16,03
523,599	16,79
524,082	16,57
524,565	16,76
525,048	17,33
525,53	17,27
526,013	17,58
526,495	17,85
526,978	17,98
527,46	18,16
527,942	18,52
528,424	18,63
528,906	18,53
529,388	18,7
529,87	19,38
530,351	18,9
530,833	19,25
531,314	19,42
531,795	19,34
532,277	19,79
532,758	19,8
533,238	19,89
533,719	19,93
534,2	20,06
534,681	20,37
535,161	20,2
535,642	20,75
536,122	20,56
536,602	20,58
537,082	20,74
537,562	20,89
538,042	20,85
538,522	20,75
539,001	20,72
539,481	20,87
539,96	20,68
540,44	21,08
540,919	21
541,398	21,01
541,877	21,29
542,356	21,28
542,835	20,95
543,313	21,09
543,792	21,24
544,27	21,36
544,749	21,41
545,227	21,56
545,705	21,74
546,183	21,61
546,661	21,31
547,139	21,41
547,616	21,27
548,094	21,58
548,571	21,52
549,049	21,87
549,526	21,55
550,003	21,68
550,48	21,5
550,957	21,88
551,434	21,57
551,911	21,91
552,387	21,49
552,864	21,73
553,34	21,92
553,817	21,47
554,293	21,8
554,769	21,83
555,245	21,72
555,721	21,33
556,197	21,5
556,672	21,6
557,148	21,77
557,623	21,82
558,099	21,74
558,574	21,81
559,049	21,51
559,524	21,76
559,999	21,56
560,474	21,05
560,948	20,98
561,423	21,26
561,897	21,38
562,372	21,41
562,846	21,44
563,32	20,8
563,794	20,67
564,268	20,96
564,742	20,67
565,216	20,34
565,69	20,35
566,163	20,25
566,636	20,24
567,11	19,95
567,583	19,92
568,056	19,66
568,529	19,79
569,002	19,52
569,475	19,41
569,947	19,25
570,42	19,43
570,892	19,04
571,365	18,67
571,837	18,69
572,309	18,68
572,781	18,37
573,253	18,4
573,725	18,19
574,197	18,01
574,668	17,85
575,14	17,86
575,611	17,88
576,082	17,34
576,554	17,19
577,025	17,12
577,496	16,94
577,967	16,83
578,437	17,04
578,908	16,77
579,379	16,71
579,849	16,47
580,319	16,45
580,79	16,27
581,26	16,31
581,73	15,95
582,2	15,95
582,669	15,62
583,139	16,15
583,609	15,73
584,078	15,81
584,548	15,62
585,017	15,45
585,486	15,13
585,955	15,54
586,424	15,25
586,893	15
587,362	15,12
587,83	14,89
588,299	15,05
588,767	15,17
589,236	14,78
589,704	14,79
590,172	14,76
590,64	14,8
591,108	14,56
591,576	14,61
592,043	14,37
592,511	14,44
592,978	14,37
593,446	14,26
593,913	14,32
594,38	14,42
594,847	14,35
595,314	14,06
595,781	14,12
596,248	14,1
596,715	14,12
597,181	13,92
597,647	13,88
598,114	13,92
598,58	13,89
599,046	14,04
599,512	13,81
599,978	13,87
600,444	13,67
600,91	13,88
601,375	13,77
601,841	13,86
602,306	13,58
602,771	13,55
603,236	13,41
603,702	13,91
604,167	13,63
604,631	13,45
605,096	13,38
605,561	13,35
606,025	13,2
606,49	13,19
606,954	13,13
607,418	13,05
607,882	12,93
608,347	13,12
608,81	13,09
609,274	12,68
609,738	12,83
610,202	12,69
610,665	12,64
611,128	12,5
611,592	12,33
612,055	12,43
612,518	12,39
612,981	12,34
613,444	11,99
613,907	12,25
614,369	11,99
614,832	11,92
615,294	11,78
615,757	11,71
616,219	11,89
616,681	11,54
617,143	11,57
617,605	11,63
618,067	11,4
618,529	11,48
618,99	11,47
619,452	11,15
619,913	11,27
620,375	11,17
620,836	11,16
621,297	11,3
621,758	11,11
622,219	11,13
622,68	11,04
623,14	10,96
623,601	11,03
624,061	10,89
624,522	10,92
624,982	10,82
625,442	10,87
625,902	10,75
626,362	10,72
626,822	10,64
627,282	10,87
627,742	10,85
628,201	10,85
628,661	10,86
629,12	10,86
629,579	10,63
630,038	10,84
630,497	10,87
630,956	10,59
631,415	10,59
631,874	10,53
632,332	10,47
632,791	10,52
633,249	10,33
633,708	10,59
634,166	10,24
634,624	10,37
635,082	10,33
635,54	10,23
635,998	10,06
636,455	10,13
636,913	10,04
637,37	9,96
637,828	9,9
638,285	9,71
638,742	9,76
639,199	9,59
639,656	9,42
640,113	9,46
640,57	9,29
641,027	9,23
641,483	9,15
641,94	9,05
642,396	8,95
642,852	8,73
643,309	8,72
643,765	8,68
644,221	8,48
644,676	8,39
645,132	8,3
645,588	8,24
646,043	8,12
646,499	7,97
646,954	7,94
647,409	7,91
647,864	7,83
648,319	7,67
648,774	7,61
649,229	7,55
649,684	7,64
650,139	7,45
650,593	7,56
651,047	7,37
651,502	7,42
651,956	7,23
652,41	7,17
652,864	7,21
653,318	7,17
653,772	7,25
654,225	7,05
654,679	7,05
655,133	6,99
655,586	7,09
656,039	7,08
656,492	6,97
656,946	6,97
657,399	6,84
657,851	6,85
658,304	6,85
658,757	6,92
659,209	6,71
659,662	6,7
660,114	6,59
660,567	6,55
661,019	6,56
661,471	6,47
661,923	6,4
662,375	6,42
662,826	6,39
663,278	6,36
663,73	6,16
664,181	6,22
664,632	6,26
665,084	6,27
665,535	6,23
665,986	6,23
666,437	6,25
666,888	6,19
667,338	6,17
667,789	6,16
668,24	6,28
668,69	6,28
669,14	6,33
669,591	6,21
670,041	6,36
670,491	6,47
670,941	6,48
671,391	6,48
671,84	6,48
672,29	6,49
672,74	6,53
673,189	6,7
673,638	6,69
674,088	6,78
674,537	6,91
674,986	6,92
675,435	7,07
675,883	7,18
676,332	7,22
676,781	7,38
677,229	7,42
677,678	7,46
678,126	7,59
678,574	7,72
679,022	7,87
679,47	7,92
679,918	8,11
680,366	8,18
680,814	8,31
681,261	8,32
681,709	8,5
682,156	8,68
682,604	8,69
683,051	8,77
683,498	8,96
683,945	8,99
684,392	9,08
684,839	9,24
685,286	9,51
685,732	9,41
686,179	9,42
686,625	9,64
687,071	9,75
687,518	9,8
687,964	10,04
688,41	10,11
688,856	10,3
689,301	10,45
689,747	10,86
690,193	10,9
690,638	11,2
691,084	11,52
691,529	11,78
691,974	12,07
692,419	12,53
692,864	12,94
693,309	13,32
693,754	13,6
694,199	14,21
694,643	14,51
695,088	15,02
695,532	15,38
695,977	15,75
696,421	16,25
696,865	16,63
697,309	16,99
697,753	17,55
698,197	18,01
698,64	18,46
699,084	18,81
699,527	19,18
699,971	19,54
700,414	20,09
700,857	20,29
701,3	20,85
701,743	21,52
702,186	21,64
702,629	22,01
703,072	22,58
703,515	22,89
703,957	23,24
704,399	23,84
704,842	24,02
705,284	24,13
705,726	24,84
706,168	24,77
706,61	25,44
707,052	25,61
707,494	26,08
707,935	26,42
708,377	26,86
708,818	27,03
709,26	27,22
709,701	27,59
710,142	27,73
710,583	28,14
711,024	28,29
711,465	28,58
711,905	28,86
712,346	29
712,787	29,04
713,227	29,79
713,667	29,96
714,108	30,08
714,548	30,44
714,988	30,9
715,428	30,96
715,868	31,26
716,307	31,19
716,747	31,49
717,186	31,72
717,626	31,7
718,065	32,25
718,504	32,32
718,944	32,53
719,383	32,75
719,822	33,19
720,261	32,89
720,699	33,38
721,138	33,19
721,576	33,54
722,015	33,78
722,453	34,07
722,892	34,01
723,33	34,19
723,768	34,39
724,206	34,49
724,644	34,37
725,081	34,64
725,519	34,81
725,957	34,97
726,394	35,16
726,832	34,93
727,269	35,16
727,706	35,31
728,143	35,24
728,58	35,68
729,017	35,57
729,454	35,64
729,89	35,83
730,327	35,99
730,764	35,98
731,2	35,99
731,636	35,93
732,072	36,29
732,509	36,22
732,945	36,44
733,38	36,08
733,816	36,48
734,252	36,56
734,688	36,37
735,123	36,65
735,559	36,63
735,994	36,79
736,429	36,71
736,864	36,68
737,299	36,85
737,734	36,85
738,169	36,71
738,604	36,66
739,038	36,49
739,473	36,83
739,907	36,57
740,342	37,01
740,776	36,91
741,21	37,03
741,644	37,04
742,078	36,64
742,512	36,83
742,946	37,12
743,379	36,93
743,813	36,62
744,246	36,94
744,68	36,74
745,113	36,69
745,546	36,84
745,979	36,96
746,412	36,9
746,845	36,74
747,278	36,62
747,711	36,54
748,143	36,66
748,576	36,85
749,008	36,56
749,441	36,55
749,873	36,42
750,305	36,57
750,737	36,56
751,169	36,08
751,601	36,25
752,032	36,43
752,464	36,36
752,896	36,42
753,327	36,41
753,758	36,15
754,19	36,27
754,621	36,34
755,052	36,26
755,483	36,21
755,914	36,2
756,344	35,9
756,775	36,19
757,206	36,12
757,636	36,07
758,066	35,92
758,497	35,82
758,927	36,19
759,357	36,02
759,787	35,97
760,217	35,9
760,647	35,73
761,076	35,69
761,506	35,67
761,935	35,71
762,365	35,52
762,794	35,47
763,223	35,87
763,653	35,75
764,082	35,44
764,51	35,84
764,939	35,54
765,368	35,3
765,797	35,44
766,225	35,65
766,654	35,41
767,082	35,38
767,51	35,39
767,938	35,23
768,367	35,17
768,795	35,07
769,222	35,27
769,65	35,52
770,078	35,06
770,505	35,18
770,933	35,37
771,36	35,2
771,788	35,2
772,215	35,07
772,642	35,09
773,069	35,27
773,496	35,09
773,923	34,75
774,349	35,01
774,776	35,19
775,203	34,91
775,629	34,97
776,055	34,65
776,482	34,79
776,908	34,36
777,334	34,86
777,76	34,84
778,186	34,99
778,611	34,78
779,037	34,81
779,463	34,76
779,888	34,81
780,314	34,74
780,739	34,94
781,164	34,73
781,589	34,58
782,014	34,67
782,439	34,59
782,864	34,44
783,289	34,9
783,713	34,36
784,138	34,88
784,562	34,52
784,987	34,64
785,411	34,46
785,835	34,28
786,259	34,41
786,683	34,74
787,107	34,46
787,531	34,49
787,954	34,65
788,378	34,44
788,802	34,56
789,225	34,33
789,648	34,78
790,071	34,4
790,495	34,32
790,918	34,49
791,34	34,4
791,763	34,5
792,186	34,31
792,609	34,3
793,031	34,34
793,454	34,41
793,876	34,58
794,298	34,32
794,721	34,02
795,143	34,5
795,565	34,19
795,986	34,26
796,408	34,31
796,83	34,26
797,252	34,32
797,673	34,28
798,094	34,68
798,516	34,31
798,937	34,52
799,358	34,23
799,779	34,19
800,2	34,43
800,621	34,14
801,042	34,05
801,462	34,12
801,883	34,34
802,303	34,18
802,724	34,12
803,144	34,37
803,564	34,28
803,984	34,28
804,404	34,44
804,824	34,42
805,244	34,56
805,664	34,38
806,084	34,29
806,503	34,09
806,923	34,23
807,342	34,3
807,761	34,02
808,18	34,23
808,599	34,15
809,018	33,93
809,437	34,16
809,856	34
810,275	34,25
810,693	34,4
811,112	34,54
811,53	34,31
811,949	34,28
812,367	34,49
812,785	34,2
813,203	34,06
813,621	34,13
814,039	34,24
814,457	34,14
814,874	33,91
815,292	34,07
815,709	33,91
816,127	34,39
816,544	34,29
816,961	33,99
817,378	34,11
817,795	34,31
818,212	34,3
818,629	34,22
819,046	33,85
819,462	33,86
819,879	33,99
820,295	34
820,712	34,06
821,128	34,08
821,544	34,17
821,96	34,18
822,376	34,11
822,792	33,98
823,208	34,13
823,624	33,91
824,039	33,94
824,455	34,06
824,87	33,86
825,286	34,09
825,701	33,99
826,116	33,95
826,531	33,82
826,946	34,07
827,361	33,89
827,776	33,88
828,19	33,62
828,605	33,74
829,02	34,04
829,434	34,01
829,848	34,09
830,263	34,1
830,677	33,93
831,091	33,87
831,505	33,77
831,919	34,15
832,332	34,02
832,746	33,87
833,16	33,87
833,573	33,69
833,987	34,08
834,4	33,83
834,813	33,52
835,226	33,64
835,639	33,98
836,052	33,44
836,465	33,78
836,878	33,76
837,29	33,78
837,703	33,79
838,116	33,87
838,528	33,72
838,94	33,92
839,352	33,92
839,765	34,02
840,177	34,11
840,589	33,69
841	33,66
841,412	33,9
