Data from D5___Relative__6__00070.txt Node

Date: Wed Jan 31 18:24:16 CET 2024
User: diatiterra
Spectrometer: HDX00911
Trigger mode: 0
Integration Time (sec): 6,000000E-3
Scans to average: 2
Nonlinearity correction enabled: false
Boxcar width: 0
Storing dark spectrum: false
XAxis mode: Wavelengths
Number of Pixels in Spectrum: 2068
>>>>>Begin Spectral Data<<<<<
194,468	216,04
195,025	143,64
195,581	214,63
196,138	221,79
196,694	141,36
197,251	109,09
197,807	93,31
198,363	91,6
198,919	87,59
199,474	96,32
200,03	102,46
200,586	113,84
201,141	81,29
201,696	90,27
202,251	88,64
202,806	90,21
203,361	94,81
203,916	92,71
204,471	98,54
205,025	105,65
205,58	92,86
206,134	101,2
206,688	96,15
207,242	109,29
207,796	93,61
208,35	95,65
208,904	91,03
209,457	88,89
210,011	86,88
210,564	90,49
211,117	103,38
211,67	92,54
212,223	90,75
212,776	97,58
213,329	92,33
213,881	116,18
214,434	89,8
214,986	105,79
215,538	102,57
216,09	81,69
216,642	110,74
217,194	93,56
217,746	98,12
218,297	87,79
218,849	96,69
219,4	103,78
219,951	93,55
220,502	91,55
221,053	107,25
221,604	91,95
222,155	100
222,705	86,76
223,256	97,39
223,806	99,61
224,356	91,92
224,906	109,68
225,456	103,49
226,006	85,71
226,556	78,57
227,106	97,18
227,655	90,28
228,204	101,67
228,754	86,62
229,303	93,93
229,852	87,77
230,401	98,88
230,949	92,09
231,498	87,32
232,047	83,77
232,595	84,48
233,143	96,06
233,691	88,76
234,239	82,86
234,787	97,6
235,335	91,04
235,883	85,31
236,43	85,98
236,978	91,15
237,525	86,86
238,072	80,14
238,619	94,7
239,166	84,4
239,713	85,4
240,26	89,64
240,806	90,28
241,353	98,02
241,899	78,32
242,445	90,51
242,991	99,62
243,537	90,15
244,083	92,37
244,629	87,69
245,174	101,33
245,72	85,19
246,265	87,7
246,81	97,6
247,355	101,59
247,9	86,19
248,445	102,38
248,99	90,53
249,534	111,74
250,079	90,6
250,623	95,93
251,168	95,87
251,712	92,97
252,256	94,26
252,8	95,77
253,343	92,5
253,887	87,9
254,43	94,66
254,974	95,04
255,517	81,51
256,06	101,15
256,603	86,67
257,146	92,25
257,689	95,67
258,232	106,78
258,774	95,74
259,317	100,42
259,859	103,21
260,401	105,43
260,943	85,46
261,485	89,01
262,027	98,4
262,569	89,93
263,11	89,23
263,652	107,09
264,193	96,69
264,734	96,35
265,275	93,03
265,816	85,11
266,357	100
266,898	91,54
267,438	98,03
267,979	87,77
268,519	94,4
269,059	106,54
269,6	94,74
270,14	102,82
270,68	91,3
271,219	96,61
271,759	95,49
272,298	92,11
272,838	100,77
273,377	102,38
273,916	88,13
274,455	94,89
274,994	96,8
275,533	90,58
276,072	90,65
276,61	89,86
277,149	98,75
277,687	96,62
278,225	80,33
278,763	111,84
279,301	95,83
279,839	97,18
280,377	94,67
280,914	87,06
281,452	104,27
281,989	92,56
282,526	91,34
283,064	97,48
283,601	85,81
284,137	89,67
284,674	94,17
285,211	102,63
285,747	91,67
286,284	118,92
286,82	92,56
287,356	88,16
287,892	93,41
288,428	98,76
288,964	107,56
289,5	102,48
290,035	104
290,571	102,52
291,106	104,07
291,641	111,16
292,176	95,7
292,711	95,12
293,246	91,54
293,781	109,5
294,315	88,03
294,85	103,7
295,384	92,21
295,918	86,4
296,453	79,85
296,987	90,5
297,52	100,83
298,054	93,13
298,588	92,08
299,121	88,81
299,655	93,8
300,188	96,67
300,721	95,12
301,254	92,74
301,787	91,41
302,32	99,59
302,853	98
303,385	92,5
303,918	95,35
304,45	97,31
304,982	85,11
305,514	101,16
306,046	92,56
306,578	97,29
307,11	89,92
307,641	96,98
308,173	96,28
308,704	86,78
309,236	83,83
309,767	96,1
310,298	81,85
310,829	99,57
311,359	91,53
311,89	91,6
312,421	104,95
312,951	100,81
313,481	87,59
314,012	91,04
314,542	102,54
315,072	88,17
315,601	94
316,131	101,57
316,661	92,5
317,19	91,48
317,72	98,35
318,249	98,41
318,778	95,7
319,307	91,02
319,836	94,69
320,365	97,83
320,893	94,21
321,422	100
321,95	97,37
322,479	87,79
323,007	100,45
323,535	88,57
324,063	95,6
324,591	91,6
325,118	95,62
325,646	102,52
326,173	85,83
326,701	98,37
327,228	100,86
327,755	90,6
328,282	86,64
328,809	110,59
329,336	94,49
329,862	94,12
330,389	80,47
330,915	88,98
331,441	91,98
331,968	99,1
332,494	95,45
333,02	92,08
333,545	83,58
334,071	96,28
334,597	80,63
335,122	85,19
335,648	97,41
336,173	91,67
336,698	82,91
337,223	81,99
337,748	87,5
338,272	85,96
338,797	90,22
339,322	77,37
339,846	80,15
340,37	102,42
340,894	86,81
341,419	89,85
341,942	85,66
342,466	78,53
342,99	80,2
343,514	85,56
344,037	76,27
344,56	94,81
345,084	81,16
345,607	85,76
346,13	78,17
346,653	84,33
347,175	78,53
347,698	75,16
348,221	76,43
348,743	75,16
349,265	83,45
349,787	67,79
350,309	77,53
350,831	69,44
351,353	74,39
351,875	72,22
352,397	80,07
352,918	79,93
353,439	74,83
353,961	66,57
354,482	69,3
355,003	78,2
355,524	69,72
356,044	65,91
356,565	75,3
357,086	73,16
357,606	61,81
358,126	66,49
358,646	62,76
359,167	70,27
359,687	66,38
360,206	68,03
360,726	60,19
361,246	69,68
361,765	68,36
362,285	63
362,804	62,37
363,323	60,24
363,842	64,29
364,361	61,69
364,88	59,36
365,398	58,52
365,917	58,25
366,435	64,32
366,954	55,58
367,472	52,59
367,99	62,32
368,508	53,85
369,026	63,41
369,544	60,09
370,061	55,25
370,579	54,3
371,096	56,65
371,613	52,8
372,131	51,38
372,648	53,54
373,165	53,91
373,681	50,63
374,198	58,59
374,715	54,32
375,231	51,7
375,747	46,38
376,264	48,3
376,78	46,4
377,296	46,47
377,812	47,51
378,327	47,19
378,843	47,78
379,359	49,17
379,874	47,92
380,389	41,8
380,905	39,85
381,42	38,6
381,935	44,36
382,449	40,71
382,964	39,71
383,479	36,93
383,993	37,12
384,508	37,66
385,022	33,94
385,536	39,47
386,05	36,75
386,564	36,69
387,078	34,33
387,592	32,24
388,105	35,93
388,619	31,47
389,132	30,79
389,645	35,17
390,158	29,4
390,671	32,08
391,184	28,34
391,697	29,86
392,21	27,69
392,722	27,18
393,235	29,92
393,747	31,42
394,259	28,75
394,771	28,24
395,283	27,01
395,795	27,71
396,307	28,88
396,818	28,51
397,33	25,09
397,841	24,69
398,353	25,72
398,864	26,45
399,375	24,46
399,886	22,91
400,397	23,4
400,907	22,6
401,418	21,21
401,928	20,83
402,439	22,45
402,949	20,56
403,459	20,77
403,969	21,92
404,479	18,87
404,989	19,64
405,498	19,63
406,008	18,75
406,517	17,96
407,027	15,4
407,536	15,01
408,045	15,62
408,554	14,76
409,063	14,82
409,572	13,39
410,08	13,86
410,589	12,9
411,097	13,09
411,606	12,56
412,114	12,38
412,622	11,59
413,13	11,28
413,638	11,35
414,145	10,4
414,653	11,02
415,16	9,83
415,668	10,03
416,175	9,48
416,682	9,33
417,189	8,45
417,696	9,35
418,203	9,08
418,71	8,71
419,216	9,01
419,723	8,28
420,229	8,28
420,735	7,91
421,242	8,29
421,748	8,02
422,254	7,68
422,759	7,55
423,265	7,51
423,771	7,88
424,276	7,66
424,781	7,15
425,287	7,43
425,792	7,47
426,297	7,06
426,802	6,66
427,306	7,02
427,811	7,4
428,316	6,78
428,82	7,02
429,324	7,06
429,829	6,76
430,333	6,39
430,837	6,64
431,34	6,5
431,844	6,3
432,348	5,86
432,851	6,07
433,355	6,45
433,858	6,04
434,361	5,94
434,864	5,87
435,367	6,18
435,87	6,45
436,373	5,87
436,876	6,41
437,378	6,2
437,88	6,31
438,383	6,28
438,885	6,03
439,387	5,99
439,889	5,74
440,391	5,83
440,892	6,06
441,394	5,97
441,896	5,71
442,397	5,99
442,898	5,77
443,399	5,89
443,9	5,48
444,401	5,89
444,902	5,41
445,403	5,49
445,903	5,76
446,404	5,96
446,904	5,67
447,405	5,46
447,905	5,34
448,405	5,68
448,905	5,66
449,404	5,5
449,904	5,42
450,404	5,31
450,903	5,31
451,403	5,41
451,902	5,68
452,401	5,67
452,9	5,83
453,399	5,56
453,898	5,18
454,396	5,48
454,895	5,27
455,393	5,37
455,892	5,1
456,39	5,19
456,888	5,28
457,386	5,2
457,884	5,33
458,382	5,44
458,879	5,28
459,377	5,46
459,874	5,11
460,372	5,23
460,869	4,97
461,366	5,38
461,863	5,54
462,36	5,32
462,857	5,3
463,353	5,12
463,85	5,5
464,346	5,43
464,843	5,38
465,339	4,97
465,835	5,24
466,331	5,22
466,827	5,11
467,323	5,13
467,818	5,02
468,314	5,23
468,809	5,08
469,305	4,78
469,8	5,09
470,295	5,08
470,79	5,11
471,285	4,9
471,78	4,66
472,274	5,09
472,769	4,97
473,263	5,06
473,758	5,15
474,252	4,98
474,746	5,09
475,24	4,94
475,734	4,91
476,228	5,17
476,721	4,79
477,215	4,78
477,708	4,77
478,202	5,02
478,695	4,97
479,188	4,94
479,681	4,73
480,174	4,8
480,667	5,11
481,159	5,05
481,652	4,69
482,144	4,94
482,637	5
483,129	4,78
483,621	4,71
484,113	4,99
484,605	4,83
485,097	4,8
485,588	4,93
486,08	5,04
486,571	4,94
487,063	4,84
487,554	4,88
488,045	5,17
488,536	4,98
489,027	4,93
489,518	5,15
490,008	4,8
490,499	5,08
490,989	4,77
491,48	5
491,97	4,93
492,46	5,04
492,95	5,11
493,44	5,26
493,93	4,82
494,419	5,13
494,909	5,14
495,398	5,09
495,888	5,19
496,377	5,31
496,866	5,35
497,355	5,25
497,844	5,3
498,333	5,41
498,821	5,22
499,31	5,34
499,798	5,38
500,287	5,49
500,775	5,4
501,263	5,6
501,751	5,64
502,239	5,73
502,727	5,61
503,215	5,81
503,702	6,08
504,19	5,66
504,677	6,17
505,164	6,3
505,651	6,27
506,139	6,23
506,625	6,36
507,112	6,42
507,599	6,5
508,086	6,6
508,572	6,61
509,058	7
509,545	6,99
510,031	6,98
510,517	7,3
511,003	7,11
511,489	7,71
511,974	7,62
512,46	7,75
512,946	7,89
513,431	8,09
513,916	8,13
514,401	8,41
514,887	8,5
515,371	9,06
515,856	9,15
516,341	9,27
516,826	9,43
517,31	9,68
517,795	9,98
518,279	9,84
518,763	10,51
519,247	10,48
519,731	11
520,215	10,77
520,699	11,19
521,182	11,45
521,666	11,75
522,149	12,01
522,633	12,33
523,116	12,75
523,599	13,15
524,082	12,9
524,565	13,29
525,048	13,36
525,53	13,62
526,013	14,06
526,495	14,36
526,978	14,42
527,46	14,63
527,942	14,51
528,424	15,18
528,906	15,17
529,388	15,24
529,87	15,62
530,351	15,49
530,833	16,12
531,314	16,24
531,795	16,07
532,277	16,35
532,758	16,67
533,238	16,49
533,719	16,8
534,2	16,44
534,681	17,03
535,161	17,2
535,642	17,3
536,122	16,74
536,602	17,12
537,082	17,53
537,562	17,59
538,042	17,16
538,522	17,67
539,001	17,61
539,481	17,77
539,96	17,55
540,44	17,59
540,919	17,73
541,398	17,93
541,877	17,74
542,356	18,21
542,835	17,67
543,313	18,16
543,792	17,96
544,27	18,2
544,749	18,37
545,227	18,3
545,705	18,2
546,183	18,63
546,661	18,47
547,139	18,46
547,616	18,35
548,094	18,31
548,571	18,43
549,049	18,57
549,526	18,6
550,003	18,44
550,48	18,57
550,957	18,52
551,434	18,46
551,911	18,71
552,387	18,49
552,864	18,89
553,34	18,94
553,817	18,52
554,293	18,77
554,769	18,88
555,245	18,77
555,721	18,83
556,197	18,7
556,672	18,44
557,148	18,62
557,623	18,85
558,099	18,25
558,574	18,51
559,049	18,26
559,524	18,59
559,999	18,23
560,474	18,1
560,948	17,94
561,423	18,14
561,897	17,89
562,372	18,11
562,846	17,71
563,32	17,73
563,794	17,63
564,268	17,69
564,742	17,34
565,216	17,41
565,69	16,97
566,163	17,08
566,636	16,79
567,11	16,57
567,583	16,45
568,056	16,44
568,529	16,53
569,002	16,2
569,475	16,02
569,947	15,93
570,42	15,74
570,892	15,4
571,365	15,4
571,837	15,18
572,309	14,89
572,781	14,95
573,253	14,89
573,725	14,63
574,197	14,46
574,668	14,28
575,14	14,13
575,611	14,16
576,082	13,71
576,554	13,62
577,025	13,45
577,496	13,63
577,967	13,24
578,437	13,29
578,908	13,2
579,379	13,09
579,849	12,83
580,319	12,84
580,79	12,81
581,26	12,69
581,73	12,48
582,2	12,28
582,669	12,19
583,139	12,45
583,609	12
584,078	12,14
584,548	11,91
585,017	12,01
585,486	11,68
585,955	11,59
586,424	11,69
586,893	11,55
587,362	11,58
587,83	11,56
588,299	11,5
588,767	11,49
589,236	11,29
589,704	10,96
590,172	11,12
590,64	11
591,108	11,11
591,576	11,08
592,043	10,97
592,511	10,75
592,978	10,99
593,446	10,9
593,913	10,76
594,38	10,76
594,847	10,56
595,314	10,58
595,781	10,61
596,248	10,58
596,715	10,63
597,181	10,58
597,647	10,44
598,114	10,34
598,58	10,41
599,046	10,44
599,512	10,43
599,978	10,37
600,444	10,39
600,91	10,23
601,375	10,29
601,841	10,42
602,306	10,18
602,771	10,06
603,236	10,01
603,702	10,3
604,167	10,1
604,631	9,88
605,096	9,94
605,561	9,76
606,025	9,9
606,49	9,8
606,954	9,76
607,418	9,7
607,882	9,53
608,347	9,52
608,81	9,49
609,274	9,4
609,738	9,22
610,202	9,37
610,665	9,23
611,128	9,16
611,592	8,94
612,055	8,97
612,518	9,02
612,981	8,83
613,444	8,67
613,907	8,7
614,369	8,7
614,832	8,52
615,294	8,53
615,757	8,49
616,219	8,53
616,681	8,32
617,143	8,32
617,605	8,37
618,067	8,31
618,529	8,18
618,99	8
619,452	7,95
619,913	8,03
620,375	8,11
620,836	7,96
621,297	7,96
621,758	7,82
622,219	7,75
622,68	7,8
623,14	7,7
623,601	7,73
624,061	7,57
624,522	7,66
624,982	7,74
625,442	7,78
625,902	7,69
626,362	7,65
626,822	7,59
627,282	7,69
627,742	7,71
628,201	7,54
628,661	7,52
629,12	7,62
629,579	7,41
630,038	7,59
630,497	7,52
630,956	7,44
631,415	7,51
631,874	7,34
632,332	7,37
632,791	7,33
633,249	7,23
633,708	7,32
634,166	7,23
634,624	7,11
635,082	7,18
635,54	7,09
635,998	7
636,455	7,02
636,913	6,95
637,37	7,01
637,828	6,87
638,285	6,89
638,742	6,62
639,199	6,71
639,656	6,54
640,113	6,51
640,57	6,31
641,027	6,39
641,483	6,31
641,94	6,24
642,396	6,28
642,852	6,23
643,309	5,99
643,765	5,98
644,221	5,96
644,676	5,82
645,132	5,8
645,588	5,73
646,043	5,57
646,499	5,55
646,954	5,48
647,409	5,42
647,864	5,47
648,319	5,39
648,774	5,39
649,229	5,27
649,684	5,16
650,139	5,32
650,593	5,19
651,047	5,13
651,502	5,09
651,956	5,03
652,41	5,06
652,864	4,94
653,318	5,1
653,772	4,86
654,225	4,95
654,679	4,92
655,133	4,93
655,586	4,91
656,039	4,88
656,492	4,8
656,946	4,92
657,399	4,81
657,851	4,85
658,304	4,72
658,757	4,73
659,209	4,83
659,662	4,63
660,114	4,71
660,567	4,53
661,019	4,57
661,471	4,55
661,923	4,5
662,375	4,49
662,826	4,52
663,278	4,5
663,73	4,44
664,181	4,45
664,632	4,48
665,084	4,41
665,535	4,49
665,986	4,41
666,437	4,48
666,888	4,51
667,338	4,54
667,789	4,65
668,24	4,62
668,69	4,48
669,14	4,63
669,591	4,63
670,041	4,67
670,491	4,72
670,941	4,63
671,391	4,83
671,84	4,91
672,29	4,88
672,74	4,92
673,189	5,04
673,638	5,03
674,088	5,14
674,537	5,21
674,986	5,21
675,435	5,43
675,883	5,38
676,332	5,55
676,781	5,59
677,229	5,71
677,678	5,79
678,126	5,73
678,574	5,96
679,022	5,97
679,47	6,09
679,918	6,28
680,366	6,26
680,814	6,35
681,261	6,45
681,709	6,6
682,156	6,65
682,604	6,78
683,051	6,83
683,498	6,93
683,945	6,92
684,392	7,03
684,839	7,09
685,286	7,07
685,732	7,15
686,179	7,3
686,625	7,31
687,071	7,33
687,518	7,47
687,964	7,51
688,41	7,49
688,856	7,69
689,301	7,73
689,747	7,86
690,193	7,95
690,638	8,11
691,084	8,25
691,529	8,6
691,974	8,8
692,419	9,15
692,864	9,39
693,309	9,69
693,754	9,99
694,199	10,23
694,643	10,5
695,088	11,02
695,532	11,38
695,977	11,88
696,421	12,1
696,865	12,59
697,309	13,05
697,753	13,43
698,197	13,98
698,64	14,52
699,084	14,99
699,527	15,37
699,971	15,9
700,414	16,53
700,857	16,82
701,3	17,31
701,743	17,9
702,186	18,25
702,629	18,8
703,072	19,33
703,515	19,62
703,957	20,22
704,399	20,72
704,842	21,07
705,284	21,45
705,726	21,89
706,168	22,49
706,61	22,94
707,052	23,21
707,494	23,93
707,935	24,09
708,377	24,8
708,818	25,29
709,26	25,7
709,701	25,89
710,142	26,49
710,583	26,7
711,024	27,26
711,465	27,68
711,905	28,02
712,346	28,32
712,787	28,52
713,227	29,2
713,667	29,49
714,108	30,07
714,548	30,39
714,988	30,77
715,428	31,26
715,868	31,59
716,307	31,77
716,747	32,22
717,186	32,76
717,626	32,65
718,065	33,41
718,504	33,59
718,944	33,73
719,383	34,23
719,822	34,36
720,261	34,79
720,699	35,02
721,138	35,12
721,576	35,71
722,015	36,06
722,453	36,27
722,892	36,26
723,33	36,67
723,768	37,43
724,206	37,29
724,644	37,58
725,081	37,87
725,519	38,03
725,957	38,17
726,394	38,46
726,832	38,9
727,269	38,93
727,706	38,91
728,143	39,17
728,58	39,44
729,017	39,33
729,454	39,78
729,89	40,06
730,327	39,88
730,764	40,35
731,2	40,36
731,636	40,36
732,072	40,64
732,509	40,72
732,945	40,9
733,38	40,94
733,816	41,06
734,252	40,98
734,688	41,33
735,123	41,53
735,559	41,66
735,994	41,6
736,429	41,9
736,864	41,73
737,299	41,7
737,734	42,09
738,169	41,79
738,604	42,07
739,038	41,98
739,473	42,12
739,907	42
740,342	42
740,776	42,39
741,21	42,3
741,644	42,32
742,078	42,41
742,512	42,36
742,946	42,54
743,379	42,29
743,813	42,22
744,246	42,43
744,68	42,41
745,113	42,36
745,546	42,33
745,979	42,64
746,412	42,31
746,845	42,29
747,278	42,4
747,711	42,28
748,143	42,49
748,576	42,63
749,008	42,47
749,441	42,47
749,873	42,23
750,305	42,32
750,737	42,1
751,169	41,93
751,601	42,03
752,032	42,09
752,464	41,88
752,896	41,82
753,327	41,91
753,758	41,97
754,19	42,15
754,621	41,91
755,052	41,63
755,483	41,96
755,914	42,1
756,344	41,89
756,775	42,03
757,206	41,85
757,636	41,9
758,066	41,93
758,497	41,92
758,927	42,11
759,357	41,76
759,787	41,64
760,217	41,4
760,647	41,29
761,076	41,73
761,506	41,56
761,935	41,53
762,365	41,6
762,794	41,52
763,223	41,6
763,653	41,39
764,082	41,1
764,51	41,51
764,939	41,28
765,368	41,11
765,797	41,28
766,225	41,13
766,654	40,99
767,082	41,09
767,51	41,24
767,938	40,96
768,367	41,06
768,795	40,9
769,222	41,39
769,65	41,12
770,078	40,87
770,505	41,05
770,933	41,02
771,36	41,18
771,788	40,94
772,215	40,85
772,642	41,02
773,069	40,97
773,496	40,92
773,923	40,62
774,349	40,43
774,776	41,03
775,203	40,54
775,629	40,68
776,055	40,63
776,482	40,45
776,908	40,32
777,334	40,22
777,76	40,72
778,186	40,66
778,611	40,7
779,037	40,42
779,463	40,38
779,888	40,54
780,314	40,46
780,739	40,63
781,164	40,49
781,589	40,29
782,014	40,53
782,439	40,36
782,864	40,68
783,289	40,7
783,713	40,3
784,138	40,54
784,562	40,33
784,987	40,31
785,411	40,14
785,835	40,22
786,259	40,18
786,683	40,43
787,107	40,29
787,531	40,19
787,954	40,42
788,378	40,19
788,802	40,32
789,225	40,05
789,648	40,39
790,071	39,88
790,495	40,32
790,918	40,27
791,34	40,2
791,763	40,22
792,186	40,15
792,609	40,08
793,031	40,03
793,454	40
793,876	40,32
794,298	40,12
794,721	39,83
795,143	40,29
795,565	39,81
795,986	39,8
796,408	40,21
796,83	39,94
797,252	39,9
797,673	40,26
798,094	40,29
798,516	40,4
798,937	40,39
799,358	39,82
799,779	40
800,2	40,42
800,621	39,74
801,042	40,11
801,462	39,78
801,883	39,83
802,303	39,68
802,724	40,04
803,144	39,98
803,564	39,94
803,984	40,18
804,404	40,12
804,824	40,29
805,244	39,96
805,664	40,08
806,084	40,1
806,503	39,99
806,923	39,78
807,342	39,82
807,761	39,72
808,18	39,78
808,599	39,86
809,018	40,03
809,437	40,11
809,856	39,44
810,275	40,15
810,693	39,99
811,112	40,2
811,53	40,11
811,949	40,12
812,367	40,15
812,785	39,95
813,203	40,03
813,621	39,9
814,039	39,69
814,457	39,97
814,874	39,67
815,292	39,73
815,709	39,69
816,127	39,95
816,544	39,7
816,961	39,86
817,378	40,24
817,795	40,11
818,212	39,75
818,629	40,24
819,046	39,94
819,462	39,73
819,879	39,91
820,295	39,72
820,712	39,7
821,128	39,66
821,544	39,84
821,96	40,01
822,376	39,66
822,792	39,77
823,208	40,1
823,624	39,66
824,039	39,85
824,455	40,01
824,87	39,42
825,286	40,05
825,701	39,76
826,116	39,65
826,531	40,12
826,946	39,73
827,361	39,46
827,776	39,56
828,19	39,59
828,605	39,35
829,02	39,64
829,434	39,3
829,848	39,71
830,263	39,59
830,677	39,6
831,091	39,23
831,505	39,55
831,919	39,81
832,332	39,78
832,746	39,68
833,16	39,39
833,573	39,62
833,987	39,71
834,4	39,54
834,813	39,29
835,226	39,32
835,639	39,52
836,052	39,19
836,465	39,79
836,878	39,66
837,29	39,6
837,703	39,59
838,116	39,8
838,528	39,95
838,94	39,71
839,352	39,5
839,765	39,51
840,177	39,57
840,589	39,52
841	39,04
841,412	39,45
841,824	39,52
842,235	39,58
842,647	39,65
843,058	39,47
843,47	39,6
843,881	39,63
844,292	39,25
844,703	39,58
