Data from E2___Relative__2__00075.txt Node

Date: Wed Jan 31 18:24:42 CET 2024
User: diatiterra
Spectrometer: HDX00911
Trigger mode: 0
Integration Time (sec): 6,000000E-3
Scans to average: 2
Nonlinearity correction enabled: false
Boxcar width: 0
Storing dark spectrum: false
XAxis mode: Wavelengths
Number of Pixels in Spectrum: 2068
>>>>>Begin Spectral Data<<<<<
194,468	235,85
195,025	157,27
195,581	224,39
196,138	219,23
196,694	137,04
197,251	119,19
197,807	106,69
198,363	107,6
198,919	102,41
199,474	106,25
200,03	106,97
200,586	116,07
201,141	88,06
201,696	98,32
202,251	97,35
202,806	88,81
203,361	111,48
203,916	98,61
204,471	96,35
205,025	114,92
205,58	104,29
206,134	108
206,688	100,77
207,242	111,95
207,796	100,38
208,35	103,62
208,904	101,38
209,457	97,57
210,011	92,2
210,564	98,94
211,117	103,76
211,67	111,57
212,223	98,97
212,776	112,5
213,329	91,67
213,881	127,94
214,434	98,03
214,986	115,29
215,538	107,35
216,09	93,66
216,642	114,05
217,194	108,71
217,746	107,14
218,297	102,29
218,849	105,88
219,4	115,55
219,951	103,23
220,502	102,36
221,053	113,74
221,604	100,34
222,155	95,63
222,705	97,06
223,256	102,24
223,806	104,33
224,356	98,85
224,906	114,52
225,456	107,75
226,006	105,56
226,556	85,06
227,106	113,71
227,655	92,36
228,204	115,42
228,754	97,18
229,303	98,21
229,852	105,04
230,401	100,37
230,949	97,84
231,498	97,54
232,047	87,66
232,595	104,14
233,143	117,32
233,691	102,33
234,239	98,93
234,787	102,8
235,335	104,1
235,883	98,95
236,43	99,62
236,978	111,92
237,525	98,18
238,072	97,52
238,619	93,94
239,166	96,1
239,713	94,53
240,26	101,43
240,806	97,22
241,353	103,57
241,899	92,66
242,445	97,45
242,991	108,02
243,537	93,56
244,083	104,2
244,629	99,23
245,174	111,95
245,72	94,81
246,265	91,27
246,81	101,6
247,355	110,32
247,9	98,51
248,445	115,08
248,99	98,86
249,534	119,57
250,079	105,64
250,623	90,74
251,168	113,22
251,712	106,64
252,256	115,16
252,8	112,31
253,343	102,86
253,887	105,65
254,43	105,73
254,974	105,34
255,517	94,52
256,06	112,69
256,603	94,44
257,146	108,14
257,689	117,32
258,232	112,29
258,774	98,94
259,317	108,05
259,859	111,01
260,401	109,69
260,943	91,13
261,485	102,13
262,027	110
262,569	107,09
263,11	104,23
263,652	117,32
264,193	105,37
264,734	106,93
265,275	109,02
265,816	96,56
266,357	107,75
266,898	106,54
267,438	110,24
267,979	99,28
268,519	102,99
269,059	121,03
269,6	106,02
270,14	119,35
270,68	105,8
271,219	115,68
271,759	98,5
272,298	102,26
272,838	102,69
273,377	112,3
273,916	97,84
274,455	103,28
274,994	104
275,533	98,19
276,072	104,07
276,61	103,26
277,149	110
277,687	105,64
278,225	93,67
278,763	118,42
279,301	104,58
279,839	101,21
280,377	102,46
280,914	98,25
281,452	112,39
281,989	101,65
282,526	103,54
283,064	104,2
283,601	88,51
284,137	102,48
284,674	106,67
285,211	118,42
285,747	102,27
286,284	112,61
286,82	108,68
287,356	91,78
287,892	99,22
288,428	107,44
288,964	111,76
289,5	116,53
290,035	110,4
290,571	108,4
291,106	106,1
291,641	110,27
292,176	97,66
292,711	108,54
293,246	98,85
293,781	109,5
294,315	95,77
294,85	117,13
295,384	103,69
295,918	99,26
296,453	94,4
296,987	98,76
297,52	104,55
298,054	98,09
298,588	97,5
299,121	97,76
299,655	105,11
300,188	104,58
300,721	101,63
301,254	102,02
301,787	98,05
302,32	107,32
302,853	108,8
303,385	107,14
303,918	100,39
304,45	105,77
304,982	95,74
305,514	106,59
306,046	96,69
306,578	101,94
307,11	107,36
307,641	109,91
308,173	101,65
308,704	102,89
309,236	98,12
309,767	100,35
310,298	102,02
310,829	109,13
311,359	110,48
311,89	115,13
312,421	110,81
312,951	99,59
313,481	91,72
314,012	97,39
314,542	106,78
315,072	103,82
315,601	104,8
316,131	111,81
316,661	103,75
317,19	109,26
317,72	109,5
318,249	105,95
318,778	107,42
319,307	101,17
319,836	114,16
320,365	102,17
320,893	105,79
321,422	119,11
321,95	112,41
322,479	103,05
323,007	116,36
323,535	95,36
324,063	112
324,591	96
325,118	103,65
325,646	111,76
326,173	105,42
326,701	106,5
327,228	114,22
327,755	96,99
328,282	100,38
328,809	112,29
329,336	107,48
329,862	100,37
330,389	96,48
330,915	104,33
331,441	101,91
331,968	106,76
332,494	96,21
333,02	102,08
333,545	98,13
334,071	113,22
334,597	81,69
335,122	92,59
335,648	105,17
336,173	92,05
336,698	82,91
337,223	94,49
337,748	98,96
338,272	95,21
338,797	101,45
339,322	88,69
339,846	93,75
340,37	110,48
340,894	98,96
341,419	97,74
341,942	92,31
342,466	89,1
342,99	87,25
343,514	94,37
344,037	86,39
344,56	103,33
345,084	95,89
345,607	88,54
346,13	90,14
346,653	99,67
347,175	91,99
347,698	84,28
348,221	87,14
348,743	88,82
349,265	91,73
349,787	85,28
350,309	88,29
350,831	80,25
351,353	84,45
351,875	84,8
352,397	93,01
352,918	94,41
353,439	91,72
353,961	77,91
354,482	88,89
355,003	84,3
355,524	81,11
356,044	82,1
356,565	85,24
357,086	89,27
357,606	80,22
358,126	84,31
358,646	72,19
359,167	86,22
359,687	78,53
360,206	79,78
360,726	75,12
361,246	85,37
361,765	86,72
362,285	76,25
362,804	84,21
363,323	73,41
363,842	81,04
364,361	77,86
364,88	78,33
365,398	72,27
365,917	77,59
366,435	82,81
366,954	75,45
367,472	66,75
367,99	81,52
368,508	62,75
369,026	81,14
369,544	74,34
370,061	73,95
370,579	69,47
371,096	76,38
371,613	73,92
372,131	65,55
372,648	69,69
373,165	70,51
373,681	68,57
374,198	74,61
374,715	71,99
375,231	69,51
375,747	65
376,264	63,95
376,78	67,45
377,296	66,91
377,812	62,46
378,327	64,4
378,843	66,21
379,359	64,9
379,874	68,51
380,389	61,83
380,905	57,16
381,42	56,38
381,935	66,31
382,449	57,96
382,964	57,86
383,479	63,36
383,993	57,48
384,508	58,14
385,022	52,85
385,536	57,5
386,05	57,35
386,564	55,72
387,078	51,32
387,592	49,51
388,105	55,91
388,619	49,55
389,132	49,55
389,645	50,23
390,158	47,53
390,671	49,8
391,184	48,58
391,697	46,59
392,21	44,44
392,722	48,51
393,235	45,12
393,747	46,21
394,259	43,54
394,771	44,7
395,283	41,12
395,795	41,88
396,307	45,51
396,818	43,42
397,33	40,56
397,841	41,15
398,353	40,46
398,864	38,39
399,375	39,73
399,886	39,35
400,397	37,21
400,907	36,88
401,418	36,43
401,928	33,98
402,439	34,82
402,949	33,12
403,459	32,9
403,969	34,18
404,479	29,83
404,989	29,6
405,498	30,25
406,008	28,89
406,517	28,73
407,027	25,95
407,536	25,54
408,045	26,64
408,554	24,45
409,063	24,27
409,572	22,7
410,08	22,19
410,589	21,45
411,097	20,84
411,606	20,87
412,114	19,86
412,622	20,46
413,13	19,64
413,638	19,07
414,145	17,41
414,653	17,85
415,16	16,3
415,668	16,54
416,175	15,71
416,682	15,83
417,189	14,15
417,696	14,85
418,203	15,61
418,71	14,41
419,216	14,43
419,723	14,26
420,229	14,28
420,735	14,2
421,242	13,7
421,748	13,18
422,254	12,36
422,759	12,86
423,265	13,55
423,771	12,24
424,276	12,82
424,781	12,57
425,287	13,11
425,792	12,49
426,297	12,51
426,802	11,69
427,306	12,34
427,811	12,51
428,316	11,66
428,82	11,5
429,324	11,92
429,829	11,52
430,333	11,22
430,837	11,62
431,34	11,69
431,844	11,22
432,348	11,6
432,851	10,61
433,355	10,78
433,858	11,46
434,361	10,74
434,864	10,89
435,367	10,79
435,87	11,45
436,373	10,83
436,876	10,99
437,378	11,23
437,88	10,91
438,383	10,68
438,885	10,69
439,387	10,93
439,889	10,49
440,391	10,75
440,892	10,88
441,394	10,59
441,896	10,28
442,397	10,49
442,898	10,24
443,399	10,62
443,9	10,4
444,401	10,13
444,902	10,38
445,403	10,42
445,903	10,79
446,404	10,98
446,904	10,52
447,405	10,5
447,905	10,61
448,405	10,43
448,905	11,19
449,404	11
449,904	10,97
450,404	10,96
450,903	11,3
451,403	10,86
451,902	10,98
452,401	10,8
452,9	10,86
453,399	11,36
453,898	10,77
454,396	11,24
454,895	10,93
455,393	11
455,892	11,04
456,39	10,96
456,888	11,45
457,386	11,48
457,884	11,41
458,382	11,7
458,879	11,43
459,377	11,75
459,874	11,27
460,372	11,27
460,869	11,71
461,366	11,05
461,863	11,42
462,36	11,54
462,857	11,45
463,353	10,81
463,85	11,35
464,346	11,19
464,843	11,34
465,339	11,16
465,835	11,45
466,331	11,14
466,827	10,99
467,323	11,15
467,818	11,4
468,314	11,28
468,809	11,31
469,305	11,18
469,8	11,15
470,295	11,52
470,79	11,28
471,285	11,08
471,78	10,95
472,274	11,14
472,769	10,97
473,263	11,09
473,758	11,24
474,252	11,27
474,746	11,61
475,24	11,54
475,734	11,26
476,228	11,39
476,721	11,29
477,215	11,3
477,708	11,6
478,202	11,16
478,695	11,21
479,188	11,33
479,681	11,09
480,174	11,11
480,667	11,47
481,159	11,34
481,652	11,69
482,144	11,42
482,637	11,83
483,129	11,19
483,621	11,32
484,113	11,6
484,605	11,61
485,097	11,47
485,588	11,43
486,08	11,65
486,571	12,11
487,063	11,55
487,554	11,89
488,045	11,51
488,536	11,89
489,027	12
489,518	12,14
490,008	11,73
490,499	11,99
490,989	11,68
491,48	12,04
491,97	12,24
492,46	12,15
492,95	12,46
493,44	12,72
493,93	12,41
494,419	12,51
494,909	12,98
495,398	12,95
495,888	13,2
496,377	13,34
496,866	13,13
497,355	13,33
497,844	13,44
498,333	13,75
498,821	13,57
499,31	14,03
499,798	13,82
500,287	14,33
500,775	14,57
501,263	14,76
501,751	14,89
502,239	14,86
502,727	14,91
503,215	15,45
503,702	15,68
504,19	15,73
504,677	16,41
505,164	16,68
505,651	16,83
506,139	16,59
506,625	17,14
507,112	17,43
507,599	17,7
508,086	17,75
508,572	18,45
509,058	18,86
509,545	18,37
510,031	19
510,517	19,34
511,003	19,38
511,489	20,12
511,974	20,68
512,46	20,54
512,946	20,8
513,431	21,05
513,916	21,66
514,401	21,7
514,887	22,16
515,371	22,54
515,856	23,07
516,341	23,37
516,826	23,7
517,31	23,99
517,795	24,49
518,279	24,91
518,763	25,32
519,247	25,7
519,731	26,15
520,215	26,49
520,699	26,73
521,182	26,89
521,666	27,17
522,149	27,55
522,633	28,54
523,116	28,42
523,599	28,85
524,082	28,76
524,565	29,61
525,048	29,6
525,53	29,6
526,013	30,64
526,495	30,61
526,978	30,61
527,46	31,1
527,942	31,31
528,424	31,93
528,906	32,02
529,388	32,17
529,87	32,97
530,351	32,29
530,833	32,86
531,314	33,06
531,795	32,3
532,277	33,65
532,758	33,93
533,238	33,84
533,719	33,4
534,2	33,57
534,681	34,19
535,161	33,87
535,642	34,5
536,122	34,25
536,602	34,53
537,082	34,29
537,562	34,74
538,042	34,76
538,522	34,46
539,001	34,92
539,481	35,28
539,96	34,83
540,44	34,97
540,919	35,39
541,398	35,1
541,877	34,86
542,356	35
542,835	35,16
543,313	35,41
543,792	35,17
544,27	35,05
544,749	35,18
545,227	35,89
545,705	35,68
546,183	35,57
546,661	35,48
547,139	35,6
547,616	35,27
548,094	36,32
548,571	35,91
549,049	36,15
549,526	35,61
550,003	35,74
550,48	35,95
550,957	36,04
551,434	35,93
551,911	35,9
552,387	35,73
552,864	36,29
553,34	36,51
553,817	35,59
554,293	36,22
554,769	35,91
555,245	35,72
555,721	35,86
556,197	36,13
556,672	35,87
557,148	36,33
557,623	36,49
558,099	36,04
558,574	36,2
559,049	35,74
559,524	35,93
559,999	35,85
560,474	35,7
560,948	35,54
561,423	36,12
561,897	35,36
562,372	35,51
562,846	35,48
563,32	35,39
563,794	35,34
564,268	35,63
564,742	35,01
565,216	34,6
565,69	34,44
566,163	34,44
566,636	33,9
567,11	34,21
567,583	33,89
568,056	34,09
568,529	34,25
569,002	34,01
569,475	33,48
569,947	32,93
570,42	33,48
570,892	32,78
571,365	32,97
571,837	32,39
572,309	32,64
572,781	32,09
573,253	32,15
573,725	31,94
574,197	31,63
574,668	31,56
575,14	31,29
575,611	31,19
576,082	30,78
576,554	30,64
577,025	30,5
577,496	30,31
577,967	30,24
578,437	29,78
578,908	29,53
579,379	29,56
579,849	29,65
580,319	29,4
580,79	29,15
581,26	29,14
581,73	28,97
582,2	28,82
582,669	28,58
583,139	28,37
583,609	28,43
584,078	28,46
584,548	28,08
585,017	28,15
585,486	27,69
585,955	27,59
586,424	27,83
586,893	27,72
587,362	27,61
587,83	27,3
588,299	27,28
588,767	27,48
589,236	27,3
589,704	26,8
590,172	26,95
590,64	26,62
591,108	26,74
591,576	26,75
592,043	26,46
592,511	26,56
592,978	26,58
593,446	26,71
593,913	26,24
594,38	26,12
594,847	26,03
595,314	26,21
595,781	26,19
596,248	25,9
596,715	25,87
597,181	25,93
597,647	25,77
598,114	25,96
598,58	25,62
599,046	25,97
599,512	25,87
599,978	25,54
600,444	25,73
600,91	25,71
601,375	25,48
601,841	25,7
602,306	25,39
602,771	25,19
603,236	25,12
603,702	25,51
604,167	25,34
604,631	25,15
605,096	24,97
605,561	25,1
606,025	25,03
606,49	24,57
606,954	24,75
607,418	24,48
607,882	24,66
608,347	24,54
608,81	24,04
609,274	24,19
609,738	23,93
610,202	24
610,665	23,97
611,128	23,37
611,592	23,63
612,055	23,43
612,518	23,37
612,981	23,55
613,444	23,18
613,907	23,21
614,369	22,84
614,832	23,19
615,294	22,72
615,757	22,63
616,219	22,8
616,681	22,27
617,143	22,35
617,605	22,24
618,067	22,32
618,529	22,11
618,99	21,92
619,452	21,84
619,913	21,8
620,375	21,75
620,836	21,75
621,297	21,63
621,758	21,72
622,219	21,48
622,68	21,29
623,14	21,25
623,601	21,21
624,061	21,43
624,522	21,19
624,982	21,24
625,442	21,46
625,902	21,22
626,362	21,14
626,822	21,05
627,282	21
627,742	21,12
628,201	20,84
628,661	20,91
629,12	21,16
629,579	20,82
630,038	20,98
630,497	20,9
630,956	20,88
631,415	20,47
631,874	20,71
632,332	20,6
632,791	20,67
633,249	20,52
633,708	20,73
634,166	20,31
634,624	20,17
635,082	20,37
635,54	20,19
635,998	19,78
636,455	19,96
636,913	19,77
637,37	19,77
637,828	19,33
638,285	19,35
638,742	19,11
639,199	18,93
639,656	18,73
640,113	18,75
640,57	18,56
641,027	18,28
641,483	18,18
641,94	18,04
642,396	17,92
642,852	17,68
643,309	17,53
643,765	17,22
644,221	17,06
644,676	16,85
645,132	16,84
645,588	16,58
646,043	16,58
646,499	16,23
646,954	16,11
647,409	16,03
647,864	15,92
648,319	15,81
648,774	15,6
649,229	15,46
649,684	15,14
650,139	15,29
650,593	15,04
651,047	14,97
651,502	14,98
651,956	14,72
652,41	14,62
652,864	14,59
653,318	14,77
653,772	14,65
654,225	14,3
654,679	14,36
655,133	14,4
655,586	14,22
656,039	14,07
656,492	14,08
656,946	14,06
657,399	13,93
657,851	13,86
658,304	13,66
658,757	13,6
659,209	13,52
659,662	13,43
660,114	13,16
660,567	13,22
661,019	13,01
661,471	12,78
661,923	12,71
662,375	12,5
662,826	12,46
663,278	12,26
663,73	12,22
664,181	12,11
664,632	12,03
665,084	11,96
665,535	11,81
665,986	11,76
666,437	11,66
666,888	11,65
667,338	11,39
667,789	11,48
668,24	11,31
668,69	11,23
669,14	11,28
669,591	11,13
670,041	11,37
670,491	11,25
670,941	11,09
671,391	11,26
671,84	11,17
672,29	11,26
672,74	11,27
673,189	11,44
673,638	11,37
674,088	11,62
674,537	11,45
674,986	11,63
675,435	11,79
675,883	11,7
676,332	11,81
676,781	11,94
677,229	12,07
677,678	12,02
678,126	12,24
678,574	12,34
679,022	12,54
679,47	12,49
679,918	12,74
680,366	12,89
680,814	13,12
681,261	13,03
681,709	13,34
682,156	13,4
682,604	13,84
683,051	13,88
683,498	14,12
683,945	14,22
684,392	14,39
684,839	14,72
685,286	15
685,732	15,19
686,179	15,54
686,625	15,76
687,071	16,18
687,518	16,41
687,964	16,76
688,41	17,22
688,856	17,72
689,301	18,19
689,747	18,51
690,193	19,05
690,638	19,46
691,084	19,88
691,529	20,7
691,974	21,25
692,419	21,78
692,864	22,5
693,309	22,81
693,754	23,66
694,199	24,15
694,643	24,73
695,088	25,37
695,532	26,29
695,977	26,59
696,421	27,3
696,865	27,8
697,309	28,34
697,753	28,89
698,197	29,69
698,64	30,43
699,084	30,88
699,527	31,33
699,971	31,72
700,414	32,42
700,857	32,81
701,3	33,27
701,743	34,02
702,186	34,43
702,629	35,16
703,072	35,68
703,515	35,7
703,957	36,12
704,399	36,71
704,842	36,97
705,284	37,36
705,726	37,9
706,168	38,03
706,61	38,82
707,052	39,03
707,494	39,62
707,935	39,51
708,377	40,25
708,818	40,61
709,26	40,83
709,701	40,94
710,142	41,77
710,583	41,55
711,024	42,19
711,465	42,27
711,905	42,49
712,346	42,81
712,787	42,93
713,227	43,38
713,667	43,6
714,108	44,2
714,548	44,18
714,988	44,84
715,428	44,85
715,868	45,24
716,307	45,29
716,747	45,21
717,186	45,57
717,626	46,27
718,065	46,2
718,504	46,48
718,944	46,47
719,383	46,71
719,822	46,72
720,261	47,01
720,699	47,15
721,138	46,97
721,576	47,38
722,015	47,7
722,453	47,76
722,892	47,92
723,33	48,18
723,768	48,76
724,206	48,8
724,644	48,18
725,081	48,86
725,519	48,79
725,957	48,72
726,394	49,06
726,832	48,99
727,269	49,07
727,706	49,28
728,143	49,26
728,58	49,81
729,017	49,43
729,454	49,21
729,89	49,68
730,327	50,06
730,764	49,92
731,2	49,79
731,636	49,76
732,072	50,38
732,509	50,32
732,945	50,25
733,38	49,96
733,816	50,4
734,252	50,58
734,688	50,27
735,123	50,36
735,559	50,27
735,994	50,42
736,429	50,37
736,864	50,74
737,299	50,67
737,734	51,11
738,169	50,58
738,604	50,63
739,038	50,38
739,473	50,5
739,907	50,76
740,342	50,62
740,776	50,63
741,21	50,34
741,644	50,95
742,078	50,74
742,512	50,58
742,946	50,86
743,379	50,34
743,813	50,49
744,246	50,18
744,68	50,45
745,113	50,21
745,546	50,32
745,979	50,58
746,412	50,48
746,845	50,19
747,278	50,35
747,711	50,16
748,143	50,06
748,576	50,38
749,008	50,39
749,441	50,18
749,873	49,95
750,305	50,41
750,737	50,05
751,169	49,89
751,601	49,62
752,032	49,69
752,464	49,68
752,896	49,35
753,327	49,76
753,758	49,39
754,19	49,89
754,621	49,43
755,052	49,6
755,483	49,38
755,914	49,53
756,344	49,46
756,775	49,31
757,206	49,56
757,636	49,23
758,066	49,38
758,497	49,34
758,927	49,61
759,357	49,28
759,787	49,07
760,217	49,27
760,647	49,18
761,076	48,98
761,506	48,77
761,935	48,85
762,365	48,97
762,794	48,9
763,223	49,29
763,653	49,08
764,082	48,83
764,51	48,85
764,939	48,76
765,368	48,89
765,797	48,8
766,225	48,62
766,654	48,67
767,082	48,42
767,51	48,7
767,938	48,46
768,367	48,36
768,795	48,11
769,222	48,69
769,65	48,51
770,078	48
770,505	48,41
770,933	48,37
771,36	48,42
771,788	47,89
772,215	48,18
772,642	48,07
773,069	48,42
773,496	48,15
773,923	47,95
774,349	47,92
774,776	47,98
775,203	47,78
775,629	48,16
776,055	47,93
776,482	47,6
776,908	47,89
777,334	47,94
777,76	47,74
778,186	48,22
778,611	48,14
779,037	48,04
779,463	47,94
779,888	47,72
780,314	47,77
780,739	47,96
781,164	47,97
781,589	47,59
782,014	47,8
782,439	47,73
782,864	47,73
783,289	47,94
783,713	47,49
784,138	47,55
784,562	47,47
784,987	47,77
785,411	47,57
785,835	47,37
786,259	47,82
786,683	47,86
787,107	47,44
787,531	47,67
787,954	47,64
788,378	47,96
788,802	47,68
789,225	47,57
789,648	47,71
790,071	46,97
790,495	47,63
790,918	47,43
791,34	47,52
791,763	47,47
792,186	47,4
792,609	47,27
793,031	47,33
793,454	47,52
793,876	47,63
794,298	47,21
794,721	47,11
795,143	47,55
795,565	47,32
795,986	47,01
796,408	46,81
796,83	46,91
797,252	47,3
797,673	47,69
798,094	47,73
798,516	47,56
798,937	47,22
799,358	47,01
799,779	47,14
800,2	47,35
800,621	47,25
801,042	46,93
801,462	47,39
801,883	47,17
802,303	46,91
802,724	47,04
803,144	46,89
803,564	47,09
803,984	47,32
804,404	47,17
804,824	46,96
805,244	47,17
805,664	47,47
806,084	46,87
806,503	47,27
806,923	47,07
807,342	47,1
807,761	46,74
808,18	47,01
808,599	47,03
809,018	46,98
809,437	46,82
809,856	46,75
810,275	47,27
810,693	47,09
811,112	47,08
811,53	47,44
811,949	47,28
812,367	47,09
812,785	47,27
813,203	47,31
813,621	47,27
814,039	46,83
814,457	46,8
814,874	46,58
815,292	46,71
815,709	46,9
816,127	47,2
816,544	47,2
816,961	46,94
817,378	47,32
817,795	46,98
818,212	46,9
818,629	47,53
819,046	46,82
819,462	46,87
819,879	46,67
820,295	46,93
820,712	46,75
821,128	46,83
821,544	46,93
821,96	47,06
822,376	46,72
822,792	46,86
823,208	47,04
823,624	46,96
824,039	46,84
824,455	46,87
824,87	46,46
825,286	46,93
825,701	46,76
826,116	46,43
826,531	46,83
826,946	46,48
827,361	46,49
827,776	46,72
828,19	46,6
828,605	46,26
