Data from F5__Relative__0__00106.txt Node

Date: Wed Jan 31 18:35:14 CET 2024
User: diatiterra
Spectrometer: HDX00911
Trigger mode: 0
Integration Time (sec): 6,000000E-3
Scans to average: 2
Nonlinearity correction enabled: false
Boxcar width: 0
Storing dark spectrum: false
XAxis mode: Wavelengths
Number of Pixels in Spectrum: 2068
>>>>>Begin Spectral Data<<<<<
194,468	235,85
195,025	150
195,581	229,27
196,138	225,64
196,694	159,26
197,251	128,79
197,807	112,99
198,363	102
198,919	101,72
199,474	113,24
200,03	113,11
200,586	117,86
201,141	90,32
201,696	96,64
202,251	108,71
202,806	95,8
203,361	109,63
203,916	102,43
204,471	102,19
205,025	112,5
205,58	96,43
206,134	111,6
206,688	104,23
207,242	124,78
207,796	99,25
208,35	109,06
208,904	108,28
209,457	93,4
210,011	98,94
210,564	104,93
211,117	104,51
211,67	105,6
212,223	100
212,776	108,87
213,329	95,33
213,881	130,39
214,434	97,7
214,986	114,88
215,538	105,51
216,09	91,9
216,642	111,57
217,194	110,61
217,746	107,89
218,297	107,25
218,849	109,56
219,4	114,29
219,951	106,85
220,502	104,05
221,053	108,02
221,604	101,01
222,155	106,75
222,705	95,96
223,256	110,45
223,806	114,57
224,356	110
224,906	116,13
225,456	120,54
226,006	107,54
226,556	87,99
227,106	112,1
227,655	95,49
228,204	114,17
228,754	100,35
229,303	98,93
229,852	97,84
230,401	100,75
230,949	103,6
231,498	97,89
232,047	91,56
232,595	104,83
233,143	113,39
233,691	105,81
234,239	103,21
234,787	106,8
235,335	104,48
235,883	98,95
236,43	109,85
236,978	109,23
237,525	99,64
238,072	100,35
238,619	104,17
239,166	101,42
239,713	98,18
240,26	97,5
240,806	106,94
241,353	111,11
241,899	96,15
242,445	100,73
242,991	106,49
243,537	104,17
244,083	111,83
244,629	104,62
245,174	115,49
245,72	102,22
246,265	101,98
246,81	116,8
247,355	114,68
247,9	101,12
248,445	112,7
248,99	105,3
249,534	122,17
250,079	101,88
250,623	104,81
251,168	114,05
251,712	108,59
252,256	111,07
252,8	112,69
253,343	101,07
253,887	101,21
254,43	106,87
254,974	104,58
255,517	109,59
256,06	117,69
256,603	103,7
257,146	114,34
257,689	112,6
258,232	116,95
258,774	108,16
259,317	114,41
259,859	119,27
260,401	115,89
260,943	95,74
261,485	102,84
262,027	110
262,569	109,7
263,11	104,62
263,652	124,41
264,193	110,33
264,734	115,33
265,275	117,21
265,816	114,12
266,357	107,75
266,898	110
267,438	111,02
267,979	103,6
268,519	102,24
269,059	135,98
269,6	113,16
270,14	122,98
270,68	110,14
271,219	121,61
271,759	100,38
272,298	108,65
272,838	109,62
273,377	113,49
273,916	100
274,455	109,49
274,994	106
275,533	95,65
276,072	104,88
276,61	100,36
277,149	108,75
277,687	106,39
278,225	93
278,763	123,68
279,301	117,5
279,839	109,68
280,377	111,48
280,914	94,76
281,452	123,93
281,989	109,92
282,526	112,2
283,064	114,29
283,601	97,64
284,137	107,44
284,674	114,17
285,211	119,74
285,747	107,58
286,284	123,87
286,82	114,88
287,356	99,67
287,892	112,4
288,428	111,57
288,964	122,27
289,5	117,77
290,035	114
290,571	113,45
291,106	118,7
291,641	115,62
292,176	115,62
292,711	113,01
293,246	99,23
293,781	114,05
294,315	95,42
294,85	133,8
295,384	102,46
295,918	102,57
296,453	92,54
296,987	106,61
297,52	113,64
298,054	103,44
298,588	113,75
299,121	105,97
299,655	106,2
300,188	108,33
300,721	114,23
301,254	109,27
301,787	108,2
302,32	119,51
302,853	106,8
303,385	106,43
303,918	105,81
304,45	108,46
304,982	94,68
305,514	110,85
306,046	104,96
306,578	102,33
307,11	108,53
307,641	110,34
308,173	103,31
308,704	106,2
309,236	103,01
309,767	103,55
310,298	108,87
310,829	118,7
311,359	109,68
311,89	114,29
312,421	113,96
312,951	108,13
313,481	95,17
314,012	108,21
314,542	115,68
315,072	102,67
315,601	105,6
316,131	118,11
316,661	102,92
317,19	105,19
317,72	118,18
318,249	117,06
318,778	110,94
319,307	110,55
319,836	120,35
320,365	113,48
320,893	110,74
321,422	115,45
321,95	113,16
322,479	108,78
323,007	118,64
323,535	101,43
324,063	110,8
324,591	108
325,118	116,06
325,646	116,81
326,173	105,83
326,701	119,11
327,228	116,38
327,755	100,75
328,282	105,34
328,809	118,64
329,336	111,81
329,862	101,84
330,389	97,66
330,915	113,39
331,441	106,87
331,968	110,36
332,494	106,06
333,02	102,08
333,545	97,39
334,071	114,88
334,597	97,18
335,122	100
335,648	113,79
336,173	100,38
336,698	88,92
337,223	100,74
337,748	95,49
338,272	96,58
338,797	101,09
339,322	91,24
339,846	97,06
340,37	110,48
340,894	95,14
341,419	102,26
341,942	95,45
342,466	92,95
342,99	87,25
343,514	103,52
344,037	84,18
344,56	108,52
345,084	92,12
345,607	106,25
346,13	92,61
346,653	102
347,175	93,27
347,698	89,31
348,221	90,36
348,743	90,06
349,265	92,09
349,787	82,82
350,309	86,39
350,831	88,89
351,353	89,33
351,875	86,84
352,397	91,26
352,918	88,16
353,439	96,69
353,961	80,52
354,482	83,33
355,003	83,72
355,524	80,56
356,044	79,26
356,565	89,46
357,086	86,44
357,606	73,63
358,126	75,8
358,646	71,17
359,167	78,38
359,687	81,36
360,206	79,23
360,726	69,91
361,246	79,52
361,765	77,97
362,285	77
362,804	81,32
363,323	72,68
363,842	80,49
364,361	72,39
364,88	69,21
365,398	66,81
365,917	77,83
366,435	86,46
366,954	72,77
367,472	73,58
367,99	80,09
368,508	66,4
369,026	79,32
369,544	73,9
370,061	75
370,579	67,42
371,096	78,21
371,613	67,24
372,131	68,5
372,648	63,78
373,165	70,9
373,681	68,99
374,198	72,66
374,715	67,29
375,231	67,05
375,747	64,14
376,264	65,48
376,78	67,09
377,296	67,1
377,812	63,29
378,327	63,41
378,843	66,38
379,359	64,4
379,874	66,61
380,389	59,62
380,905	59,25
381,42	57,45
381,935	60,67
382,449	58,7
382,964	54,43
383,479	56,75
383,993	54,29
384,508	54,46
385,022	51,81
385,536	56,58
386,05	56,04
386,564	54,6
387,078	51,32
387,592	51,58
388,105	52,72
388,619	48,88
389,132	46,63
389,645	47,93
390,158	47,64
390,671	47,05
391,184	44,33
391,697	45,59
392,21	44,44
392,722	44,15
393,235	46,44
393,747	45,62
394,259	44,1
394,771	42,14
395,283	41,12
395,795	41,04
396,307	42,71
396,818	40,26
397,33	38,95
397,841	40,18
398,353	38,42
398,864	38,47
399,375	39,48
399,886	37,06
400,397	34,23
400,907	36,88
401,418	34,12
401,928	31,97
402,439	33,97
402,949	29,12
403,459	30,8
403,969	30,07
404,479	29,48
404,989	28,31
405,498	28,65
406,008	28,15
406,517	25,68
407,027	23,66
407,536	23,78
408,045	23,56
408,554	23,03
409,063	21,77
409,572	20,41
410,08	20,52
410,589	19,77
411,097	19,34
411,606	19,63
412,114	17,65
412,622	17,17
413,13	17,68
413,638	16,75
414,145	15,87
414,653	16,79
415,16	15
415,668	15,27
416,175	14,17
416,682	14,4
417,189	13,2
417,696	14
418,203	13,69
418,71	13,43
419,216	12,83
419,723	12,88
420,229	12,18
420,735	12,11
421,242	11,65
421,748	12,29
422,254	11,99
422,759	11,09
423,265	11,59
423,771	11,34
424,276	11,39
424,781	10,82
425,287	10,67
425,792	10,69
426,297	11,34
426,802	10,19
427,306	10,82
427,811	10,45
428,316	10,19
428,82	9,86
429,324	10,15
429,829	10,29
430,333	9,75
430,837	9,77
431,34	9,36
431,844	9,54
432,348	9,55
432,851	8,85
433,355	9,6
433,858	9,04
434,361	9,13
434,864	9,35
435,367	9,21
435,87	9,97
436,373	9,12
436,876	9,11
437,378	9,51
437,88	9,29
438,383	9,11
438,885	8,93
439,387	9,12
439,889	8,79
440,391	9,07
440,892	8,86
441,394	9,03
441,896	9,17
442,397	8,91
442,898	9,01
443,399	8,99
443,9	8,9
444,401	8,73
444,902	8,68
445,403	9,02
445,903	9,34
446,404	8,96
446,904	9,25
447,405	8,73
447,905	8,96
448,405	9,29
448,905	9,53
449,404	9,21
449,904	9,33
450,404	8,97
450,903	9,64
451,403	9,21
451,902	9,42
452,401	9,5
452,9	9,61
453,399	9,38
453,898	9,3
454,396	9,15
454,895	9,5
455,393	9,58
455,892	9,4
456,39	9,71
456,888	9,83
457,386	9,71
457,884	9,58
458,382	9,55
458,879	9,67
459,377	10,02
459,874	9,68
460,372	10,07
460,869	9,79
461,366	9,35
461,863	9,72
462,36	9,65
462,857	9,59
463,353	9,35
463,85	9,52
464,346	9,54
464,843	9,76
465,339	9,74
465,835	10,09
466,331	9,73
466,827	9,18
467,323	9,59
467,818	9,7
468,314	9,58
468,809	9,71
469,305	9,36
469,8	9,3
470,295	9,59
470,79	9,41
471,285	9,38
471,78	9,4
472,274	9,51
472,769	9,19
473,263	9,61
473,758	9,22
474,252	9,35
474,746	9,78
475,24	9,78
475,734	9,4
476,228	9,46
476,721	9,42
477,215	9,18
477,708	9,54
478,202	9,28
478,695	9,62
479,188	9,09
479,681	9,27
480,174	9,75
480,667	9,69
481,159	9,58
481,652	9,57
482,144	9,47
482,637	9,63
483,129	9,36
483,621	9,58
484,113	9,53
484,605	10,05
485,097	9,71
485,588	9,61
486,08	9,58
486,571	9,99
487,063	9,97
487,554	10,05
488,045	9,72
488,536	10,17
489,027	10,05
489,518	10,52
490,008	10,18
490,499	10,55
490,989	10,43
491,48	10,68
491,97	10,39
492,46	10,55
492,95	10,95
493,44	11,44
493,93	10,97
494,419	11,44
494,909	11,74
495,398	11,51
495,888	11,35
496,377	11,98
496,866	12,45
497,355	12,3
497,844	12,13
498,333	12,7
498,821	12,54
499,31	12,66
499,798	13
500,287	13,51
500,775	13,54
501,263	13,86
501,751	14,07
502,239	14,04
502,727	14,13
503,215	14,68
503,702	14,67
504,19	15,2
504,677	15,9
505,164	15,8
505,651	16,4
506,139	16,33
506,625	16,41
507,112	16,95
507,599	17,37
508,086	17,55
508,572	18,09
509,058	18,11
509,545	17,82
510,031	18,74
510,517	19,08
511,003	19,06
511,489	19,75
511,974	20,11
512,46	19,8
512,946	20,6
513,431	21,01
513,916	21,23
514,401	21,7
514,887	21,94
515,371	22,3
515,856	23,05
516,341	23,07
516,826	23,53
517,31	23,95
517,795	24,32
518,279	24,4
518,763	24,94
519,247	25,33
519,731	25,99
520,215	26,29
520,699	26,29
521,182	26,73
521,666	26,73
522,149	27,47
522,633	27,58
523,116	27,9
523,599	28,28
524,082	28,71
524,565	28,75
525,048	29,36
525,53	29,3
526,013	29,91
526,495	30,04
526,978	30,1
527,46	30,59
527,942	30,47
528,424	31,4
528,906	30,79
529,388	30,91
529,87	31,89
530,351	31,53
530,833	32,05
531,314	32,46
531,795	32,08
532,277	32,45
532,758	32,83
533,238	32,61
533,719	32,57
534,2	32,52
534,681	32,62
535,161	32,77
535,642	33,46
536,122	32,97
536,602	33,16
537,082	33,04
537,562	33,74
538,042	33,48
538,522	33,26
539,001	33,33
539,481	33,69
539,96	33,5
540,44	33,63
540,919	33,94
541,398	33,77
541,877	33,5
542,356	33,68
542,835	33,45
543,313	33,65
543,792	34,01
544,27	34,12
544,749	34,53
545,227	34,29
545,705	34,43
546,183	34,71
546,661	33,93
547,139	34,13
547,616	34,11
548,094	34,4
548,571	34,54
549,049	34,39
549,526	34,12
550,003	34,47
550,48	34,23
550,957	34,42
551,434	34,97
551,911	34,17
552,387	34,35
552,864	34,9
553,34	34,72
553,817	34,24
554,293	34,48
554,769	34,22
555,245	34,4
555,721	34,87
556,197	34,7
556,672	34,35
557,148	35,01
557,623	34,9
558,099	34,15
558,574	34,56
559,049	34,2
559,524	34,92
559,999	34,72
560,474	34,18
560,948	34,18
561,423	34,06
561,897	34,13
562,372	34,57
562,846	34,2
563,32	34,31
563,794	33,97
564,268	33,99
564,742	33,44
565,216	34,05
565,69	33,34
566,163	33,52
566,636	33,15
567,11	33,04
567,583	33,13
568,056	32,84
568,529	33,14
569,002	32,59
569,475	32,74
569,947	32,25
570,42	32,98
570,892	32,36
571,365	31,8
571,837	32,3
572,309	31,81
572,781	31,63
573,253	31,82
573,725	31,47
574,197	31,17
574,668	30,89
575,14	30,82
575,611	30,81
576,082	30,37
576,554	30,5
577,025	30,28
577,496	30,14
577,967	29,88
578,437	29,78
578,908	29,94
579,379	29,44
579,849	29,5
580,319	29,13
580,79	28,96
581,26	29,4
581,73	28,67
582,2	28,65
582,669	28,53
583,139	28,41
583,609	28,08
584,078	28,38
584,548	28,27
585,017	28,23
585,486	27,76
585,955	28,12
586,424	27,77
586,893	27,69
587,362	27,46
587,83	27,57
588,299	27,26
588,767	27,26
589,236	27,15
589,704	26,82
590,172	27,24
590,64	27,27
591,108	26,65
591,576	26,85
592,043	26,45
592,511	26,75
592,978	26,84
593,446	26,51
593,913	26,31
594,38	26,19
594,847	26,1
595,314	26,27
595,781	26,31
596,248	26
596,715	25,87
597,181	25,83
597,647	25,91
598,114	25,97
598,58	25,98
599,046	26,1
599,512	25,79
599,978	25,55
600,444	25,65
600,91	25,69
601,375	25,65
601,841	25,9
602,306	25,54
602,771	25,37
603,236	25,42
603,702	25,79
604,167	25,42
604,631	25,19
605,096	25,02
605,561	25,23
606,025	25,34
606,49	25
606,954	24,83
607,418	25,11
607,882	24,61
608,347	24,82
608,81	24,65
609,274	24,31
609,738	24,35
610,202	24,5
610,665	24,36
611,128	24,07
611,592	24,13
612,055	23,9
612,518	24,14
612,981	24,15
613,444	23,86
613,907	23,63
614,369	23,54
614,832	23,82
615,294	23,44
615,757	23,63
616,219	23,47
616,681	22,83
617,143	23,24
617,605	22,86
618,067	22,87
618,529	22,87
618,99	22,77
619,452	22,55
619,913	22,65
620,375	22,47
620,836	22,41
621,297	22,63
621,758	22,28
622,219	22,27
622,68	22,28
623,14	22,04
623,601	22,41
624,061	22,22
624,522	21,85
624,982	22,15
625,442	22,37
625,902	21,96
626,362	22,02
626,822	21,86
627,282	22
627,742	22,07
628,201	21,7
628,661	21,83
629,12	21,72
629,579	21,78
630,038	21,7
630,497	22,12
630,956	21,79
631,415	21,29
631,874	21,56
632,332	21,37
632,791	21,28
633,249	21,39
633,708	21,3
634,166	21,2
634,624	20,93
635,082	20,82
635,54	20,81
635,998	20,29
636,455	20,47
636,913	20,39
637,37	19,91
637,828	19,96
638,285	19,66
638,742	19,58
639,199	19,36
639,656	19,15
640,113	19,05
640,57	18,81
641,027	18,47
641,483	18,39
641,94	18,12
642,396	17,86
642,852	17,8
643,309	17,5
643,765	17,29
644,221	16,99
644,676	16,66
645,132	16,76
645,588	16,57
646,043	16,16
646,499	15,82
646,954	15,87
647,409	15,63
647,864	15,43
648,319	15,15
648,774	15,1
649,229	14,99
649,684	14,89
650,139	14,98
650,593	14,64
651,047	14,62
651,502	14,45
651,956	14,53
652,41	14,45
652,864	14,32
653,318	14,33
653,772	14,16
654,225	14,14
654,679	14,17
655,133	14,07
655,586	14,08
656,039	14,01
656,492	13,76
656,946	13,75
657,399	13,62
657,851	13,73
658,304	13,4
658,757	13,57
659,209	13,47
659,662	13,12
660,114	13,12
660,567	12,98
661,019	12,91
661,471	12,56
661,923	12,43
662,375	12,31
662,826	12,24
663,278	12,02
663,73	12,04
664,181	11,82
664,632	11,79
665,084	11,75
665,535	11,46
665,986	11,4
666,437	11,17
666,888	11,08
667,338	11,05
667,789	11,04
668,24	11,01
668,69	10,91
669,14	10,75
669,591	10,76
670,041	10,69
670,491	10,71
670,941	10,63
671,391	10,67
671,84	10,55
672,29	10,62
672,74	10,66
673,189	10,63
673,638	10,69
674,088	10,64
674,537	10,8
674,986	10,9
675,435	10,8
675,883	11,01
676,332	11,06
676,781	11,11
677,229	11,32
677,678	11,34
678,126	11,52
678,574	11,69
679,022	11,85
679,47	11,95
679,918	11,99
680,366	12,22
680,814	12,43
681,261	12,62
681,709	12,96
682,156	12,94
682,604	13,28
683,051	13,4
683,498	13,95
683,945	14,16
684,392	14,34
684,839	14,65
685,286	15,03
685,732	15,3
686,179	15,71
686,625	16,07
687,071	16,58
687,518	16,99
687,964	17,52
688,41	17,92
688,856	18,29
689,301	19,16
689,747	19,44
690,193	20,06
690,638	20,32
691,084	21,16
691,529	21,61
691,974	22,24
692,419	22,99
692,864	23,69
693,309	24,06
693,754	24,67
694,199	25,14
694,643	25,88
695,088	26,35
695,532	26,79
695,977	27,5
696,421	28
696,865	28,4
697,309	28,94
697,753	29,38
698,197	30,07
698,64	30,48
699,084	30,91
699,527	31,38
699,971	31,88
700,414	32,13
700,857	32,59
701,3	32,73
701,743	33,35
702,186	33,63
702,629	33,97
703,072	34,42
703,515	34,47
703,957	34,78
704,399	35,51
704,842	35,66
705,284	35,9
705,726	36,12
706,168	36,23
706,61	36,74
707,052	36,62
707,494	37,22
707,935	37,13
708,377	37,82
708,818	37,9
709,26	38,11
709,701	38,25
710,142	38,81
710,583	38,78
711,024	38,96
711,465	38,76
711,905	39,13
712,346	39,32
712,787	39,2
713,227	39,73
713,667	39,92
714,108	40,06
714,548	40,2
714,988	40,56
715,428	40,66
715,868	41,01
716,307	40,84
716,747	40,8
717,186	40,93
717,626	41,2
718,065	41,41
718,504	41,38
718,944	41,54
719,383	41,82
719,822	41,91
720,261	41,84
720,699	41,96
721,138	41,88
721,576	42,18
722,015	42,15
722,453	42,19
722,892	42,46
723,33	42,85
723,768	43,02
724,206	42,66
724,644	42,33
725,081	42,97
725,519	42,8
725,957	43,02
726,394	43,1
726,832	42,81
727,269	43,18
727,706	43,05
728,143	43,24
728,58	43,27
729,017	42,96
729,454	43,09
729,89	43,57
730,327	43,23
730,764	43,72
731,2	43,54
731,636	43,37
732,072	43,83
732,509	43,39
732,945	43,69
733,38	43,48
733,816	43,64
734,252	43,58
734,688	43,62
735,123	43,94
735,559	43,81
735,994	43,47
736,429	43,89
736,864	43,89
737,299	43,83
737,734	43,9
738,169	43,41
738,604	43,87
739,038	43,46
739,473	43,92
739,907	43,83
740,342	43,62
740,776	43,74
741,21	43,82
741,644	43,83
742,078	43,74
742,512	43,6
742,946	43,67
743,379	43,5
743,813	43,51
744,246	43,53
744,68	43,69
745,113	43,32
745,546	43,13
745,979	43,52
746,412	43,13
746,845	43,1
747,278	43,21
747,711	43,2
748,143	43,32
748,576	43,44
749,008	43,36
749,441	43,08
749,873	42,72
750,305	43,13
750,737	43,03
751,169	42,85
751,601	42,87
752,032	42,99
752,464	42,86
752,896	42,49
753,327	43,04
753,758	42,58
754,19	42,55
754,621	42,59
755,052	42,25
755,483	42,66
755,914	42,68
756,344	42,64
756,775	42,76
757,206	42,37
757,636	42,42
758,066	42,66
758,497	42,36
758,927	42,86
759,357	42,76
759,787	42,22
760,217	42,57
760,647	42,18
761,076	42,18
761,506	42,2
761,935	42,34
762,365	42,53
762,794	41,99
763,223	42,18
763,653	42,08
764,082	41,97
764,51	41,95
764,939	42,05
765,368	42,12
765,797	41,96
766,225	42,1
766,654	41,58
767,082	41,35
767,51	42
767,938	41,3
768,367	41,87
768,795	41,6
769,222	41,81
769,65	41,93
770,078	41,65
770,505	41,66
770,933	41,79
771,36	41,72
771,788	41,42
772,215	41,75
772,642	41,72
773,069	41,52
773,496	41,29
773,923	41,29
774,349	41,41
774,776	41,69
775,203	41,46
775,629	41,41
776,055	41,21
776,482	41,39
776,908	41,27
777,334	41,14
777,76	41,33
778,186	41,34
778,611	41,35
779,037	41,25
779,463	41,03
779,888	41,11
780,314	41,18
780,739	41,22
781,164	41,38
781,589	41,16
782,014	41,1
782,439	41,23
782,864	41,28
783,289	41,32
783,713	40,87
784,138	40,94
784,562	40,65
784,987	40,7
785,411	40,75
785,835	40,9
786,259	41
786,683	41,16
787,107	40,86
787,531	40,73
787,954	41,16
788,378	40,96
788,802	40,91
789,225	40,8
789,648	40,93
790,071	40,5
790,495	41,07
790,918	41,21
791,34	41
791,763	40,72
792,186	40,84
792,609	40,88
793,031	40,66
793,454	40,87
793,876	41,22
794,298	40,72
794,721	40,73
795,143	40,75
795,565	40,66
795,986	40,55
796,408	40,66
796,83	40,72
797,252	40,69
797,673	41,12
798,094	41,07
798,516	40,75
798,937	40,83
799,358	40,6
799,779	40,41
800,2	40,47
800,621	40,6
801,042	40,52
801,462	40,58
801,883	40,73
802,303	40,27
802,724	40,66
803,144	40,4
803,564	40,76
803,984	40,83
804,404	41,03
804,824	40,68
805,244	40,52
805,664	40,87
806,084	40,6
806,503	40,71
806,923	40,85
807,342	40,45
807,761	40,57
808,18	40,54
808,599	40,38
809,018	40,64
809,437	40,56
809,856	40,24
810,275	40,9
810,693	40,57
811,112	40,86
811,53	40,96
811,949	40,63
812,367	40,93
812,785	40,74
813,203	40,67
813,621	40,69
814,039	40,52
814,457	40,51
814,874	40,46
815,292	40,5
815,709	40,65
816,127	40,73
816,544	40,74
816,961	40,56
817,378	41,02
817,795	40,68
818,212	40,58
818,629	40,85
819,046	40,52
819,462	40,58
819,879	40,57
820,295	40,34
820,712	40,3
821,128	40,45
821,544	40,6
821,96	40,43
822,376	40,6
822,792	40,43
823,208	40,41
823,624	40,81
824,039	40,54
824,455	40,62
824,87	40,25
825,286	40,54
825,701	40,31
826,116	40,25
826,531	40,76
826,946	40,43
827,361	40,37
827,776	40,26
828,19	40,2
828,605	40,21
829,02	40,26
829,434	40,42
829,848	40,38
830,263	40,58
830,677	40,05
831,091	40,24
831,505	40,24
831,919	40,81
