Data from F5__Relative__4__00110.txt Node

Date: Wed Jan 31 18:35:26 CET 2024
User: diatiterra
Spectrometer: HDX00911
Trigger mode: 0
Integration Time (sec): 6,000000E-3
Scans to average: 2
Nonlinearity correction enabled: false
Boxcar width: 0
Storing dark spectrum: false
XAxis mode: Wavelengths
Number of Pixels in Spectrum: 2068
>>>>>Begin Spectral Data<<<<<
194,468	235,85
195,025	160,91
195,581	220,73
196,138	220,51
196,694	146,91
197,251	114,65
197,807	98,43
198,363	98,4
198,919	88,28
199,474	103,31
200,03	99,59
200,586	106,7
201,141	85,81
201,696	95,64
202,251	91,67
202,806	86,71
203,361	97,04
203,916	92,01
204,471	98,91
205,025	111,29
205,58	95,71
206,134	105,6
206,688	95,38
207,242	117,7
207,796	103,76
208,35	100
208,904	95,52
209,457	86,46
210,011	91,84
210,564	94,01
211,117	106,02
211,67	98,88
212,223	96,23
212,776	101,61
213,329	93,33
213,881	127,94
214,434	87,5
214,986	112,4
215,538	103,31
216,09	91,55
216,642	111,57
217,194	100,38
217,746	103,01
218,297	104,58
218,849	102,57
219,4	112,61
219,951	106,05
220,502	102,36
221,053	112,98
221,604	100
222,155	107,54
222,705	97,43
223,256	105,6
223,806	109,45
224,356	103,85
224,906	105,65
225,456	112,02
226,006	101,98
226,556	85,39
227,106	105,24
227,655	89,58
228,204	112,92
228,754	99,65
229,303	96,79
229,852	91,01
230,401	98,13
230,949	102,52
231,498	93,31
232,047	87,66
232,595	96,21
233,143	108,27
233,691	97,67
234,239	93,93
234,787	97,6
235,335	98,88
235,883	94,41
236,43	93,18
236,978	111,92
237,525	99,27
238,072	95,39
238,619	100,38
239,166	97,52
239,713	94,89
240,26	97,14
240,806	102,08
241,353	100,79
241,899	96,15
242,445	101,09
242,991	105,73
243,537	97,73
244,083	104,2
244,629	102,31
245,174	104,87
245,72	97,78
246,265	103,97
246,81	104,8
247,355	104,76
247,9	93,66
248,445	110,71
248,99	97,35
249,534	120,87
250,079	104,89
250,623	99,63
251,168	100
251,712	100,78
252,256	108,2
252,8	105,38
253,343	98,93
253,887	100
254,43	104,2
254,974	100
255,517	91,78
256,06	108,46
256,603	92,59
257,146	105,04
257,689	100,39
258,232	113,56
258,774	99,65
259,317	108,47
259,859	119,72
260,401	101,94
260,943	97,52
261,485	94,68
262,027	110,4
262,569	102,99
263,11	102,69
263,652	109,84
264,193	104,13
264,734	102,92
265,275	106,56
265,816	98,47
266,357	105,04
266,898	106,92
267,438	109,06
267,979	96,76
268,519	95,52
269,059	115,42
269,6	107,89
270,14	106,85
270,68	99,64
271,219	115,25
271,759	93,98
272,298	102,63
272,838	103,08
273,377	110,71
273,916	95,32
274,455	102,19
274,994	100,8
275,533	108,33
276,072	105,28
276,61	100,72
277,149	110
277,687	101,88
278,225	86,33
278,763	119,3
279,301	110,83
279,839	104,84
280,377	109,43
280,914	95,45
281,452	119,66
281,989	109,5
282,526	109,84
283,064	113,45
283,601	91,89
284,137	104,96
284,674	110,42
285,211	119,74
285,747	97,35
286,284	117,12
286,82	116,94
287,356	93,42
287,892	107,36
288,428	116,94
288,964	123,95
289,5	114,46
290,035	104,8
290,571	108,82
291,106	111,38
291,641	113,84
292,176	105,08
292,711	106,91
293,246	100
293,781	118,6
294,315	91,2
294,85	125,93
295,384	106,56
295,918	105,15
296,453	98,88
296,987	107,02
297,52	107,85
298,054	96,56
298,588	114,17
299,121	101,49
299,655	103,65
300,188	107,5
300,721	109,35
301,254	110,08
301,787	113,28
302,32	108,13
302,853	108
303,385	103,57
303,918	104,65
304,45	104,62
304,982	90,07
305,514	103,1
306,046	104,13
306,578	106,2
307,11	107,36
307,641	104,74
308,173	100,41
308,704	97,52
309,236	92,86
309,767	100,35
310,298	104,84
310,829	108,26
311,359	105,65
311,89	113,87
312,421	112,16
312,951	109,76
313,481	88,28
314,012	94,78
314,542	111,44
315,072	96,95
315,601	105,2
316,131	114,96
316,661	101,25
317,19	96,67
317,72	109,09
318,249	115,87
318,778	105,47
319,307	110,16
319,836	109,29
320,365	104,35
320,893	108,26
321,422	108,54
321,95	101,5
322,479	98,09
323,007	113,18
323,535	91,43
324,063	107,2
324,591	103,6
325,118	101,82
325,646	115,55
326,173	107,5
326,701	111,38
327,228	116,38
327,755	95,11
328,282	97,71
328,809	117,8
329,336	98,43
329,862	98,16
330,389	93,75
330,915	103,54
331,441	97,71
331,968	115,32
332,494	98,48
333,02	102,5
333,545	88,43
334,071	115,7
334,597	85,21
335,122	97,78
335,648	103,88
336,173	106,06
336,698	83,23
337,223	97,06
337,748	94,44
338,272	96,23
338,797	106,52
339,322	86,86
339,846	97,43
340,37	115,73
340,894	92,36
341,419	98,87
341,942	93,71
342,466	91,03
342,99	89,93
343,514	89,79
344,037	89,24
344,56	105,93
345,084	97,6
345,607	93,75
346,13	86,27
346,653	95
347,175	85,58
347,698	87,11
348,221	87,86
348,743	86,65
349,265	89,57
349,787	82,52
350,309	86,39
350,831	77,16
351,353	83,54
351,875	83,92
352,397	89,86
352,918	86,51
353,439	87,09
353,961	78,2
354,482	86,55
355,003	79,36
355,524	81,11
356,044	82,1
356,565	89,16
357,086	79,1
357,606	70,6
358,126	72,34
358,646	69,9
359,167	82,97
359,687	77,4
360,206	72,4
360,726	69,67
361,246	72,61
361,765	81,07
362,285	65,75
362,804	75,26
363,323	63,17
363,842	75,27
364,361	74,63
364,88	71,67
365,398	69,43
365,917	68,63
366,435	78,91
366,954	67,19
367,472	70,52
367,99	72,51
368,508	63,56
369,026	76,82
369,544	71,49
370,061	67,02
370,579	67,42
371,096	67,89
371,613	65,3
372,131	62,01
372,648	60,83
373,165	63,67
373,681	59,28
374,198	62,89
374,715	65,23
375,231	60,61
375,747	59,83
376,264	54,08
376,78	57,19
377,296	64,87
377,812	56,48
378,327	59,44
378,843	60,92
379,359	60,1
379,874	55,88
380,389	52,05
380,905	50,45
381,42	53,34
381,935	57,77
382,449	55,16
382,964	50
383,479	49,43
383,993	47,51
384,508	47,11
385,022	46,89
385,536	49,08
386,05	49,21
386,564	47,51
387,078	47,13
387,592	42,34
388,105	45,86
388,619	44,42
389,132	42,02
389,645	45,52
390,158	38,73
390,671	40,12
391,184	38,56
391,697	38,88
392,21	37,7
392,722	38,29
393,235	38,84
393,747	38,91
394,259	38,01
394,771	33,91
395,283	36,36
395,795	35,26
396,307	36,73
396,818	35,7
397,33	31,8
397,841	34,69
398,353	32,62
398,864	32,84
399,375	32,64
399,886	32,34
400,397	31,03
400,907	30,77
401,418	28,33
401,928	29,04
402,439	29,58
402,949	27,38
403,459	26,87
403,969	25,84
404,479	24,35
404,989	24,74
405,498	22,9
406,008	23,2
406,517	22,48
407,027	20,26
407,536	20,08
408,045	20,52
408,554	18,97
409,063	17,37
409,572	18,07
410,08	16,57
410,589	16,89
411,097	17,19
411,606	16,5
412,114	16,12
412,622	15,3
413,13	15,26
413,638	14,5
414,145	13,45
414,653	14,01
415,16	13,19
415,668	13,13
416,175	12,93
416,682	12,3
417,189	10,68
417,696	12,09
418,203	11,35
418,71	11,46
419,216	10,86
419,723	11,03
420,229	10,19
420,735	10,42
421,242	10,27
421,748	10,89
422,254	10,15
422,759	10,1
423,265	9,82
423,771	9,8
424,276	10,03
424,781	9,18
425,287	9,8
425,792	9,35
426,297	9,23
426,802	8,76
427,306	9,14
427,811	8,71
428,316	9,3
428,82	8,95
429,324	9,03
429,829	8,95
430,333	8,69
430,837	8,6
431,34	8,62
431,844	8,43
432,348	8,36
432,851	7,94
433,355	8,31
433,858	8,34
434,361	7,59
434,864	7,97
435,367	7,9
435,87	8,51
436,373	8,48
436,876	8,05
437,378	8,12
437,88	7,96
438,383	7,75
438,885	7,82
439,387	7,58
439,889	8
440,391	7,62
440,892	7,45
441,394	7,9
441,896	7,85
442,397	8,04
442,898	7,58
443,399	7,93
443,9	7,83
444,401	7,25
444,902	7,56
445,403	7,65
445,903	7,76
446,404	7,99
446,904	7,86
447,405	7,22
447,905	7,89
448,405	7,96
448,905	7,8
449,404	8,01
449,904	7,8
450,404	7,64
450,903	7,48
451,403	8,03
451,902	8,23
452,401	8,04
452,9	8,12
453,399	8,03
453,898	7,9
454,396	7,74
454,895	8,01
455,393	7,99
455,892	7,84
456,39	8,09
456,888	8,07
457,386	7,87
457,884	8,1
458,382	8,18
458,879	8,06
459,377	8,33
459,874	8,13
460,372	8,17
460,869	7,96
461,366	8
461,863	8,01
462,36	8,03
462,857	8,03
463,353	7,85
463,85	8,05
464,346	7,59
464,843	7,87
465,339	7,73
465,835	8,03
466,331	7,79
466,827	7,77
467,323	7,64
467,818	8,17
468,314	7,82
468,809	8,03
469,305	7,73
469,8	7,99
470,295	7,68
470,79	7,92
471,285	7,81
471,78	7,48
472,274	7,59
472,769	7,71
473,263	7,48
473,758	7,98
474,252	7,9
474,746	7,89
475,24	7,99
475,734	7,51
476,228	7,94
476,721	7,74
477,215	7,7
477,708	7,9
478,202	7,86
478,695	7,75
479,188	7,81
479,681	7,66
480,174	8,05
480,667	8,13
481,159	7,7
481,652	8,05
482,144	8,05
482,637	7,78
483,129	7,6
483,621	8,12
484,113	8
484,605	7,96
485,097	8,16
485,588	8
486,08	7,96
486,571	7,82
487,063	8,09
487,554	8,12
488,045	8,3
488,536	8,06
489,027	8,16
489,518	8,25
490,008	8,12
490,499	8,28
490,989	8,25
491,48	8,34
491,97	8,25
492,46	8,26
492,95	8,55
493,44	8,53
493,93	8,42
494,419	8,54
494,909	8,84
495,398	8,88
495,888	8,51
496,377	9,21
496,866	9,01
497,355	9,45
497,844	9,35
498,333	9,34
498,821	9,47
499,31	9,91
499,798	9,58
500,287	10,1
500,775	10,31
501,263	10,44
501,751	10,26
502,239	10,35
502,727	10,53
503,215	10,74
503,702	10,84
504,19	10,98
504,677	11,47
505,164	11,97
505,651	11,95
506,139	11,8
506,625	11,81
507,112	12,36
507,599	12,44
508,086	12,42
508,572	13,03
509,058	13,17
509,545	13,01
510,031	13,34
510,517	13,64
511,003	13,75
511,489	14,12
511,974	14,64
512,46	14,75
512,946	14,91
513,431	15,47
513,916	15,1
514,401	15,47
514,887	15,89
515,371	16,42
515,856	16,56
516,341	16,69
516,826	16,78
517,31	17,18
517,795	18
518,279	17,47
518,763	18,38
519,247	18,42
519,731	18,74
520,215	19,11
520,699	19,31
521,182	19,35
521,666	19,85
522,149	20,23
522,633	20,43
523,116	20,58
523,599	20,8
524,082	21,04
524,565	21,56
525,048	21,79
525,53	21,64
526,013	22,11
526,495	22,49
526,978	22,42
527,46	22,94
527,942	22,91
528,424	23,39
528,906	23,34
529,388	23,84
529,87	24,24
530,351	23,49
530,833	24,38
531,314	24,05
531,795	24,16
532,277	24,87
532,758	25,03
533,238	24,7
533,719	24,54
534,2	24,75
534,681	25,15
535,161	25,09
535,642	25,51
536,122	25,16
536,602	25,71
537,082	25,34
537,562	25,66
538,042	25,45
538,522	25,61
539,001	25,62
539,481	25,66
539,96	25,41
540,44	25,78
540,919	25,91
541,398	25,72
541,877	25,94
542,356	25,92
542,835	25,61
543,313	25,91
543,792	26,14
544,27	26,01
544,749	26,34
545,227	26,16
545,705	26,5
546,183	26,59
546,661	26,24
547,139	26,46
547,616	26,08
548,094	25,98
548,571	26,14
549,049	26,88
549,526	26,2
550,003	26,48
550,48	26,25
550,957	26,85
551,434	26,5
551,911	26,59
552,387	26,36
552,864	26,7
553,34	26,81
553,817	26,15
554,293	26,7
554,769	26,45
555,245	26,68
555,721	26,99
556,197	26,76
556,672	26,36
557,148	26,89
557,623	26,66
558,099	26,24
558,574	26,74
559,049	26,06
559,524	26,41
559,999	26,43
560,474	26,15
560,948	25,78
561,423	26,21
561,897	26,31
562,372	26,27
562,846	25,92
563,32	25,79
563,794	26,03
564,268	26,12
564,742	25,72
565,216	25,26
565,69	25,42
566,163	25,31
566,636	25,04
567,11	25,24
567,583	24,98
568,056	24,92
568,529	24,82
569,002	24,14
569,475	24,52
569,947	24,53
570,42	24,19
570,892	23,95
571,365	23,89
571,837	23,95
572,309	23,35
572,781	23,28
573,253	23,32
573,725	23,18
574,197	23,02
574,668	22,93
575,14	22,9
575,611	22,56
576,082	22,03
576,554	22,03
577,025	22,2
577,496	22
577,967	21,9
578,437	21,8
578,908	21,31
579,379	21,35
579,849	21,25
580,319	21,19
580,79	21,24
581,26	20,95
581,73	20,81
582,2	20,49
582,669	20,59
583,139	20,65
583,609	20,47
584,078	20,68
584,548	20,18
585,017	20,49
585,486	20,1
585,955	19,9
586,424	19,81
586,893	20,05
587,362	19,69
587,83	19,63
588,299	19,5
588,767	19,71
589,236	19,47
589,704	19,42
590,172	19,34
590,64	19,28
591,108	19
591,576	19,02
592,043	19,04
592,511	19,17
592,978	19,02
593,446	18,76
593,913	18,82
594,38	18,76
594,847	18,54
595,314	18,66
595,781	18,56
596,248	18,54
596,715	18,68
597,181	18,58
597,647	18,62
598,114	18,39
598,58	18,27
599,046	18,19
599,512	18,33
599,978	18,23
600,444	18,3
600,91	18,29
601,375	18,22
601,841	18,3
602,306	18,27
602,771	18,07
603,236	18,02
603,702	18,18
604,167	18,05
604,631	17,79
605,096	17,76
605,561	17,89
606,025	17,7
606,49	17,6
606,954	17,59
607,418	17,34
607,882	17,48
608,347	17,55
608,81	17,3
609,274	17,21
609,738	17
610,202	17,13
610,665	17,09
611,128	16,84
611,592	16,59
612,055	16,46
612,518	16,68
612,981	16,62
613,444	16,38
613,907	16,45
614,369	16,22
614,832	16,17
615,294	16,08
615,757	16,14
616,219	16,14
616,681	15,79
617,143	16,03
617,605	15,91
618,067	15,29
618,529	15,54
618,99	15,66
619,452	15,35
619,913	15,32
620,375	15,39
620,836	15,23
621,297	15,31
621,758	15,24
622,219	15,19
622,68	15,16
623,14	15,21
623,601	15,08
624,061	15,04
624,522	15,09
624,982	15,27
625,442	14,96
625,902	15,01
626,362	14,96
626,822	14,89
627,282	15,04
627,742	14,8
628,201	14,69
628,661	14,86
629,12	14,89
629,579	14,79
630,038	14,7
630,497	14,77
630,956	14,7
631,415	14,61
631,874	14,68
632,332	14,59
632,791	14,45
633,249	14,51
633,708	14,4
634,166	14,2
634,624	14,26
635,082	14,27
635,54	14,28
635,998	13,92
636,455	14
636,913	13,83
637,37	13,76
637,828	13,72
638,285	13,44
638,742	13,32
639,199	13,26
639,656	13,03
640,113	13,14
640,57	12,82
641,027	12,81
641,483	12,62
641,94	12,57
642,396	12,44
642,852	12,4
643,309	12,09
643,765	11,91
644,221	11,79
644,676	11,56
645,132	11,42
645,588	11,35
646,043	11,27
646,499	11,17
646,954	11,01
647,409	11,01
647,864	10,79
648,319	10,48
648,774	10,62
649,229	10,48
649,684	10,38
650,139	10,25
650,593	10,13
651,047	10,33
651,502	10,16
651,956	10,15
652,41	10,01
652,864	9,93
653,318	9,94
653,772	9,98
654,225	9,68
654,679	9,75
655,133	9,69
655,586	9,6
656,039	9,46
656,492	9,5
656,946	9,35
657,399	9,5
657,851	9,44
658,304	9,23
658,757	9,23
659,209	9,14
659,662	8,98
660,114	8,87
660,567	8,9
661,019	8,69
661,471	8,59
661,923	8,67
662,375	8,52
662,826	8,39
663,278	8,22
663,73	8,14
664,181	8,11
664,632	8,08
665,084	8,08
665,535	8,01
665,986	7,96
666,437	7,75
666,888	7,8
667,338	7,73
667,789	7,69
668,24	7,69
668,69	7,67
669,14	7,64
669,591	7,51
670,041	7,54
670,491	7,73
670,941	7,62
671,391	7,64
671,84	7,54
672,29	7,65
672,74	7,56
673,189	7,73
673,638	7,67
674,088	7,95
674,537	7,82
674,986	8
675,435	7,96
675,883	8,04
676,332	8,21
676,781	8,16
677,229	8,29
677,678	8,3
678,126	8,35
678,574	8,44
679,022	8,67
679,47	8,91
679,918	9
680,366	8,98
680,814	9,1
681,261	9,27
681,709	9,37
682,156	9,47
682,604	9,7
683,051	9,94
683,498	10,12
683,945	10,14
684,392	10,27
684,839	10,59
685,286	10,87
685,732	10,92
686,179	11,14
686,625	11,31
687,071	11,54
687,518	12,05
687,964	12,21
688,41	12,38
688,856	12,68
689,301	13,08
689,747	13,42
690,193	13,79
690,638	13,96
691,084	14,5
691,529	14,99
691,974	15,46
692,419	15,97
692,864	16,54
693,309	16,7
693,754	17,34
694,199	17,91
694,643	18,09
695,088	18,66
695,532	19,36
695,977	19,77
696,421	20,3
696,865	20,67
697,309	21,03
697,753	21,55
698,197	22,16
698,64	22,65
699,084	23,15
699,527	23,53
699,971	23,81
700,414	24,29
700,857	24,86
701,3	25,03
701,743	25,48
702,186	25,84
702,629	26,54
703,072	26,89
703,515	26,72
703,957	27,21
704,399	27,86
704,842	28,13
705,284	28,43
705,726	28,64
706,168	28,94
706,61	29,48
707,052	29,42
707,494	29,77
707,935	30,19
708,377	30,41
708,818	30,86
709,26	31,01
709,701	31,27
710,142	31,6
710,583	31,79
711,024	31,9
711,465	32,33
711,905	32,53
712,346	32,39
712,787	32,63
713,227	32,99
713,667	33,2
714,108	33,6
714,548	33,66
714,988	34,22
715,428	34,19
715,868	34,3
716,307	34,6
716,747	34,65
717,186	34,63
717,626	35,01
718,065	35,29
718,504	35,38
718,944	35,77
719,383	35,78
719,822	35,77
720,261	36,14
720,699	36,18
721,138	36,08
721,576	36,48
722,015	36,67
722,453	36,5
722,892	36,88
723,33	36,89
723,768	37,26
724,206	37,26
724,644	37,34
725,081	37,42
725,519	37,65
725,957	37,52
726,394	37,8
726,832	37,59
727,269	37,68
727,706	37,88
728,143	37,84
728,58	38,24
729,017	38,3
729,454	38,2
729,89	38,58
730,327	38,24
730,764	38,52
731,2	38,36
731,636	38,63
732,072	38,71
732,509	38,72
732,945	38,79
733,38	38,95
733,816	38,93
734,252	38,87
734,688	38,86
735,123	38,81
735,559	38,91
735,994	39,03
736,429	39,22
736,864	39,33
737,299	38,92
737,734	39,42
738,169	39,2
738,604	39,1
739,038	39,05
739,473	39,22
739,907	39,26
740,342	39,23
740,776	39,2
741,21	39,14
741,644	39,13
742,078	39,09
742,512	38,9
742,946	39,28
743,379	38,7
743,813	38,74
744,246	39,07
744,68	39,08
745,113	38,85
745,546	38,86
745,979	38,94
746,412	38,72
746,845	38,75
747,278	38,83
747,711	38,66
748,143	38,73
748,576	39,25
749,008	38,71
749,441	38,64
749,873	38,56
750,305	38,5
750,737	38,7
751,169	38,5
751,601	38,27
752,032	38,28
752,464	38,49
752,896	38,28
753,327	38,53
753,758	38,39
754,19	38,38
754,621	38,01
755,052	38,24
755,483	38,39
755,914	38,4
756,344	38
756,775	38,37
757,206	38,23
757,636	38,21
758,066	38,15
758,497	38,07
758,927	38,24
759,357	38,1
759,787	38
760,217	38,03
760,647	37,97
761,076	37,88
761,506	37,93
761,935	37,79
762,365	37,78
762,794	37,75
763,223	37,95
763,653	37,7
764,082	37,5
764,51	37,78
764,939	37,52
765,368	37,42
765,797	37,66
766,225	37,58
766,654	37,32
767,082	37,37
767,51	37,3
767,938	37,2
768,367	37,34
768,795	37,04
769,222	37,4
769,65	37,71
770,078	37,17
770,505	37,19
770,933	37,09
771,36	37,74
771,788	37,26
772,215	37,15
772,642	37,31
773,069	37,33
773,496	37,27
773,923	36,86
774,349	37,06
774,776	37,21
775,203	36,97
775,629	37,23
776,055	36,88
776,482	37,09
776,908	36,78
777,334	36,7
777,76	37,12
778,186	36,73
778,611	37,29
779,037	37,08
779,463	36,93
779,888	36,83
780,314	36,97
780,739	36,92
781,164	36,8
781,589	36,59
782,014	36,83
782,439	36,91
782,864	37,01
783,289	36,86
783,713	36,78
784,138	36,94
784,562	36,5
784,987	36,57
785,411	36,62
785,835	36,58
786,259	36,59
786,683	36,98
787,107	36,74
787,531	36,69
787,954	36,72
788,378	36,72
788,802	36,69
789,225	36,66
789,648	36,83
790,071	36,12
790,495	36,59
790,918	36,73
791,34	36,53
791,763	36,45
792,186	36,3
792,609	36,47
793,031	36,25
793,454	36,59
793,876	36,55
794,298	36,32
794,721	36,23
795,143	36,64
795,565	36,55
795,986	36,39
796,408	36,33
796,83	36,53
797,252	36,52
797,673	36,61
798,094	36,65
798,516	36,34
798,937	36,63
799,358	36,34
799,779	36,37
800,2	36,31
800,621	36,17
801,042	36,34
801,462	36,57
801,883	36,26
802,303	35,89
802,724	36,77
803,144	36,23
803,564	36,59
803,984	36,72
804,404	36,56
804,824	36,62
805,244	36,4
805,664	36,86
806,084	36,5
806,503	36,38
806,923	36,32
807,342	36,25
807,761	36,26
808,18	36,21
808,599	36,12
809,018	36,49
809,437	36,52
809,856	36,06
810,275	36,3
810,693	36,3
811,112	36,43
811,53	36,46
811,949	36,58
812,367	36,4
812,785	36,35
813,203	36,51
813,621	36,04
814,039	36,41
814,457	36,4
814,874	36,08
815,292	36,19
815,709	36,2
816,127	36,31
816,544	36,27
816,961	36,25
817,378	36,84
817,795	36,48
818,212	36,22
818,629	36,46
819,046	36,16
819,462	36,27
819,879	36,06
820,295	36,17
820,712	36,28
821,128	36,24
821,544	36,2
821,96	36,39
822,376	36,26
822,792	36,37
823,208	36,19
823,624	36,32
824,039	36,38
824,455	36,14
824,87	35,92
825,286	36,28
825,701	35,67
826,116	36,06
826,531	36,32
826,946	36,04
827,361	35,82
827,776	36,17
828,19	35,75
828,605	35,75
829,02	36,1
829,434	35,99
829,848	36,2
830,263	36,28
830,677	35,79
831,091	35,48
831,505	36,24
831,919	36,17
832,332	36,25
832,746	36,38
833,16	35,5
833,573	36,03
833,987	36,23
834,4	35,77
834,813	35,66
835,226	35,87
835,639	35,79
836,052	35,7
836,465	35,97
