Data from F5__Relative__7__00113.txt Node

Date: Wed Jan 31 18:35:41 CET 2024
User: diatiterra
Spectrometer: HDX00911
Trigger mode: 0
Integration Time (sec): 6,000000E-3
Scans to average: 2
Nonlinearity correction enabled: false
Boxcar width: 0
Storing dark spectrum: false
XAxis mode: Wavelengths
Number of Pixels in Spectrum: 2068
>>>>>Begin Spectral Data<<<<<
194,468	254,72
195,025	162,73
195,581	257,32
196,138	265,38
196,694	165,43
197,251	138,89
197,807	118,9
198,363	125,6
198,919	109,66
199,474	115,07
200,03	122,13
200,586	126,79
201,141	95,16
201,696	101,68
202,251	114,02
202,806	103,85
203,361	114,81
203,916	111,46
204,471	108,03
205,025	127,42
205,58	111,79
206,134	117,6
206,688	111,54
207,242	132,74
207,796	114,66
208,35	120,65
208,904	111,03
209,457	104,86
210,011	108,16
210,564	115,49
211,117	113,16
211,67	122,39
212,223	113,01
212,776	121,37
213,329	106
213,881	148,04
214,434	113,16
214,986	129,34
215,538	118,38
216,09	106,69
216,642	132,23
217,194	126,89
217,746	120,68
218,297	116,03
218,849	119,49
219,4	128,99
219,951	122,58
220,502	120,27
221,053	132,82
221,604	109,4
222,155	123,02
222,705	105,51
223,256	124,25
223,806	118,9
224,356	117,69
224,906	131,85
225,456	122,87
226,006	117,86
226,556	101,3
227,106	125,81
227,655	109,38
228,204	127,92
228,754	107,39
229,303	117,86
229,852	102,52
230,401	118,28
230,949	116,55
231,498	104,23
232,047	99,35
232,595	112,07
233,143	129,53
233,691	122,48
234,239	114,29
234,787	125,2
235,335	118,28
235,883	113,99
236,43	111,36
236,978	115,77
237,525	110,95
238,072	104,96
238,619	121,97
239,166	111,35
239,713	105,47
240,26	100,36
240,806	115,97
241,353	117,06
241,899	104,9
242,445	112,77
242,991	117,94
243,537	113,26
244,083	132,06
244,629	120
245,174	128,76
245,72	112,22
246,265	116,67
246,81	116
247,355	120,63
247,9	106,72
248,445	118,25
248,99	110,61
249,534	137,39
250,079	116,54
250,623	114,07
251,168	121,07
251,712	114,45
252,256	122,54
252,8	123,46
253,343	105,71
253,887	119,35
254,43	117,94
254,974	114,12
255,517	101,03
256,06	121,92
256,603	108,89
257,146	121,32
257,689	122,05
258,232	121,61
258,774	118,09
259,317	124,58
259,859	129,82
260,401	122,09
260,943	107,45
261,485	107,09
262,027	119,6
262,569	114,18
263,11	115
263,652	126,77
264,193	117,36
264,734	118,98
265,275	127,87
265,816	111,07
266,357	113,95
266,898	118,08
267,438	119,29
267,979	110,43
268,519	106,34
269,059	142,06
269,6	109,4
270,14	133,47
270,68	118,48
271,219	127,54
271,759	109,4
272,298	119,55
272,838	119,23
273,377	119,05
273,916	106,83
274,455	114,6
274,994	116,4
275,533	110,14
276,072	122,76
276,61	107,61
277,149	126,25
277,687	119,55
278,225	104,33
278,763	135,09
279,301	125,42
279,839	116,53
280,377	123,77
280,914	106,29
281,452	132,05
281,989	121,49
282,526	115,75
283,064	127,73
283,601	104,05
284,137	117,77
284,674	120
285,211	127,63
285,747	106,06
286,284	129,28
286,82	115,7
287,356	106,25
287,892	112,02
288,428	118,18
288,964	135,29
289,5	119,01
290,035	111,2
290,571	118,91
291,106	117,48
291,641	132,14
292,176	119,92
292,711	123,98
293,246	110,38
293,781	122,73
294,315	97,54
294,85	135,65
295,384	117,21
295,918	109,93
296,453	109,7
296,987	116,53
297,52	117,77
298,054	114,5
298,588	115
299,121	110,82
299,655	110,58
300,188	122,92
300,721	115,45
301,254	122,58
301,787	116,02
302,32	121,14
302,853	113,2
303,385	117,14
303,918	114,34
304,45	111,54
304,982	104,61
305,514	115,5
306,046	108,26
306,578	112,79
307,11	111,24
307,641	128,02
308,173	124,79
308,704	108,68
309,236	102,26
309,767	111,35
310,298	117,74
310,829	126,09
311,359	116,94
311,89	110,5
312,421	122,07
312,951	118,7
313,481	103,79
314,012	109,7
314,542	126,27
315,072	108,78
315,601	116,4
316,131	115,35
316,661	112,08
317,19	111,11
317,72	123,97
318,249	119,84
318,778	118,75
319,307	114,06
319,836	127,88
320,365	117,39
320,893	121,49
321,422	129,67
321,95	118,8
322,479	112,21
323,007	127,73
323,535	105,71
324,063	117,6
324,591	118
325,118	118,98
325,646	122,69
326,173	114,58
326,701	121,14
327,228	112,07
327,755	103,76
328,282	111,45
328,809	127,54
329,336	118,11
329,862	115,81
330,389	105,47
330,915	120,87
331,441	113,74
331,968	122,07
332,494	113,26
333,02	115,42
333,545	107,09
334,071	126,45
334,597	104,58
335,122	108,15
335,648	123,28
336,173	101,14
336,698	95,25
337,223	106,62
337,748	94,44
338,272	106,16
338,797	110,87
339,322	96,35
339,846	97,43
340,37	120,16
340,894	101,74
341,419	108,65
341,942	101,05
342,466	96,47
342,99	91,28
343,514	99,3
344,037	96,2
344,56	112,22
345,084	100
345,607	106,25
346,13	101,76
346,653	103,33
347,175	94,23
347,698	86,79
348,221	96,07
348,743	96,89
349,265	102,16
349,787	95,09
350,309	94,62
350,831	86,42
351,353	92,99
351,875	94,44
352,397	99,3
352,918	105,26
353,439	98,68
353,961	82,56
354,482	91,23
355,003	91,86
355,524	87,78
356,044	86,65
356,565	98,49
357,086	87,57
357,606	76,92
358,126	85,37
358,646	78,83
359,167	87,57
359,687	88,42
360,206	83,88
360,726	74,64
361,246	84,04
361,765	88,42
362,285	79
362,804	83,95
363,323	74,63
363,842	81,32
364,361	75,87
364,88	78,82
365,398	74,45
365,917	77,12
366,435	83,07
366,954	73,88
367,472	75
367,99	81,75
368,508	66,8
369,026	78,41
369,544	73,25
370,061	77,73
370,579	70,9
371,096	75
371,613	71,34
372,131	72,05
372,648	66,93
373,165	66,99
373,681	73
374,198	69,14
374,715	68,42
375,231	65,15
375,747	66,21
376,264	61,73
376,78	64,03
377,296	70,26
377,812	60,3
378,327	63,58
378,843	64,68
379,359	61,42
379,874	66,26
380,389	61,51
380,905	56,12
381,42	56,69
381,935	58,99
382,449	55,31
382,964	58,14
383,479	55,46
383,993	52,63
384,508	54,86
385,022	54,53
385,536	55,79
386,05	53,15
386,564	52,86
387,078	48,68
387,592	52,43
388,105	51,54
388,619	47,77
389,132	48,54
389,645	51,26
390,158	46,57
390,671	49,19
391,184	43,32
391,697	45,19
392,21	39,44
392,722	41,27
393,235	43,15
393,747	43,58
394,259	42,6
394,771	39,03
395,283	41,48
395,795	39,93
396,307	43,36
396,818	39,82
397,33	37,84
397,841	39,91
398,353	38,33
398,864	37,89
399,375	38,15
399,886	37,06
400,397	34,96
400,907	35,3
401,418	33,53
401,928	31,9
402,439	32,79
402,949	31,31
403,459	32,44
403,969	31,57
404,479	29,66
404,989	28,08
405,498	27,82
406,008	28,43
406,517	26,21
407,027	23,66
407,536	23,49
408,045	25,02
408,554	22,9
409,063	22,16
409,572	22,05
410,08	20,69
410,589	21,73
411,097	19,68
411,606	18,97
412,114	19,04
412,622	18,49
413,13	17,85
413,638	17,75
414,145	15,81
414,653	16,44
415,16	15,4
415,668	15,8
416,175	14,84
416,682	15,04
417,189	13,6
417,696	14,13
418,203	14,32
418,71	13,81
419,216	12,95
419,723	13,24
420,229	12,92
420,735	12,92
421,242	12,3
421,748	12,1
422,254	12,23
422,759	11,99
423,265	12,2
423,771	11,69
424,276	12,07
424,781	11,2
425,287	10,99
425,792	11,7
426,297	11,94
426,802	10,83
427,306	10,3
427,811	11,44
428,316	11,76
428,82	10,42
429,324	11,14
429,829	10
430,333	10,65
430,837	10,63
431,34	10,42
431,844	10,27
432,348	10,13
432,851	10,08
433,355	10,48
433,858	10,06
434,361	9,69
434,864	9,49
435,367	9,58
435,87	10,34
436,373	9,93
436,876	10,17
437,378	10,14
437,88	9,87
438,383	10,02
438,885	9,79
439,387	9,62
439,889	10,01
440,391	10,06
440,892	9,82
441,394	9,94
441,896	9,91
442,397	9,74
442,898	9,2
443,399	10,02
443,9	9,55
444,401	9,13
444,902	9,24
445,403	9,38
445,903	9,59
446,404	9,51
446,904	9,66
447,405	9,36
447,905	9,27
448,405	9,41
448,905	9,91
449,404	9,49
449,904	9,23
450,404	9,31
450,903	9,71
451,403	9,28
451,902	9,91
452,401	9,52
452,9	9,41
453,399	9,23
453,898	9,31
454,396	9,82
454,895	9,47
455,393	9,24
455,892	9,45
456,39	9,56
456,888	9,54
457,386	9,77
457,884	9,98
458,382	9,64
458,879	9,33
459,377	9,68
459,874	9,51
460,372	9,96
460,869	9,19
461,366	9,45
461,863	9,38
462,36	9,55
462,857	9,34
463,353	9,25
463,85	9,57
464,346	9,2
464,843	9,48
465,339	8,88
465,835	9,67
466,331	9,53
466,827	9,39
467,323	9,51
467,818	9,22
468,314	9,3
468,809	9,39
469,305	9,22
469,8	9,31
470,295	9,23
470,79	9,18
471,285	9,48
471,78	9,04
472,274	9,51
472,769	9,09
473,263	9,24
473,758	9,43
474,252	9,29
474,746	9,53
475,24	9,29
475,734	9,02
476,228	9,38
476,721	9,1
477,215	9,17
477,708	9,21
478,202	9,15
478,695	9,45
479,188	8,97
479,681	9,3
480,174	9,53
480,667	9,43
481,159	9,19
481,652	9,33
482,144	9,26
482,637	9,32
483,129	9,28
483,621	9,45
484,113	9,54
484,605	9,21
485,097	9,37
485,588	9,23
486,08	9,27
486,571	9,68
487,063	9,43
487,554	9,4
488,045	9,26
488,536	9,64
489,027	9,45
489,518	9,53
490,008	9,27
490,499	9,47
490,989	9,92
491,48	9,66
491,97	9,61
492,46	9,78
492,95	9,64
493,44	9,92
493,93	9,87
494,419	9,84
494,909	9,91
495,398	10,03
495,888	10,04
496,377	10,27
496,866	10,39
497,355	10,13
497,844	9,91
498,333	10,39
498,821	10,41
499,31	10,63
499,798	10,69
500,287	10,77
500,775	11,08
501,263	10,91
501,751	10,95
502,239	11,5
502,727	11,16
503,215	11,49
503,702	11,91
504,19	11,44
504,677	12,31
505,164	12,34
505,651	12,41
506,139	13
506,625	12,69
507,112	12,75
507,599	13,28
508,086	13,51
508,572	13,77
509,058	14,19
509,545	13,82
510,031	14,09
510,517	14,31
511,003	14,83
511,489	15,23
511,974	15,59
512,46	15,82
512,946	15,42
513,431	16,11
513,916	16,55
514,401	17,01
514,887	17,06
515,371	17,61
515,856	17,93
516,341	18,1
516,826	18,34
517,31	18,63
517,795	19,25
518,279	19,11
518,763	20,11
519,247	20,38
519,731	20,59
520,215	21,19
520,699	21,25
521,182	21,67
521,666	22,24
522,149	22,37
522,633	22,84
523,116	23,39
523,599	23,9
524,082	24,04
524,565	24,16
525,048	24,83
525,53	24,92
526,013	24,96
526,495	25,81
526,978	25,8
527,46	25,92
527,942	26,22
528,424	26,85
528,906	26,85
529,388	27,4
529,87	27,62
530,351	27,4
530,833	27,75
531,314	28,18
531,795	28,17
532,277	28,66
532,758	28,5
533,238	28,75
533,719	28,66
534,2	29,08
534,681	29,32
535,161	29,57
535,642	29,95
536,122	29,21
536,602	29,86
537,082	30,1
537,562	29,93
538,042	30,05
538,522	30,42
539,001	30,05
539,481	30,72
539,96	30,24
540,44	30,37
540,919	30,51
541,398	30,38
541,877	30,61
542,356	30,55
542,835	30,73
543,313	30,52
543,792	30,7
544,27	30,65
544,749	30,81
545,227	31,12
545,705	31,48
546,183	31,86
546,661	31,52
547,139	30,89
547,616	31,06
548,094	31,32
548,571	31,53
549,049	31,65
549,526	31,44
550,003	31,44
550,48	31,13
550,957	31,51
551,434	31,65
551,911	31,74
552,387	31,53
552,864	32,06
553,34	31,6
553,817	31,52
554,293	31,83
554,769	31,79
555,245	31,48
555,721	31,41
556,197	31,76
556,672	31,61
557,148	31,88
557,623	31,71
558,099	31,66
558,574	31,4
559,049	31,25
559,524	31,74
559,999	30,72
560,474	30,65
560,948	30,73
561,423	31,11
561,897	30,81
562,372	30,8
562,846	30,44
563,32	30,77
563,794	30,15
564,268	30,65
564,742	30,32
565,216	29,79
565,69	29,68
566,163	29,61
566,636	29,35
567,11	29,08
567,583	28,85
568,056	28,95
568,529	28,68
569,002	28,48
569,475	28,47
569,947	27,97
570,42	27,9
570,892	27,35
571,365	27,46
571,837	27,44
572,309	27,24
572,781	26,6
573,253	26,6
573,725	26,47
574,197	26,36
574,668	26,24
575,14	25,86
575,611	25,53
576,082	25,29
576,554	25,23
577,025	24,92
577,496	24,95
577,967	24,65
578,437	24,58
578,908	24,42
579,379	24,34
579,849	23,88
580,319	24,09
580,79	23,74
581,26	23,45
581,73	23,34
582,2	23,16
582,669	23,24
583,139	23,23
583,609	22,7
584,078	23,01
584,548	22,14
585,017	22,5
585,486	22,41
585,955	22,22
586,424	22,3
586,893	22,26
587,362	22,04
587,83	21,73
588,299	21,77
588,767	21,88
589,236	21,54
589,704	21,21
590,172	21,29
590,64	21,33
591,108	21,49
591,576	21,43
592,043	21,1
592,511	20,94
592,978	21,3
593,446	20,79
593,913	20,82
594,38	20,71
594,847	21,05
595,314	20,69
595,781	20,59
596,248	20,79
596,715	20,51
597,181	20,39
597,647	20,44
598,114	20,09
598,58	20,24
599,046	20,44
599,512	20,13
599,978	20,26
600,444	20,26
600,91	20,32
601,375	20,11
601,841	20,23
602,306	19,91
602,771	20
603,236	19,9
603,702	20,13
604,167	19,59
604,631	19,59
605,096	19,55
605,561	19,23
606,025	19,24
606,49	19,26
606,954	19,16
607,418	19,15
607,882	19,08
608,347	18,73
608,81	18,88
609,274	18,61
609,738	18,39
610,202	18,56
610,665	18,42
611,128	18,18
611,592	18,27
612,055	18,07
612,518	18,01
612,981	18,1
613,444	17,98
613,907	17,36
614,369	17,58
614,832	17,49
615,294	17,38
615,757	17,25
616,219	17,29
616,681	16,92
617,143	16,95
617,605	17,05
618,067	16,73
618,529	16,91
618,99	16,45
619,452	16,39
619,913	16,62
620,375	16,31
620,836	16,01
621,297	16,44
621,758	16,36
622,219	16,12
622,68	16,16
623,14	15,85
623,601	16,12
624,061	16,1
624,522	15,77
624,982	16,01
625,442	15,84
625,902	15,87
626,362	15,62
626,822	15,64
627,282	15,86
627,742	15,83
628,201	15,83
628,661	15,87
629,12	15,54
629,579	15,56
630,038	15,53
630,497	15,65
630,956	15,52
631,415	15,52
631,874	15,47
632,332	15,51
632,791	15,4
633,249	15,31
633,708	15,55
634,166	15,21
634,624	15,18
635,082	15,06
635,54	15,19
635,998	14,91
636,455	14,99
636,913	14,81
637,37	14,71
637,828	14,57
638,285	14,44
638,742	14,31
639,199	14,25
639,656	13,92
640,113	13,96
640,57	13,94
641,027	13,45
641,483	13,46
641,94	13,37
642,396	13,33
642,852	13,26
643,309	12,87
643,765	12,9
644,221	12,74
644,676	12,49
645,132	12,52
645,588	12,29
646,043	12,16
646,499	12,08
646,954	12,14
647,409	11,98
647,864	11,76
648,319	11,54
648,774	11,51
649,229	11,46
649,684	11,38
650,139	11,3
650,593	11,18
651,047	11,16
651,502	11,13
651,956	10,93
652,41	10,99
652,864	10,77
653,318	10,86
653,772	10,74
654,225	10,69
654,679	10,64
655,133	10,76
655,586	10,56
656,039	10,52
656,492	10,3
656,946	10,31
657,399	10,36
657,851	10,24
658,304	10,19
658,757	10,28
659,209	10,04
659,662	9,92
660,114	9,81
660,567	9,82
661,019	9,7
661,471	9,64
661,923	9,46
662,375	9,56
662,826	9,41
663,278	9,39
663,73	9,22
664,181	9,28
664,632	9,16
665,084	9,16
665,535	9,16
665,986	9,1
666,437	9,15
666,888	9,04
667,338	9
667,789	9,1
668,24	9,09
668,69	9,02
669,14	9,08
669,591	9,14
670,041	9,1
670,491	9,02
670,941	9,09
671,391	9,28
671,84	9,29
672,29	9,26
672,74	9,23
673,189	9,41
673,638	9,38
674,088	9,54
674,537	9,47
674,986	9,53
675,435	9,82
675,883	9,8
676,332	9,94
676,781	9,91
677,229	10,18
677,678	10,13
678,126	10,41
678,574	10,37
679,022	10,42
679,47	10,66
679,918	10,91
680,366	10,85
680,814	11,07
681,261	11,09
681,709	11,3
682,156	11,33
682,604	11,64
683,051	11,62
683,498	11,75
683,945	11,92
684,392	11,99
684,839	12,2
685,286	12,35
685,732	12,44
686,179	12,64
686,625	12,75
687,071	12,93
687,518	13,22
687,964	13,46
688,41	13,66
688,856	13,72
689,301	14,26
689,747	14,43
690,193	14,79
690,638	15,08
691,084	15,41
691,529	16,02
691,974	16,5
692,419	16,86
692,864	17,51
693,309	18,01
693,754	18,5
694,199	19,05
694,643	19,76
695,088	20,32
695,532	21,04
695,977	21,52
696,421	22,1
696,865	22,57
697,309	23,21
697,753	23,92
698,197	24,69
698,64	25,4
699,084	26,07
699,527	26,68
699,971	27,34
700,414	27,91
700,857	28,52
701,3	29,16
701,743	29,68
702,186	30,43
702,629	31,18
703,072	31,71
703,515	32,26
703,957	32,5
704,399	33,51
704,842	33,9
705,284	34,57
705,726	35,15
706,168	35,41
706,61	36,24
707,052	36,32
707,494	37,2
707,935	37,43
708,377	38,35
708,818	38,86
709,26	39,17
709,701	39,62
710,142	40,34
710,583	40,27
711,024	40,94
711,465	41,65
711,905	41,9
712,346	42,22
712,787	42,28
713,227	43,06
713,667	43,54
714,108	43,71
714,548	44,42
714,988	44,72
715,428	45,17
715,868	45,78
716,307	45,89
716,747	45,84
717,186	46,53
717,626	46,93
718,065	47,44
718,504	47,62
718,944	48,43
719,383	48,11
719,822	48,74
720,261	48,89
720,699	49,24
721,138	49,22
721,576	49,41
722,015	50,15
722,453	50
722,892	50,49
723,33	50,85
723,768	51,42
724,206	51,47
724,644	51,58
725,081	51,7
725,519	51,8
725,957	52,22
726,394	52,53
726,832	52,64
727,269	52,64
727,706	53
728,143	52,86
728,58	53,48
729,017	53,1
729,454	53,45
729,89	53,93
730,327	53,81
730,764	54,16
731,2	54,11
731,636	54,16
732,072	54,71
732,509	54,67
732,945	54,73
733,38	54,62
733,816	55,08
734,252	54,83
734,688	54,94
735,123	54,92
735,559	55,47
735,994	55,73
736,429	55,52
736,864	55,47
737,299	55,6
737,734	55,97
738,169	55,67
738,604	55,86
739,038	55,35
739,473	55,76
739,907	55,81
740,342	56,02
740,776	56,09
741,21	55,88
741,644	56,3
742,078	56,01
742,512	55,99
742,946	55,84
743,379	55,67
743,813	55,83
744,246	55,78
744,68	56,03
745,113	55,57
745,546	55,6
745,979	55,92
746,412	55,79
746,845	55,65
747,278	55,78
747,711	55,42
748,143	55,66
748,576	55,9
749,008	55,94
749,441	55,32
749,873	55,6
750,305	55,75
750,737	55,23
751,169	55,42
751,601	55,33
752,032	55,44
752,464	55,61
752,896	55,2
753,327	55,46
753,758	55,23
754,19	55,05
754,621	54,96
755,052	54,94
755,483	54,99
755,914	55,06
756,344	54,98
756,775	55,48
757,206	55,08
757,636	55,18
758,066	55,02
758,497	55,19
758,927	55,3
759,357	55,07
759,787	54,76
760,217	54,78
760,647	54,69
761,076	54,8
761,506	54,34
761,935	54,32
762,365	54,94
762,794	54,18
763,223	54,73
763,653	54,67
764,082	54,16
764,51	54,3
764,939	54,51
765,368	54,4
765,797	54,27
766,225	54,35
766,654	53,98
767,082	53,8
767,51	54,22
767,938	54,06
768,367	54,08
768,795	53,84
769,222	54,33
769,65	54,24
770,078	54,11
770,505	54,17
770,933	53,96
771,36	54,43
771,788	53,72
772,215	53,98
772,642	54,14
773,069	53,83
773,496	53,62
773,923	53,45
774,349	53,74
774,776	53,94
775,203	53,66
775,629	53,86
776,055	53,35
776,482	53,34
776,908	53,25
777,334	53,35
777,76	53,68
778,186	53,47
778,611	53,42
779,037	53,59
779,463	53,36
779,888	53,35
780,314	53,18
780,739	53,58
781,164	53,62
781,589	53,19
782,014	53,24
782,439	53,45
782,864	53,09
783,289	53,54
783,713	53,31
784,138	53,42
784,562	52,81
784,987	53,05
785,411	52,85
785,835	53,01
786,259	53,31
786,683	53,29
787,107	53,05
787,531	53,03
787,954	53,43
788,378	53,31
788,802	53,34
789,225	52,84
789,648	53,11
790,071	52,27
790,495	53,04
790,918	52,93
791,34	52,98
791,763	52,58
792,186	53,04
792,609	53,08
793,031	52,8
793,454	52,94
793,876	52,96
794,298	52,87
794,721	52,81
795,143	53,14
795,565	52,76
795,986	52,35
796,408	52,78
796,83	52,44
797,252	52,43
797,673	53,2
798,094	53,19
798,516	52,98
798,937	52,99
799,358	52,67
799,779	52,63
800,2	52,86
800,621	52,55
801,042	52,6
801,462	52,89
801,883	52,98
802,303	52,46
802,724	52,84
803,144	52,67
803,564	52,9
803,984	53,09
804,404	53,18
804,824	52,99
805,244	53
805,664	52,99
806,084	52,91
806,503	52,73
806,923	52,52
807,342	52,7
807,761	52,32
808,18	52,47
808,599	52,39
809,018	52,86
809,437	52,46
809,856	52,33
810,275	53,01
810,693	52,56
811,112	53,01
811,53	53,03
811,949	52,82
812,367	52,88
812,785	52,52
813,203	52,68
813,621	52,74
814,039	52,3
814,457	52,69
814,874	52,14
815,292	52,51
815,709	52,66
816,127	52,75
816,544	52,72
816,961	52,51
817,378	53,33
817,795	52,81
818,212	52,66
818,629	53,13
819,046	52,26
819,462	52,41
819,879	52,08
820,295	52,55
820,712	52,26
821,128	52,54
821,544	52,49
821,96	52,79
822,376	52,35
822,792	52,65
823,208	52,53
823,624	52,89
824,039	52,33
824,455	52,82
824,87	52,4
825,286	52,55
825,701	52,43
826,116	52,11
826,531	52,61
826,946	52,03
827,361	52,27
827,776	52,47
828,19	52,26
828,605	51,91
829,02	52,12
829,434	52,22
829,848	52,41
830,263	52,65
830,677	52,32
