Data from G2__Relative__3__00118.txt Node

Date: Wed Jan 31 18:36:50 CET 2024
User: diatiterra
Spectrometer: HDX00911
Trigger mode: 0
Integration Time (sec): 6,000000E-3
Scans to average: 2
Nonlinearity correction enabled: false
Boxcar width: 0
Storing dark spectrum: false
XAxis mode: Wavelengths
Number of Pixels in Spectrum: 2068
>>>>>Begin Spectral Data<<<<<
194,468	256,6
195,025	170
195,581	243,9
196,138	238,46
196,694	153,09
197,251	131,31
197,807	114,17
198,363	110
198,919	96,9
199,474	106,99
200,03	115,57
200,586	129,02
201,141	93,87
201,696	104,03
202,251	105,3
202,806	97,9
203,361	108,89
203,916	103,12
204,471	110,22
205,025	128,23
205,58	108,21
206,134	119,2
206,688	116,15
207,242	119,03
207,796	109,02
208,35	108,7
208,904	112,07
209,457	98,96
210,011	101,77
210,564	110,56
211,117	113,53
211,67	111,57
212,223	105,14
212,776	125
213,329	101,67
213,881	134,8
214,434	105,59
214,986	123,14
215,538	114,71
216,09	97,54
216,642	117,77
217,194	109,85
217,746	111,65
218,297	111,07
218,849	112,5
219,4	127,73
219,951	118,15
220,502	111,15
221,053	117,94
221,604	113,09
222,155	117,86
222,705	105,88
223,256	112,69
223,806	119,29
224,356	107,69
224,906	120,97
225,456	118,22
226,006	116,27
226,556	94,16
227,106	122,58
227,655	104,17
228,204	117,92
228,754	101,41
229,303	104,64
229,852	100,36
230,401	108,96
230,949	111,87
231,498	100,7
232,047	103,57
232,595	107,59
233,143	121,26
233,691	106,2
234,239	102,5
234,787	115,6
235,335	108,58
235,883	105,59
236,43	111,74
236,978	115
237,525	108,03
238,072	104,96
238,619	117,42
239,166	101,42
239,713	108,03
240,26	100,71
240,806	114,58
241,353	114,29
241,899	106,64
242,445	113,5
242,991	118,32
243,537	105,3
244,083	114,5
244,629	111,15
245,174	127,88
245,72	106,3
246,265	111,51
246,81	121,6
247,355	121,83
247,9	100
248,445	126,98
248,99	113,26
249,534	130,87
250,079	125,56
250,623	110,37
251,168	121,49
251,712	114,06
252,256	122,54
252,8	121,15
253,343	111,07
253,887	117,34
254,43	120,23
254,974	114,89
255,517	102,74
256,06	116,15
256,603	100,74
257,146	110,08
257,689	110,63
258,232	122,88
258,774	112,06
259,317	122,46
259,859	134,86
260,401	119,38
260,943	108,87
261,485	108,87
262,027	119,2
262,569	112,31
263,11	116,54
263,652	126,77
264,193	118,6
264,734	112,77
265,275	122,13
265,816	113,74
266,357	123,64
266,898	119,62
267,438	116,54
267,979	110,07
268,519	105,6
269,059	135,51
269,6	118,8
270,14	132,66
270,68	117,03
271,219	126,69
271,759	113,53
272,298	112,03
272,838	118,08
273,377	119,84
273,916	104,32
274,455	108,76
274,994	118
275,533	110,87
276,072	115,04
276,61	109,78
277,149	121,67
277,687	114,66
278,225	99,67
278,763	128,95
279,301	115,83
279,839	120,56
280,377	122,95
280,914	103,85
281,452	125,21
281,989	117,77
282,526	115,35
283,064	113,03
283,601	100,34
284,137	109,92
284,674	116,67
285,211	125,44
285,747	112,5
286,284	131,08
286,82	114,46
287,356	99,67
287,892	126,36
288,428	117,77
288,964	134,45
289,5	118,6
290,035	114,8
290,571	117,65
291,106	121,54
291,641	122,77
292,176	109,77
292,711	123,17
293,246	105,77
293,781	120,66
294,315	97,54
294,85	124,54
295,384	121,72
295,918	104,04
296,453	102,99
296,987	113,22
297,52	122,31
298,054	111,45
298,588	112,92
299,121	103,73
299,655	114,6
300,188	115
300,721	116,67
301,254	108,06
301,787	108,59
302,32	122,36
302,853	115,6
303,385	102,14
303,918	109,3
304,45	120,77
304,982	98,23
305,514	107,75
306,046	114,88
306,578	105,81
307,11	112,4
307,641	120,26
308,173	115,29
308,704	107,44
309,236	107,89
309,767	108,16
310,298	108,47
310,829	116,96
311,359	118,55
311,89	113,03
312,421	122,97
312,951	115,85
313,481	99,31
314,012	100,37
314,542	125,42
315,072	106,87
315,601	115,2
316,131	109,45
316,661	113,75
317,19	104,44
317,72	121,49
318,249	122,22
318,778	110,16
319,307	103,52
319,836	127,43
320,365	117,83
320,893	112,81
321,422	119,92
321,95	114,29
322,479	116,03
323,007	123,18
323,535	104,29
324,063	116,8
324,591	110
325,118	108,39
325,646	118,91
326,173	117,92
326,701	113,01
327,228	117,67
327,755	106,77
328,282	105,73
328,809	118,64
329,336	110,24
329,862	106,25
330,389	106,64
330,915	105,12
331,441	110,31
331,968	122,07
332,494	100,38
333,02	107,92
333,545	102,61
334,071	129,34
334,597	95,07
335,122	102,96
335,648	105,6
336,173	102,65
336,698	90,82
337,223	102,21
337,748	100,69
338,272	100
338,797	103,26
339,322	93,8
339,846	91,18
340,37	110,08
340,894	94,1
341,419	102,26
341,942	106,64
342,466	95,83
342,99	92,95
343,514	101,06
344,037	90,51
344,56	105,56
345,084	96,58
345,607	102,43
346,13	91,9
346,653	97,67
347,175	94,23
347,698	84,91
348,221	94,29
348,743	87,27
349,265	95,32
349,787	85,58
350,309	89,56
350,831	79,63
351,353	89,94
351,875	84,5
352,397	93,36
352,918	85,86
353,439	95,7
353,961	77,91
354,482	85,67
355,003	79,07
355,524	85
356,044	82,1
356,565	82,83
357,086	83,9
357,606	69,78
358,126	76,33
358,646	77,04
359,167	80,27
359,687	81,64
360,206	75,41
360,726	71,56
361,246	83,24
361,765	75,99
362,285	70,5
362,804	79,21
363,323	70,49
363,842	74,45
364,361	70,65
364,88	69,7
365,398	64,85
365,917	71,23
366,435	80,21
366,954	74,55
367,472	68,63
367,99	73,93
368,508	68,83
369,026	76,82
369,544	68,64
370,061	65,34
370,579	62,09
371,096	76,15
371,613	63,79
372,131	60,63
372,648	62,2
373,165	62,5
373,681	63,92
374,198	67,58
374,715	64,85
375,231	62,12
375,747	61,9
376,264	58,5
376,78	58,99
377,296	61,34
377,812	54,32
378,327	58,77
378,843	60,24
379,359	58,61
379,874	58,13
380,389	54,57
380,905	47,91
381,42	51,37
381,935	54,27
382,449	50,74
382,964	52,14
383,479	49,57
383,993	48,61
384,508	48,16
385,022	45,73
385,536	45,92
386,05	48,43
386,564	46,14
387,078	44,38
387,592	42,58
388,105	47,87
388,619	41,96
389,132	42,02
389,645	41,61
390,158	42,92
390,671	39,1
391,184	39,37
391,697	38,78
392,21	33,61
392,722	38,39
393,235	38,09
393,747	36,48
394,259	38,2
394,771	34,64
395,283	35,44
395,795	34,33
396,307	36,82
396,818	34,21
397,33	29,85
397,841	33,98
398,353	31,35
398,864	31,34
399,375	29,38
399,886	32,12
400,397	29,29
400,907	27,88
401,418	27,54
401,928	26,3
402,439	28,8
402,949	25,56
403,459	25,69
403,969	25,09
404,479	23,17
404,989	22,92
405,498	24
406,008	22,07
406,517	21,9
407,027	19,83
407,536	19,01
408,045	20,91
408,554	19,06
409,063	18,07
409,572	17,81
410,08	17,28
410,589	17,09
411,097	15,95
411,606	16,61
412,114	15,62
412,622	14,68
413,13	14,93
413,638	14,05
414,145	13,18
414,653	13,48
415,16	12,37
415,668	13,41
416,175	11,64
416,682	11,56
417,189	10,46
417,696	11,69
418,203	11,3
418,71	11,03
419,216	11,12
419,723	10,08
420,229	10,31
420,735	10,27
421,242	10,73
421,748	10,38
422,254	9,99
422,759	9,58
423,265	9,52
423,771	9,56
424,276	9,5
424,781	9,17
425,287	9,42
425,792	9,16
426,297	9,25
426,802	9,1
427,306	9,25
427,811	8,64
428,316	9,16
428,82	8,9
429,324	8,32
429,829	8,54
430,333	8,56
430,837	8,52
431,34	8,13
431,844	8,07
432,348	8,29
432,851	7,51
433,355	8,07
433,858	8,12
434,361	7,92
434,864	7,68
435,367	7,66
435,87	8,13
436,373	8,1
436,876	8,12
437,378	7,76
437,88	8,01
438,383	7,71
438,885	7,53
439,387	7,63
439,889	7,87
440,391	7,38
440,892	7,31
441,394	7,45
441,896	7,02
442,397	7,83
442,898	7,25
443,399	7,84
443,9	7,09
444,401	7,09
444,902	7,49
445,403	7,64
445,903	7,54
446,404	7,81
446,904	7,38
447,405	7,38
447,905	7,24
448,405	7,43
448,905	7,58
449,404	7,47
449,904	7,23
450,404	7,51
450,903	7,77
451,403	7,12
451,902	7,65
452,401	7,51
452,9	7,72
453,399	7,41
453,898	6,92
454,396	7,11
454,895	7,18
455,393	7,16
455,892	7,43
456,39	7,78
456,888	7,44
457,386	7,51
457,884	7,56
458,382	7,55
458,879	7,41
459,377	7,61
459,874	7,28
460,372	7,31
460,869	7,5
461,366	7,22
461,863	7,22
462,36	7,3
462,857	7,17
463,353	7,3
463,85	6,94
464,346	7,34
464,843	7,41
465,339	7,26
465,835	7,49
466,331	7,05
466,827	7,3
467,323	7,06
467,818	7,38
468,314	7,49
468,809	6,93
469,305	6,91
469,8	7,24
470,295	7,18
470,79	7,06
471,285	7,25
471,78	6,94
472,274	6,98
472,769	7,11
473,263	6,99
473,758	7,33
474,252	6,85
474,746	7,24
475,24	6,99
475,734	6,95
476,228	7,03
476,721	7,14
477,215	6,86
477,708	7,06
478,202	6,91
478,695	6,93
479,188	7,09
479,681	7,07
480,174	6,87
480,667	7,29
481,159	7,35
481,652	7,04
482,144	7,02
482,637	7,23
483,129	7,02
483,621	7,28
484,113	7,18
484,605	6,92
485,097	7,36
485,588	7,17
486,08	7,37
486,571	7,31
487,063	7,22
487,554	7,07
488,045	7,17
488,536	7,19
489,027	7,33
489,518	7,39
490,008	7,22
490,499	7,49
490,989	7,2
491,48	7,19
491,97	7,56
492,46	7,4
492,95	7,34
493,44	7,55
493,93	7,47
494,419	7,79
494,909	7,9
495,398	7,85
495,888	7,71
496,377	7,83
496,866	8,16
497,355	8,18
497,844	8,16
498,333	8,34
498,821	8,31
499,31	8,33
499,798	8,4
500,287	8,56
500,775	8,78
501,263	8,89
501,751	9,04
502,239	9,04
502,727	8,9
503,215	9,29
503,702	9,2
504,19	9,42
504,677	9,55
505,164	10,08
505,651	10,25
506,139	10,29
506,625	10,14
507,112	11,03
507,599	10,99
508,086	11,02
508,572	11,51
509,058	11,38
509,545	11,61
510,031	12,08
510,517	12,28
511,003	12,16
511,489	12,88
511,974	13,01
512,46	13,1
512,946	13,43
513,431	13,71
513,916	14,14
514,401	14,35
514,887	14,7
515,371	15,08
515,856	15,46
516,341	15,47
516,826	15,91
517,31	16,1
517,795	16,85
518,279	16,72
518,763	17,54
519,247	17,65
519,731	18,31
520,215	18,45
520,699	18,61
521,182	19,17
521,666	19,81
522,149	19,69
522,633	20,39
523,116	20,46
523,599	21,18
524,082	21,32
524,565	21,25
525,048	21,91
525,53	21,93
526,013	22,46
526,495	22,73
526,978	23,05
527,46	23,33
527,942	23,35
528,424	23,94
528,906	23,88
529,388	24,46
529,87	25,01
530,351	24,7
530,833	24,75
531,314	24,97
531,795	25,32
532,277	25,88
532,758	26,05
533,238	25,72
533,719	25,97
534,2	25,9
534,681	26,5
535,161	26,41
535,642	26,95
536,122	26,36
536,602	26,48
537,082	26,6
537,562	26,99
538,042	26,71
538,522	26,99
539,001	27,12
539,481	27,31
539,96	27,11
540,44	27,36
540,919	27,06
541,398	27,54
541,877	27,37
542,356	27,04
542,835	27,58
543,313	27,74
543,792	27,81
544,27	27,95
544,749	27,67
545,227	27,95
545,705	28
546,183	27,92
546,661	28,16
547,139	28,23
547,616	27,82
548,094	27,95
548,571	28,14
549,049	28,36
549,526	27,95
550,003	28,43
550,48	28,32
550,957	28,2
551,434	28,09
551,911	28,54
552,387	27,92
552,864	28,14
553,34	28,82
553,817	28,38
554,293	28,33
554,769	28,52
555,245	28,17
555,721	28,42
556,197	28,55
556,672	28,16
557,148	28,06
557,623	28,65
558,099	27,92
558,574	28,5
559,049	27,78
559,524	28,12
559,999	28,08
560,474	27,57
560,948	27,85
561,423	27,78
561,897	27,61
562,372	27,79
562,846	27,57
563,32	27,35
563,794	27,01
564,268	27,17
564,742	26,87
565,216	26,76
565,69	26,32
566,163	26,8
566,636	26,21
567,11	26,09
567,583	26,02
568,056	25,68
568,529	25,71
569,002	25,38
569,475	25,32
569,947	25,05
570,42	25
570,892	24,6
571,365	24,35
571,837	24,34
572,309	24,41
572,781	23,66
573,253	23,7
573,725	23,42
574,197	23,18
574,668	23,18
575,14	22,88
575,611	22,44
576,082	22,02
576,554	22,2
577,025	22,18
577,496	22,08
577,967	21,83
578,437	21,55
578,908	21,61
579,379	21,46
579,849	21,21
580,319	20,89
580,79	20,85
581,26	20,66
581,73	20,5
582,2	20,36
582,669	20,35
583,139	19,92
583,609	19,77
584,078	20,28
584,548	19,8
585,017	19,76
585,486	19,16
585,955	19,52
586,424	19,28
586,893	19,13
587,362	19,21
587,83	19
588,299	19,02
588,767	18,94
589,236	18,86
589,704	18,61
590,172	18,72
590,64	18,46
591,108	18,33
591,576	18,46
592,043	18,02
592,511	18,23
592,978	18,16
593,446	18,32
593,913	18
594,38	17,96
594,847	17,78
595,314	17,93
595,781	17,66
596,248	17,63
596,715	17,74
597,181	17,6
597,647	17,9
598,114	17,7
598,58	17,61
599,046	17,55
599,512	17,45
599,978	16,96
600,444	17,54
600,91	17,33
601,375	17,17
601,841	17,39
602,306	17,26
602,771	17,17
603,236	17,11
603,702	17,04
604,167	16,88
604,631	16,88
605,096	16,97
605,561	16,8
606,025	16,44
606,49	16,49
606,954	16,58
607,418	16,27
607,882	16,48
608,347	16,22
608,81	16,17
609,274	15,91
609,738	15,83
610,202	15,86
610,665	15,72
611,128	15,51
611,592	15,46
612,055	15,32
612,518	15,37
612,981	15,35
613,444	15,08
613,907	14,87
614,369	14,79
614,832	15,01
615,294	14,51
615,757	14,65
616,219	14,7
616,681	14,14
617,143	14,42
617,605	14,15
618,067	14,01
618,529	14,02
618,99	14,01
619,452	13,85
619,913	13,68
620,375	13,62
620,836	13,74
621,297	13,69
621,758	13,57
622,219	13,54
622,68	13,52
623,14	13,31
623,601	13,39
624,061	13,57
624,522	13,32
624,982	13,34
625,442	13,34
625,902	13,23
626,362	13,15
626,822	13,04
627,282	13,27
627,742	13,31
628,201	13,17
628,661	13,16
629,12	12,95
629,579	13,02
630,038	13,1
630,497	13,09
630,956	12,98
631,415	12,84
631,874	12,62
632,332	13,02
632,791	12,79
633,249	12,81
633,708	12,87
634,166	12,6
634,624	12,65
635,082	12,59
635,54	12,48
635,998	12,23
636,455	12,23
636,913	11,92
637,37	12,05
637,828	11,92
638,285	11,77
638,742	11,78
639,199	11,7
639,656	11,42
640,113	11,35
640,57	11,17
641,027	11,06
641,483	10,98
641,94	10,7
642,396	10,63
642,852	10,47
643,309	10,41
643,765	10,25
644,221	10,07
644,676	9,96
645,132	9,8
645,588	9,66
646,043	9,61
646,499	9,52
646,954	9,39
647,409	9,38
647,864	9,12
648,319	8,97
648,774	8,89
649,229	8,76
649,684	8,75
650,139	8,78
650,593	8,7
651,047	8,56
651,502	8,58
651,956	8,47
652,41	8,38
652,864	8,24
653,318	8,44
653,772	8,28
654,225	8,26
654,679	8,33
655,133	8,17
655,586	8,15
656,039	8,09
656,492	7,99
656,946	7,99
657,399	7,91
657,851	7,84
658,304	7,85
658,757	7,79
659,209	7,62
659,662	7,62
660,114	7,52
660,567	7,48
661,019	7,3
661,471	7,18
661,923	7,22
662,375	7,11
662,826	7,05
663,278	7
663,73	6,94
664,181	6,9
664,632	6,95
665,084	6,89
665,535	6,81
665,986	6,76
666,437	6,8
666,888	6,75
667,338	6,77
667,789	6,83
668,24	6,75
668,69	6,75
669,14	6,96
669,591	6,8
670,041	6,91
670,491	6,97
670,941	6,88
671,391	7,04
671,84	7,02
672,29	7,17
672,74	7,18
673,189	7,27
673,638	7,34
674,088	7,43
674,537	7,49
674,986	7,52
675,435	7,66
675,883	7,73
676,332	7,87
676,781	8,02
677,229	8,03
677,678	8,24
678,126	8,27
678,574	8,41
679,022	8,64
679,47	8,76
679,918	8,94
680,366	9,04
680,814	9,18
681,261	9,17
681,709	9,36
682,156	9,43
682,604	9,51
683,051	9,78
683,498	9,95
683,945	10,03
684,392	10,08
684,839	10,31
685,286	10,32
685,732	10,43
686,179	10,75
686,625	10,77
687,071	10,93
687,518	11,18
687,964	11,46
688,41	11,59
688,856	11,65
689,301	12,04
689,747	12,31
690,193	12,57
690,638	12,9
691,084	13,29
691,529	13,69
691,974	14,36
692,419	14,77
692,864	15,17
693,309	15,77
693,754	16,29
694,199	16,86
694,643	17,26
695,088	18,05
695,532	18,62
695,977	19,27
696,421	19,78
696,865	20,44
697,309	21,03
697,753	21,66
698,197	22,49
698,64	22,86
699,084	23,52
699,527	24,04
699,971	24,62
700,414	25,5
700,857	25,97
701,3	26,28
701,743	27,4
702,186	27,48
702,629	28,12
703,072	28,76
703,515	29,02
703,957	29,61
704,399	30,19
704,842	30,79
705,284	31,09
705,726	31,86
706,168	32,34
706,61	32,65
707,052	32,94
707,494	33,64
707,935	34,02
708,377	34,5
708,818	34,91
709,26	35,51
709,701	35,71
710,142	36,35
710,583	36,43
711,024	36,9
711,465	37,28
711,905	37,77
712,346	37,71
712,787	38,25
713,227	38,75
713,667	39,34
714,108	39,58
714,548	39,81
714,988	40,44
715,428	40,58
715,868	41,1
716,307	40,88
716,747	41,34
717,186	41,87
717,626	41,67
718,065	42,56
718,504	42,52
718,944	43,06
719,383	43,28
719,822	43,64
720,261	43,64
720,699	43,67
721,138	43,95
721,576	44,28
722,015	44,64
722,453	44,95
722,892	44,97
723,33	45,32
723,768	45,79
724,206	45,47
724,644	45,57
725,081	46,37
725,519	46,04
725,957	46,5
726,394	46,31
726,832	46,49
727,269	46,73
727,706	46,84
728,143	46,97
728,58	47,25
729,017	47,04
729,454	47,41
729,89	47,86
730,327	47,67
730,764	48,14
731,2	48,12
731,636	48,12
732,072	48,35
732,509	48,38
732,945	48,56
733,38	48,25
733,816	48,69
734,252	48,44
734,688	48,91
735,123	48,71
735,559	48,74
735,994	48,56
736,429	48,78
736,864	49,09
737,299	49,12
737,734	49,26
738,169	48,98
738,604	49
739,038	48,96
739,473	48,96
739,907	49,31
740,342	49,18
740,776	49,64
741,21	49,1
741,644	49,61
742,078	49,36
742,512	49,09
742,946	49,41
743,379	48,86
743,813	48,83
744,246	49,55
744,68	49,19
745,113	49,05
745,546	48,91
745,979	49,42
746,412	49,27
746,845	49,05
747,278	49,12
747,711	49,08
748,143	49,06
748,576	49,19
749,008	49,2
749,441	48,8
749,873	48,69
750,305	49,21
750,737	48,64
751,169	48,68
751,601	48,56
752,032	48,71
752,464	48,57
752,896	48,41
753,327	48,51
753,758	48,33
754,19	48,6
754,621	48,2
755,052	48,05
755,483	48,45
755,914	48,47
756,344	48,39
756,775	48,07
757,206	48,26
757,636	48,13
758,066	48,15
758,497	48
758,927	48,46
759,357	48,11
759,787	47,92
760,217	48,18
760,647	47,95
761,076	47,82
761,506	47,71
761,935	47,44
762,365	48,01
762,794	47,5
763,223	47,84
763,653	47,73
764,082	47,39
764,51	47,52
764,939	47,96
765,368	47,54
765,797	47,3
766,225	47,36
766,654	47,43
767,082	47,14
767,51	47,27
767,938	47,24
768,367	47,26
768,795	47,04
769,222	47,72
769,65	47,61
770,078	47,12
770,505	47,19
770,933	47,23
771,36	47,44
771,788	47,19
772,215	46,99
772,642	47,1
773,069	46,91
773,496	46,94
773,923	46,73
774,349	46,88
774,776	47,02
775,203	46,72
775,629	47,22
776,055	46,61
776,482	46,7
776,908	46,55
777,334	46,76
777,76	46,79
778,186	46,97
778,611	46,99
779,037	46,63
779,463	46,67
779,888	46,83
780,314	46,53
780,739	46,86
781,164	46,7
781,589	46,54
782,014	46,77
782,439	46,68
782,864	46,72
783,289	46,62
783,713	46,25
784,138	46,47
784,562	46,12
784,987	46,41
785,411	46,47
785,835	46,36
786,259	46,38
786,683	46,64
787,107	46,25
787,531	46,43
787,954	46,36
788,378	46,37
788,802	46,34
789,225	46,15
789,648	46,25
790,071	45,92
790,495	46,45
790,918	46,62
791,34	46,3
791,763	46,29
792,186	46,26
792,609	46,11
793,031	46,17
793,454	46,19
793,876	46,45
794,298	46,28
794,721	46,16
795,143	46,24
795,565	45,94
795,986	46,21
796,408	46,09
796,83	46,21
797,252	45,99
797,673	46,4
798,094	46,77
798,516	46,31
798,937	46,16
799,358	45,95
799,779	45,87
800,2	46,29
800,621	45,91
801,042	46,18
801,462	46,08
801,883	45,95
802,303	45,7
802,724	46,07
803,144	46,15
803,564	46,19
803,984	46,21
804,404	46,37
804,824	46,04
805,244	46,22
805,664	46,57
806,084	46,11
806,503	46
806,923	45,79
807,342	45,9
807,761	45,55
808,18	45,85
808,599	45,64
809,018	46,12
809,437	45,78
809,856	45,65
810,275	46,2
810,693	45,89
811,112	46,31
811,53	46,26
811,949	45,81
812,367	46,08
812,785	46,01
813,203	46,05
813,621	45,67
814,039	45,77
814,457	46
814,874	45,34
815,292	45,79
815,709	45,84
816,127	46,22
816,544	45,89
816,961	46,09
817,378	46,08
817,795	46,03
818,212	45,95
818,629	46,08
819,046	45,51
819,462	45,71
819,879	45,64
820,295	45,55
820,712	45,81
821,128	45,59
821,544	45,48
821,96	45,95
822,376	45,79
822,792	45,96
823,208	45,77
823,624	46,08
824,039	45,75
824,455	46,14
824,87	45,33
825,286	45,58
825,701	45,64
826,116	45,39
826,531	45,79
826,946	45,49
827,361	45,29
827,776	45,31
828,19	45,54
828,605	45,5
829,02	45,48
829,434	45,6
829,848	45,95
830,263	45,82
830,677	45,64
831,091	45,15
831,505	45,4
831,919	45,71
832,332	45,62
832,746	45,69
833,16	45,29
833,573	45,38
833,987	45,77
834,4	45,28
