Data from G4__Relative__2__00126.txt Node

Date: Wed Jan 31 18:38:13 CET 2024
User: diatiterra
Spectrometer: HDX00911
Trigger mode: 0
Integration Time (sec): 6,000000E-3
Scans to average: 2
Nonlinearity correction enabled: false
Boxcar width: 0
Storing dark spectrum: false
XAxis mode: Wavelengths
Number of Pixels in Spectrum: 2068
>>>>>Begin Spectral Data<<<<<
194,468	256,6
195,025	177,27
195,581	245,12
196,138	265,38
196,694	168,52
197,251	144,44
197,807	122,83
198,363	121,6
198,919	105,86
199,474	116,18
200,03	125,82
200,586	131,25
201,141	96,13
201,696	109,4
202,251	116,29
202,806	109,79
203,361	115,19
203,916	109,38
204,471	113,87
205,025	129,44
205,58	111,79
206,134	124
206,688	114,23
207,242	141,15
207,796	115,41
208,35	118,48
208,904	116,55
209,457	104,51
210,011	112,41
210,564	110,21
211,117	121,05
211,67	121,27
212,223	117,12
212,776	125
213,329	108,67
213,881	147,06
214,434	110,2
214,986	135,12
215,538	125,74
216,09	103,17
216,642	122,73
217,194	118,94
217,746	120,68
218,297	117,94
218,849	116,91
219,4	131,51
219,951	121,37
220,502	116,89
221,053	127,1
221,604	115,44
222,155	125,4
222,705	116,91
223,256	125,37
223,806	121,26
224,356	125,77
224,906	139,11
225,456	122,87
226,006	125
226,556	103,25
227,106	125,81
227,655	107,99
228,204	125,83
228,754	121,13
229,303	118,57
229,852	108,63
230,401	109,7
230,949	125,9
231,498	108,8
232,047	103,57
232,595	116,21
233,143	124,8
233,691	122,48
234,239	112,86
234,787	127,2
235,335	125
235,883	112,94
236,43	110,98
236,978	119,23
237,525	114,6
238,072	113,48
238,619	120,83
239,166	108,16
239,713	114,96
240,26	111,07
240,806	106,6
241,353	126,19
241,899	117,48
242,445	117,52
242,991	117,56
243,537	109,85
244,083	125,19
244,629	117,31
245,174	126,11
245,72	117,41
246,265	115,48
246,81	131,2
247,355	123,81
247,9	107,84
248,445	125
248,99	119,32
249,534	138,7
250,079	120,3
250,623	112,22
251,168	129,75
251,712	123,83
252,256	131,15
252,8	132,69
253,343	115,71
253,887	114,92
254,43	118,32
254,974	123,28
255,517	108,56
256,06	130
256,603	112,96
257,146	117,05
257,689	126,77
258,232	129,24
258,774	118,09
259,317	141,53
259,859	134,86
260,401	132,17
260,943	112,41
261,485	112,06
262,027	119,6
262,569	120,9
263,11	121,92
263,652	136,22
264,193	125,21
264,734	118,98
265,275	130,74
265,816	114,89
266,357	114,73
266,898	124,62
267,438	133,86
267,979	120,5
268,519	119,03
269,059	148,13
269,6	115,41
270,14	128,23
270,68	119,57
271,219	126,27
271,759	110,15
272,298	126,32
272,838	121,54
273,377	124,21
273,916	115,47
274,455	114,96
274,994	124
275,533	107,97
276,072	124,39
276,61	112,32
277,149	129,17
277,687	112,03
278,225	106
278,763	144,74
279,301	128,33
279,839	127,42
280,377	125,41
280,914	105,24
281,452	139,74
281,989	125,21
282,526	127,17
283,064	133,61
283,601	107,43
284,137	122,73
284,674	127,08
285,211	132,02
285,747	116,67
286,284	140,99
286,82	130,58
287,356	104,28
287,892	118,99
288,428	126,03
288,964	136,13
289,5	123,55
290,035	121,6
290,571	130,67
291,106	136,99
291,641	141,96
292,176	119,53
292,711	121,14
293,246	116,54
293,781	131,4
294,315	110,56
294,85	142,13
295,384	126,64
295,918	116,91
296,453	113,81
296,987	121,9
297,52	131,4
298,054	116,41
298,588	127,92
299,121	119,4
299,655	120,8
300,188	129,17
300,721	128,46
301,254	122,98
301,787	120,31
302,32	122,36
302,853	122,4
303,385	126,07
303,918	122,48
304,45	119,23
304,982	110,64
305,514	123,26
306,046	116,94
306,578	120,16
307,11	126,36
307,641	127,16
308,173	119,01
308,704	121,07
309,236	113,53
309,767	113,48
310,298	114,11
310,829	126,96
311,359	131,05
311,89	124,37
312,421	136,04
312,951	131,3
313,481	111,38
314,012	121,64
314,542	126,69
315,072	125,57
315,601	130,4
316,131	126,77
316,661	117,08
317,19	125,56
317,72	130,58
318,249	124,6
318,778	130,08
319,307	114,84
319,836	134,51
320,365	124,78
320,893	124,38
321,422	126,83
321,95	125,19
322,479	124,05
323,007	134,09
323,535	112,14
324,063	132,4
324,591	120,8
325,118	122,26
325,646	133,61
326,173	126,67
326,701	128,46
327,228	140,52
327,755	110,9
328,282	120,23
328,809	134,32
329,336	123,23
329,862	124,26
330,389	107,81
330,915	123,23
331,441	120,99
331,968	137,39
332,494	115,53
333,02	121,25
333,545	118,28
334,071	132,23
334,597	102,82
335,122	108,89
335,648	132,33
336,173	114,02
336,698	104,11
337,223	109,19
337,748	111,46
338,272	107,53
338,797	121,01
339,322	106,93
339,846	112,5
340,37	127,02
340,894	101,74
341,419	115,79
341,942	108,04
342,466	102,88
342,99	105,7
343,514	113,38
344,037	97,15
344,56	116,3
345,084	107,88
345,607	110,07
346,13	114,44
346,653	110,67
347,175	107,37
347,698	94,34
348,221	107,86
348,743	105,28
349,265	108,99
349,787	101,53
350,309	100,63
350,831	97,53
351,353	96,65
351,875	100,88
352,397	107,69
352,918	103,29
353,439	103,97
353,961	89,53
354,482	97,08
355,003	98,26
355,524	93,89
356,044	88,07
356,565	98,49
357,086	95,2
357,606	81,87
358,126	86,7
358,646	88,01
359,167	90
359,687	92,94
360,206	86,34
360,726	79,38
361,246	85,37
361,765	90,68
362,285	81
362,804	92,11
363,323	72,93
363,842	84,89
364,361	80,1
364,88	86,45
365,398	74,24
365,917	79,95
366,435	90,62
366,954	77,46
367,472	83,25
367,99	79,38
368,508	71,05
369,026	84,32
369,544	76,1
370,061	78,36
370,579	70,08
371,096	79,59
371,613	74,35
372,131	69,09
372,648	71,65
373,165	73,24
373,681	71,1
374,198	81,45
374,715	72,93
375,231	69,32
375,747	66,03
376,264	63,95
376,78	67,99
377,296	68,77
377,812	68,44
378,327	65,56
378,843	67,41
379,359	65,23
379,874	68,51
380,389	62,78
380,905	62,84
381,42	61,4
381,935	63,11
382,449	59,44
382,964	57,43
383,479	58,76
383,993	57,76
384,508	57,09
385,022	52,85
385,536	55,79
386,05	52,49
386,564	57,21
387,078	52,27
387,592	51,7
388,105	51,77
388,619	51,23
389,132	50,34
389,645	52,76
390,158	48,07
390,671	47,25
391,184	45,95
391,697	43,59
392,21	42,44
392,722	43,85
393,235	44,56
393,747	43,39
394,259	43,35
394,771	41,96
395,283	42,03
395,795	41,51
396,307	43,36
396,818	43,77
397,33	39,63
397,841	40,71
398,353	38,16
398,864	36,32
399,375	38,4
399,886	35,77
400,397	36,48
400,907	34,34
401,418	33,07
401,928	32,49
402,439	34,16
402,949	31,13
403,459	30,87
403,969	31,51
404,479	29,78
404,989	28,43
405,498	28,04
406,008	27,48
406,517	26,42
407,027	24,54
407,536	23
408,045	23,7
408,554	21,98
409,063	20,58
409,572	20,28
410,08	21,15
410,589	20,41
411,097	19,6
411,606	20,07
412,114	18,69
412,622	18,46
413,13	18,61
413,638	17,33
414,145	16,63
414,653	16,41
415,16	16,02
415,668	15,69
416,175	14,68
416,682	14,43
417,189	13,62
417,696	14,25
418,203	14
418,71	13,69
419,216	13,52
419,723	13,22
420,229	13,22
420,735	12,22
421,242	12,58
421,748	13,01
422,254	12,36
422,759	12,03
423,265	12,04
423,771	11,44
424,276	12,07
424,781	11,36
425,287	11,49
425,792	11,79
426,297	12,13
426,802	10,96
427,306	11,13
427,811	10,65
428,316	10,92
428,82	10,79
429,324	10,36
429,829	10,95
430,333	10,58
430,837	10,61
431,34	9,97
431,844	9,97
432,348	10,45
432,851	9,86
433,355	9,88
433,858	10,21
434,361	9,95
434,864	10,13
435,367	9,48
435,87	10,36
436,373	9,55
436,876	9,91
437,378	9,87
437,88	9,39
438,383	9,51
438,885	10,21
439,387	9,74
439,889	9,67
440,391	9,68
440,892	9,36
441,394	9,75
441,896	9,51
442,397	9,69
442,898	9,26
443,399	9,73
443,9	9,28
444,401	8,86
444,902	9,14
445,403	9,25
445,903	9,01
446,404	9,51
446,904	9,65
447,405	8,87
447,905	9,37
448,405	8,93
448,905	9,7
449,404	9,71
449,904	8,75
450,404	8,88
450,903	9,37
451,403	9,22
451,902	9,58
452,401	9,57
452,9	9,8
453,399	9,53
453,898	9,24
454,396	9,52
454,895	9,32
455,393	9,48
455,892	9,31
456,39	9,41
456,888	9,48
457,386	9,62
457,884	9,55
458,382	9,98
458,879	9,38
459,377	9,91
459,874	9,67
460,372	9,63
460,869	9,34
461,366	9,5
461,863	9,62
462,36	9,71
462,857	9,8
463,353	9,29
463,85	9,63
464,346	9,17
464,843	9,56
465,339	9,47
465,835	9,43
466,331	9,38
466,827	9,29
467,323	9,44
467,818	9,39
468,314	9,92
468,809	9,24
469,305	9,08
469,8	9,3
470,295	9,13
470,79	9,29
471,285	9,25
471,78	9,19
472,274	9,22
472,769	9,41
473,263	9,21
473,758	9,28
474,252	9,38
474,746	9,06
475,24	9,42
475,734	9,07
476,228	9,33
476,721	9,16
477,215	9,14
477,708	9,23
478,202	9,12
478,695	9,56
479,188	9,52
479,681	9,34
480,174	9,63
480,667	9,62
481,159	9,64
481,652	9,65
482,144	9,73
482,637	9,6
483,129	9,22
483,621	9,56
484,113	9,52
484,605	9,56
485,097	9,74
485,588	9,46
486,08	9,48
486,571	9,91
487,063	9,7
487,554	9,67
488,045	9,42
488,536	9,71
489,027	9,55
489,518	9,71
490,008	9,46
490,499	9,91
490,989	9,72
491,48	9,94
491,97	9,72
492,46	9,61
492,95	9,67
493,44	10,16
493,93	10,3
494,419	10,34
494,909	10,36
495,398	10,21
495,888	10,35
496,377	10,5
496,866	10,72
497,355	10,66
497,844	10,89
498,333	10,75
498,821	11,15
499,31	10,86
499,798	11,49
500,287	11,22
500,775	11,91
501,263	11,93
501,751	11,82
502,239	11,98
502,727	12,11
503,215	12,34
503,702	12,76
504,19	12,41
504,677	13,2
505,164	13,35
505,651	13,44
506,139	13,39
506,625	13,89
507,112	13,99
507,599	14,48
508,086	14,53
508,572	15
509,058	15,39
509,545	15,2
510,031	15,42
510,517	16,14
511,003	16,19
511,489	16,55
511,974	17,08
512,46	17,1
512,946	17,38
513,431	18,15
513,916	18,15
514,401	18,26
514,887	18,85
515,371	19,49
515,856	19,94
516,341	19,82
516,826	20,29
517,31	20,66
517,795	21,25
518,279	21,49
518,763	22,1
519,247	22,46
519,731	23,69
520,215	23,39
520,699	24,19
521,182	23,98
521,666	24,23
522,149	24,8
522,633	25,51
523,116	25,81
523,599	26,22
524,082	26,53
524,565	26,91
525,048	27,46
525,53	27,53
526,013	28,27
526,495	28,63
526,978	28,55
527,46	28,95
527,942	29,09
528,424	29,63
528,906	29,71
529,388	30,19
529,87	30,72
530,351	29,75
530,833	31,01
531,314	31,5
531,795	30,98
532,277	32,05
532,758	32,15
533,238	31,64
533,719	31,85
534,2	31,98
534,681	32,46
535,161	32,25
535,642	33,4
536,122	32,6
536,602	32,49
537,082	33,02
537,562	33,33
538,042	33,49
538,522	33,97
539,001	33,48
539,481	33,56
539,96	33,53
540,44	33,28
540,919	34,06
541,398	33,84
541,877	33,58
542,356	33,67
542,835	33,72
543,313	34,3
543,792	34,39
544,27	33,96
544,749	34,02
545,227	34,33
545,705	34,61
546,183	34,75
546,661	34,04
547,139	33,85
547,616	34,45
548,094	34,4
548,571	34,68
549,049	35,05
549,526	34,55
550,003	35,04
550,48	34,38
550,957	34,73
551,434	34,57
551,911	35,23
552,387	34,56
552,864	35,17
553,34	35,09
553,817	35,1
554,293	35,03
554,769	35,09
555,245	34,88
555,721	34,89
556,197	35,25
556,672	34,96
557,148	34,63
557,623	35,1
558,099	34,77
558,574	34,85
559,049	34,34
559,524	35,03
559,999	34,6
560,474	34,21
560,948	33,99
561,423	34,4
561,897	33,89
562,372	34,03
562,846	34,1
563,32	33,76
563,794	33,55
564,268	33,88
564,742	33,44
565,216	33,12
565,69	32,74
566,163	33,13
566,636	32,38
567,11	32,6
567,583	32,31
568,056	32,12
568,529	31,86
569,002	31,45
569,475	31,85
569,947	31,06
570,42	31,1
570,892	30,92
571,365	30,53
571,837	30,59
572,309	30,37
572,781	29,75
573,253	29,83
573,725	29,41
574,197	29,25
574,668	28,88
575,14	28,56
575,611	28,7
576,082	28,17
576,554	28,08
577,025	27,91
577,496	27,59
577,967	27,45
578,437	27,48
578,908	27,27
579,379	27,17
579,849	26,89
580,319	26,67
580,79	26,07
581,26	26,47
581,73	26,06
582,2	26,03
582,669	25,71
583,139	25,7
583,609	25,31
584,078	25,57
584,548	25,39
585,017	25,82
585,486	24,86
585,955	25,2
586,424	24,46
586,893	24,75
587,362	24,73
587,83	24,59
588,299	24,44
588,767	24,58
589,236	24,47
589,704	24,17
590,172	23,82
590,64	23,87
591,108	23,94
591,576	23,57
592,043	23,55
592,511	23,41
592,978	23,57
593,446	23,65
593,913	23,02
594,38	23,04
594,847	23,08
595,314	23,33
595,781	22,81
596,248	22,71
596,715	22,9
597,181	22,59
597,647	22,6
598,114	22,72
598,58	22,59
599,046	22,54
599,512	22,62
599,978	22,51
600,444	22,43
600,91	22,33
601,375	22,39
601,841	22,5
602,306	22,35
602,771	22,06
603,236	22,16
603,702	22,26
604,167	22,06
604,631	22
605,096	21,7
605,561	21,7
606,025	21,53
606,49	21,68
606,954	21,46
607,418	21,24
607,882	21,31
608,347	20,96
608,81	20,97
609,274	20,81
609,738	20,88
610,202	20,63
610,665	20,37
611,128	20,26
611,592	20,39
612,055	20,23
612,518	20,25
612,981	20,09
613,444	19,83
613,907	19,54
614,369	19,72
614,832	19,65
615,294	19,4
615,757	19,19
616,219	19,58
616,681	18,89
617,143	18,76
617,605	18,93
618,067	18,8
618,529	18,77
618,99	18,55
619,452	18,5
619,913	18,52
620,375	18,43
620,836	18,35
621,297	18,39
621,758	18,12
622,219	17,91
622,68	17,85
623,14	17,85
623,601	17,87
624,061	17,85
624,522	17,82
624,982	17,85
625,442	17,84
625,902	17,76
626,362	17,66
626,822	17,54
627,282	17,74
627,742	17,73
628,201	17,47
628,661	17,77
629,12	17,51
629,579	17,54
630,038	17,43
630,497	17,39
630,956	17,33
631,415	17,33
631,874	17,15
632,332	17,14
632,791	17,2
633,249	17,3
633,708	16,92
634,166	16,76
634,624	16,63
635,082	16,68
635,54	16,76
635,998	16,4
636,455	16,45
636,913	16,25
637,37	16,08
637,828	16,1
638,285	15,78
638,742	15,59
639,199	15,54
639,656	15,33
640,113	15,16
640,57	14,83
641,027	14,71
641,483	14,68
641,94	14,47
642,396	14,44
642,852	14,04
643,309	14,09
643,765	13,72
644,221	13,72
644,676	13,28
645,132	13,23
645,588	13,1
646,043	13,02
646,499	12,84
646,954	12,62
647,409	12,6
647,864	12,46
648,319	12,24
648,774	12,12
649,229	12,06
649,684	11,94
650,139	11,85
650,593	11,82
651,047	11,64
651,502	11,75
651,956	11,63
652,41	11,5
652,864	11,41
653,318	11,55
653,772	11,31
654,225	11,18
654,679	11,28
655,133	11,27
655,586	11,04
656,039	11
656,492	10,98
656,946	11
657,399	10,84
657,851	10,74
658,304	10,78
658,757	10,66
659,209	10,54
659,662	10,36
660,114	10,34
660,567	10,23
661,019	10,11
661,471	10,02
661,923	9,85
662,375	9,78
662,826	9,82
663,278	9,54
663,73	9,59
664,181	9,58
664,632	9,4
665,084	9,42
665,535	9,33
665,986	9,26
666,437	9,17
666,888	9,19
667,338	9,1
667,789	9,27
668,24	9,12
668,69	9,04
669,14	9,2
669,591	9,07
670,041	9,26
670,491	9,18
670,941	9,18
671,391	9,33
671,84	9,31
672,29	9,4
672,74	9,46
673,189	9,53
673,638	9,56
674,088	9,76
674,537	9,85
674,986	9,72
675,435	9,86
675,883	10,03
676,332	10,19
676,781	10,26
677,229	10,34
677,678	10,42
678,126	10,8
678,574	10,88
679,022	10,94
679,47	11,24
679,918	11,4
680,366	11,43
680,814	11,68
681,261	11,65
681,709	11,93
682,156	12,06
682,604	12,35
683,051	12,45
683,498	12,53
683,945	12,64
684,392	12,96
684,839	13,17
685,286	13,24
685,732	13,38
686,179	13,74
686,625	13,9
687,071	14,08
687,518	14,54
687,964	14,74
688,41	14,96
688,856	15,28
689,301	15,93
689,747	15,99
690,193	16,68
690,638	17,03
691,084	17,5
691,529	18,1
691,974	18,75
692,419	19,19
692,864	19,88
693,309	20,45
693,754	20,91
694,199	21,81
694,643	22,52
695,088	23
695,532	23,82
695,977	24,5
696,421	25,27
696,865	25,91
697,309	26,48
697,753	27,11
698,197	27,78
698,64	28,67
699,084	29,23
699,527	30,15
699,971	30,53
700,414	31,2
700,857	32,05
701,3	32,76
701,743	33,58
702,186	34,13
702,629	34,66
703,072	35,4
703,515	35,49
703,957	36,23
704,399	36,81
704,842	37,46
705,284	38,14
705,726	38,58
706,168	38,81
706,61	39,65
707,052	39,82
707,494	40,65
707,935	41,06
708,377	41,77
708,818	42,31
709,26	42,14
709,701	43,03
710,142	43,48
710,583	43,8
711,024	44,25
711,465	44,98
711,905	45,26
712,346	45,4
712,787	45,48
713,227	46,36
713,667	46,61
714,108	47,52
714,548	47,52
714,988	48,22
715,428	48,83
715,868	48,81
716,307	49,21
716,747	49,03
717,186	49,43
717,626	50,08
718,065	50,61
718,504	50,71
718,944	51,12
719,383	50,88
719,822	51,4
720,261	51,53
720,699	52,08
721,138	51,88
721,576	52,75
722,015	53,09
722,453	52,99
722,892	53,29
723,33	54,07
723,768	54,65
724,206	54,42
724,644	54,3
725,081	54,7
725,519	54,61
725,957	54,84
726,394	55,48
726,832	55,32
727,269	55,41
727,706	55,41
728,143	55,67
728,58	56,53
729,017	55,99
729,454	56,25
729,89	56,48
730,327	56,37
730,764	56,87
731,2	56,8
731,636	57,02
732,072	57,28
732,509	57,5
732,945	57,24
733,38	57
733,816	58,17
734,252	57,37
734,688	57,61
735,123	58,03
735,559	57,65
735,994	57,59
736,429	58,11
736,864	57,94
737,299	57,9
737,734	58,29
738,169	57,82
738,604	58,18
739,038	58,02
739,473	58,09
739,907	58,15
740,342	58,25
740,776	58,48
741,21	58,34
741,644	58,71
742,078	58,49
742,512	58,2
742,946	58,52
743,379	58,09
743,813	58,09
744,246	58,35
744,68	57,97
745,113	57,94
745,546	58,06
745,979	58,14
746,412	57,95
746,845	57,96
747,278	58,18
747,711	57,92
748,143	57,92
748,576	58,71
749,008	58,29
749,441	57,82
749,873	57,35
750,305	57,96
750,737	57,72
751,169	57,68
751,601	57,66
752,032	57,37
752,464	57,59
752,896	57,3
753,327	57,68
753,758	57,51
754,19	57,42
754,621	56,97
755,052	57,29
755,483	57,3
755,914	57,4
756,344	57,18
756,775	57,27
757,206	56,97
757,636	57,25
758,066	57,29
758,497	56,96
758,927	57,62
759,357	57,04
759,787	57,02
760,217	56,87
760,647	56,82
761,076	56,44
761,506	56,61
761,935	56,64
762,365	56,59
762,794	56,35
763,223	56,98
763,653	56,74
764,082	56,29
764,51	56,41
764,939	56,55
765,368	56,3
765,797	56,31
766,225	56,28
766,654	56,12
767,082	55,73
767,51	56,26
767,938	55,96
768,367	55,94
768,795	55,8
769,222	56,35
769,65	56,37
770,078	55,87
770,505	56,15
770,933	55,94
771,36	56,34
771,788	55,8
772,215	55,71
772,642	55,6
773,069	56,05
773,496	55,62
773,923	55,56
774,349	55,72
774,776	55,48
775,203	55,28
775,629	55,64
776,055	55,17
776,482	55,33
776,908	55,03
777,334	55,04
777,76	55,37
778,186	55,73
778,611	55,98
779,037	55,41
779,463	55,2
779,888	55,29
780,314	55,3
780,739	55,43
781,164	55,39
781,589	55,05
782,014	55,1
782,439	55,39
782,864	55,35
783,289	55,44
783,713	55,06
784,138	55,36
784,562	55,1
784,987	54,89
785,411	54,95
785,835	54,87
786,259	55,05
786,683	55,2
787,107	54,97
787,531	55,13
787,954	55,04
788,378	55,05
788,802	55,14
789,225	54,54
789,648	55,14
790,071	54,43
790,495	55,07
790,918	55,08
791,34	54,94
791,763	54,91
792,186	54,68
792,609	54,67
793,031	54,75
793,454	54,66
793,876	55,1
794,298	54,5
794,721	54,65
795,143	55,23
795,565	54,54
795,986	54,43
796,408	54,65
796,83	54,64
797,252	54,95
797,673	55,1
798,094	55,05
798,516	54,89
798,937	55,1
799,358	54,51
799,779	54,24
800,2	54,81
800,621	54,5
801,042	54,51
801,462	54,62
801,883	54,4
802,303	54,39
802,724	54,44
803,144	54,88
803,564	54,4
803,984	55,06
804,404	54,64
804,824	54,7
805,244	54,8
805,664	54,93
806,084	55,06
806,503	54,54
806,923	54,48
807,342	54,41
807,761	54,37
808,18	54,66
808,599	54,43
809,018	54,32
809,437	54,83
809,856	54,18
810,275	54,56
810,693	54,58
811,112	54,85
811,53	54,74
811,949	54,68
812,367	54,75
812,785	54,5
813,203	54,55
813,621	54,65
814,039	54,3
814,457	54,27
814,874	54,09
815,292	54,14
815,709	54,17
816,127	54,51
816,544	54,56
816,961	54,41
817,378	55,15
817,795	54,7
818,212	54,51
818,629	54,8
819,046	54,26
819,462	54,4
819,879	54,33
820,295	54,18
820,712	54,58
821,128	54,35
821,544	54,44
821,96	54,5
822,376	54,04
822,792	54,27
823,208	54,48
823,624	54,66
824,039	54,18
824,455	54,57
824,87	53,92
825,286	54,35
825,701	54,62
826,116	53,94
826,531	54,63
826,946	53,88
827,361	54,21
827,776	54,11
828,19	54,33
828,605	53,8
829,02	54,09
829,434	54,21
829,848	54,06
830,263	54,42
830,677	53,72
