Data from G6__Relative__0__00132.txt Node

Date: Wed Jan 31 18:39:26 CET 2024
User: diatiterra
Spectrometer: HDX00911
Trigger mode: 0
Integration Time (sec): 6,000000E-3
Scans to average: 2
Nonlinearity correction enabled: false
Boxcar width: 0
Storing dark spectrum: false
XAxis mode: Wavelengths
Number of Pixels in Spectrum: 2068
>>>>>Begin Spectral Data<<<<<
194,468	267,92
195,025	173,64
195,581	254,88
196,138	247,44
196,694	169,75
197,251	143,43
197,807	117,32
198,363	121,6
198,919	111,72
199,474	116,54
200,03	116,8
200,586	141,52
201,141	102,9
201,696	109,4
202,251	111,74
202,806	110,49
203,361	126,3
203,916	111,11
204,471	118,98
205,025	131,45
205,58	118,57
206,134	120
206,688	120
207,242	135,4
207,796	116,92
208,35	123,91
208,904	112,76
209,457	104,17
210,011	113,83
210,564	110,21
211,117	117,29
211,67	115,3
212,223	114,04
212,776	127,02
213,329	105,67
213,881	142,16
214,434	109,21
214,986	133,88
215,538	125
216,09	108,1
216,642	137,6
217,194	121,21
217,746	124,44
218,297	124,43
218,849	123,53
219,4	142,02
219,951	119,76
220,502	119,26
221,053	127,86
221,604	109,06
222,155	119,05
222,705	112,13
223,256	126,87
223,806	119,29
224,356	124,62
224,906	130,65
225,456	131,01
226,006	119,05
226,556	102,92
227,106	131,85
227,655	102,08
228,204	120
228,754	114,79
229,303	111,07
229,852	116,55
230,401	114,55
230,949	119,06
231,498	111,97
232,047	110,71
232,595	113,45
233,143	129,53
233,691	118,6
234,239	108,93
234,787	126,8
235,335	118,28
235,883	115,03
236,43	110,98
236,978	129,62
237,525	118,61
238,072	115,96
238,619	120,08
239,166	115,96
239,713	115,33
240,26	112,86
240,806	118,4
241,353	123,41
241,899	108,74
242,445	120,07
242,991	131,3
243,537	111,74
244,083	126,34
244,629	119,62
245,174	128,32
245,72	120,74
246,265	111,9
246,81	123,6
247,355	128,97
247,9	112,31
248,445	118,25
248,99	118,56
249,534	143,91
250,079	121,8
250,623	111,48
251,168	132,23
251,712	126,17
252,256	131,15
252,8	119,23
253,343	115,36
253,887	125,81
254,43	119,08
254,974	122,14
255,517	109,25
256,06	129,23
256,603	107,41
257,146	127,52
257,689	122,05
258,232	133,9
258,774	120,21
259,317	127,54
259,859	122,48
260,401	129,46
260,943	113,48
261,485	113,12
262,027	134,8
262,569	122,39
263,11	117,69
263,652	130,31
264,193	126,03
264,734	121,9
265,275	129,92
265,816	124,81
266,357	122,87
266,898	114,23
267,438	133,86
267,979	114,75
268,519	115,67
269,059	150,93
269,6	127,82
270,14	134,68
270,68	126,09
271,219	136,86
271,759	115,79
272,298	123,31
272,838	125
273,377	126,59
273,916	116,91
274,455	115,33
274,994	122,4
275,533	115,22
276,072	122,36
276,61	107,25
277,149	130
277,687	115,41
278,225	106,67
278,763	143,42
279,301	130,83
279,839	127,02
280,377	129,1
280,914	112,59
281,452	129,91
281,989	125,21
282,526	114,96
283,064	134,45
283,601	113,18
284,137	118,6
284,674	125,42
285,211	141,67
285,747	123,11
286,284	142,34
286,82	127,27
287,356	104,93
287,892	120,16
288,428	127,69
288,964	141,18
289,5	132,64
290,035	122,4
290,571	131,93
291,106	127,24
291,641	134,82
292,176	124,61
292,711	123,17
293,246	117,31
293,781	130,99
294,315	112,68
294,85	146,76
295,384	121,31
295,918	115,07
296,453	104,1
296,987	126,03
297,52	123,14
298,054	111,07
298,588	127,08
299,121	115,67
299,655	117,52
300,188	128,33
300,721	121,54
301,254	123,39
301,787	125
302,32	128,05
302,853	118,4
303,385	122,14
303,918	118,99
304,45	123,08
304,982	110,64
305,514	125,58
306,046	116,12
306,578	118,22
307,11	122,48
307,641	127,59
308,173	121,9
308,704	122,31
309,236	121,8
309,767	111,7
310,298	113,71
310,829	135,22
311,359	113,71
311,89	122,27
312,421	131,08
312,951	126,83
313,481	110,34
314,012	114,18
314,542	132,2
315,072	122,9
315,601	118,8
316,131	126,38
316,661	120
317,19	112,59
317,72	127,69
318,249	130,56
318,778	123,44
319,307	116,02
319,836	128,76
320,365	120,87
320,893	125,21
321,422	128,86
321,95	131,58
322,479	124,81
323,007	135
323,535	115
324,063	127,6
324,591	126,4
325,118	118,98
325,646	134,87
326,173	120
326,701	126,83
327,228	131,03
327,755	114,66
328,282	126,34
328,809	125,85
329,336	119,69
329,862	113,6
330,389	121,48
330,915	122,05
331,441	117,56
331,968	139,19
332,494	118,94
333,02	126,67
333,545	116,42
334,071	136,36
334,597	106,69
335,122	115,93
335,648	136,21
336,173	111,74
336,698	104,43
337,223	112,87
337,748	111,46
338,272	109,25
338,797	118,84
339,322	106,93
339,846	109,93
340,37	128,63
340,894	109,03
341,419	111,65
341,942	109,79
342,466	99,68
342,99	105,37
343,514	108,45
344,037	100,63
344,56	115,19
345,084	109,25
345,607	107,29
346,13	107,04
346,653	107
347,175	100
347,698	99,37
348,221	112,14
348,743	97,52
349,265	102,16
349,787	102,45
350,309	101,9
350,831	91,98
351,353	92,99
351,875	90,64
352,397	110,14
352,918	104,93
353,439	109,6
353,961	87,21
354,482	96,49
355,003	95,35
355,524	92,5
356,044	90,34
356,565	103,01
357,086	89,27
357,606	84,34
358,126	85,64
358,646	79,59
359,167	92,7
359,687	91,24
360,206	86,34
360,726	73,22
361,246	91,22
361,765	91,53
362,285	80
362,804	82,89
363,323	76,1
363,842	92,03
364,361	76,62
364,88	83,5
365,398	76,2
365,917	77,59
366,435	87,24
366,954	75,67
367,472	77,36
367,99	82,23
368,508	69,84
369,026	83,18
369,544	76,1
370,061	72,48
370,579	69,88
371,096	83,72
371,613	72,2
372,131	64,96
372,648	70,08
373,165	70,7
373,681	68,35
374,198	73,44
374,715	72,56
375,231	68,75
375,747	62,76
376,264	68,54
376,78	66,91
377,296	67,84
377,812	65,61
378,327	62,91
378,843	67,24
379,359	65,23
379,874	67,99
380,389	59,46
380,905	56,57
381,42	55,02
381,935	58,38
382,449	59,73
382,964	56,86
383,479	54,31
383,993	55,68
384,508	55,91
385,022	53,76
385,536	52,37
386,05	52,89
386,564	50,75
387,078	49,04
387,592	49,39
388,105	52,01
388,619	48,33
389,132	47,75
389,645	51,15
390,158	46,89
390,671	48,68
391,184	44,84
391,697	41,98
392,21	41,89
392,722	43,95
393,235	42,87
393,747	47,08
394,259	41,85
394,771	39,76
395,283	41,58
395,795	39,46
396,307	41,31
396,818	41,05
397,33	37,24
397,841	38,14
398,353	35,95
398,864	37,56
399,375	37,65
399,886	35,77
400,397	34,3
400,907	34,27
401,418	32,02
401,928	31,51
402,439	32,72
402,949	28,12
403,459	29,23
403,969	30,7
404,479	29,13
404,989	28,72
405,498	26,44
406,008	26,52
406,517	25,63
407,027	22,25
407,536	23,49
408,045	23,41
408,554	22,49
409,063	20,84
409,572	20,84
410,08	19,28
410,589	20,17
411,097	19,56
411,606	17,77
412,114	18,54
412,622	17,85
413,13	17,12
413,638	16,82
414,145	15,75
414,653	16,38
415,16	14,8
415,668	15,38
416,175	14,04
416,682	14,32
417,189	13,62
417,696	13,53
418,203	13,22
418,71	12,57
419,216	12,09
419,723	12,17
420,229	12,29
420,735	11,8
421,242	12,3
421,748	12,54
422,254	11,79
422,759	11,19
423,265	11,9
423,771	10,89
424,276	11,46
424,781	10,71
425,287	11,45
425,792	11,15
426,297	10,8
426,802	10,91
427,306	10,75
427,811	10,61
428,316	10,48
428,82	10,06
429,324	10,46
429,829	10,17
430,333	9,99
430,837	9,78
431,34	10,23
431,844	9,4
432,348	9,77
432,851	9,26
433,355	9,49
433,858	9,51
434,361	9,56
434,864	9,1
435,367	9,42
435,87	9,73
436,373	9,28
436,876	9,31
437,378	9,17
437,88	9,38
438,383	9,38
438,885	9,04
439,387	9,34
439,889	9,11
440,391	9,36
440,892	9,42
441,394	9,17
441,896	9,04
442,397	8,98
442,898	9,21
443,399	8,88
443,9	9,07
444,401	8,83
444,902	8,9
445,403	8,78
445,903	8,79
446,404	9
446,904	8,9
447,405	9
447,905	8,62
448,405	8,94
448,905	9,01
449,404	8,99
449,904	9,06
450,404	9,04
450,903	9,31
451,403	9
451,902	8,96
452,401	9,4
452,9	9,19
453,399	8,89
453,898	8,98
454,396	9,08
454,895	8,97
455,393	9,08
455,892	9,21
456,39	9,38
456,888	9,26
457,386	9,31
457,884	9,49
458,382	9,72
458,879	9,01
459,377	9,68
459,874	8,87
460,372	9,36
460,869	9,26
461,366	9,02
461,863	9,04
462,36	9,51
462,857	9,14
463,353	9,19
463,85	8,93
464,346	8,9
464,843	9,23
465,339	9,21
465,835	9,55
466,331	9,3
466,827	8,94
467,323	8,94
467,818	9,39
468,314	9,23
468,809	9,2
469,305	8,79
469,8	9,22
470,295	8,6
470,79	9,3
471,285	9,23
471,78	8,63
472,274	8,93
472,769	8,84
473,263	8,82
473,758	8,98
474,252	8,99
474,746	9,21
475,24	9,05
475,734	9,05
476,228	9,36
476,721	9,18
477,215	8,73
477,708	9,21
478,202	8,92
478,695	9,31
479,188	9,03
479,681	9,01
480,174	9,13
480,667	8,85
481,159	9,24
481,652	9,24
482,144	9,01
482,637	9,15
483,129	8,85
483,621	9,29
484,113	9,47
484,605	9,51
485,097	9,57
485,588	9,5
486,08	9,31
486,571	9,43
487,063	9,06
487,554	9,73
488,045	9,36
488,536	9,42
489,027	9,6
489,518	9,65
490,008	9,42
490,499	9,37
490,989	9,69
491,48	9,87
491,97	9,47
492,46	9,81
492,95	10,16
493,44	10,13
493,93	10,32
494,419	10,19
494,909	10,27
495,398	10,41
495,888	10,76
496,377	10,61
496,866	11,21
497,355	10,95
497,844	11,17
498,333	11,3
498,821	11,11
499,31	11,25
499,798	11,68
500,287	11,74
500,775	12,15
501,263	12,21
501,751	12,4
502,239	12,48
502,727	12,65
503,215	12,86
503,702	13,06
504,19	12,95
504,677	13,57
505,164	13,63
505,651	14,29
506,139	14,36
506,625	14,31
507,112	15,04
507,599	15,63
508,086	15,43
508,572	15,91
509,058	15,77
509,545	16,22
510,031	16,51
510,517	16,76
511,003	17,08
511,489	17,42
511,974	18,02
512,46	18,19
512,946	18,55
513,431	19,11
513,916	19,18
514,401	19,86
514,887	19,93
515,371	20,63
515,856	21,33
516,341	21,47
516,826	21,2
517,31	22,19
517,795	22,95
518,279	23,02
518,763	23,81
519,247	23,63
519,731	24,63
520,215	24,61
520,699	24,74
521,182	25,45
521,666	25,98
522,149	26,9
522,633	27,06
523,116	26,65
523,599	28,11
524,082	27,74
524,565	28,51
525,048	28,84
525,53	28,77
526,013	29,25
526,495	29,99
526,978	29,82
527,46	30,59
527,942	30,31
528,424	30,94
528,906	30,63
529,388	31,3
529,87	31,92
530,351	31,6
530,833	32,86
531,314	32,66
531,795	32,61
532,277	33,45
532,758	33,25
533,238	33,17
533,719	33,56
534,2	32,78
534,681	33,78
535,161	33,61
535,642	34,05
536,122	33,86
536,602	34,4
537,082	34,1
537,562	34,67
538,042	34,53
538,522	34,37
539,001	34,48
539,481	34,57
539,96	34,7
540,44	34,74
540,919	34,67
541,398	34,57
541,877	35,2
542,356	34,97
542,835	34,75
543,313	35,13
543,792	35,21
544,27	35,39
544,749	35,33
545,227	35,73
545,705	35,47
546,183	35,81
546,661	35,46
547,139	35,58
547,616	35,23
548,094	35,66
548,571	35,79
549,049	35,8
549,526	35,94
550,003	35,81
550,48	35,69
550,957	35,67
551,434	35,74
551,911	36,03
552,387	35,96
552,864	36,14
553,34	36,16
553,817	35,98
554,293	36,25
554,769	35,7
555,245	35,94
555,721	36,38
556,197	35,94
556,672	36,03
557,148	36,02
557,623	35,94
558,099	36,23
558,574	36,16
559,049	35,15
559,524	36,02
559,999	35,67
560,474	35,34
560,948	35,32
561,423	35,47
561,897	35,44
562,372	35,87
562,846	35
563,32	34,91
563,794	34,75
564,268	34,89
564,742	34,45
565,216	34,4
565,69	34,03
566,163	34,15
566,636	34,09
567,11	33,35
567,583	33,25
568,056	33,14
568,529	33,13
569,002	32,99
569,475	33
569,947	32,21
570,42	32,48
570,892	31,83
571,365	31,61
571,837	31,77
572,309	31,65
572,781	31,12
573,253	31,16
573,725	30,75
574,197	30,63
574,668	30,46
575,14	29,88
575,611	29,84
576,082	29,29
576,554	29,19
577,025	29,28
577,496	28,76
577,967	28,81
578,437	28,46
578,908	28,47
579,379	28,64
579,849	28,28
580,319	28,03
580,79	27,73
581,26	27,62
581,73	27,26
582,2	27,5
582,669	27,18
583,139	27
583,609	26,67
584,078	27,08
584,548	26,77
585,017	26,46
585,486	26,34
585,955	26,23
586,424	26,07
586,893	25,89
587,362	25,93
587,83	25,71
588,299	25,67
588,767	25,76
589,236	25,79
589,704	25,48
590,172	25,14
590,64	25,27
591,108	24,98
591,576	25,01
592,043	24,92
592,511	25,05
592,978	24,77
593,446	24,54
593,913	24,65
594,38	24,53
594,847	24,5
595,314	24,49
595,781	24,48
596,248	24,23
596,715	24,27
597,181	24,34
597,647	24,05
598,114	24,37
598,58	23,64
599,046	24,15
599,512	24,09
599,978	24,17
600,444	23,84
600,91	23,74
601,375	23,8
601,841	23,69
602,306	23,61
602,771	23,32
603,236	23,58
603,702	23,54
604,167	23,42
604,631	23,16
605,096	23,19
605,561	23,03
606,025	22,82
606,49	23
606,954	23,14
607,418	22,84
607,882	22,72
608,347	22,45
608,81	22,38
609,274	22
609,738	22,22
610,202	22,04
610,665	21,78
611,128	21,83
611,592	21,32
612,055	21,57
612,518	21,21
612,981	21,35
613,444	21,02
613,907	20,91
614,369	20,94
614,832	20,69
615,294	20,7
615,757	20,48
616,219	20,82
616,681	20,02
617,143	20,31
617,605	19,99
618,067	20,05
618,529	19,89
618,99	19,73
619,452	19,5
619,913	19,59
620,375	19,6
620,836	19,72
621,297	19,71
621,758	19,35
622,219	19,11
622,68	19,16
623,14	19,11
623,601	18,92
624,061	19,12
624,522	18,98
624,982	18,89
625,442	18,99
625,902	18,7
626,362	18,98
626,822	18,74
627,282	18,94
627,742	18,7
628,201	18,7
628,661	18,8
629,12	18,76
629,579	18,79
630,038	18,61
630,497	18,78
630,956	18,55
631,415	18,39
631,874	18,38
632,332	18,43
632,791	18,22
633,249	18,22
633,708	18,35
634,166	18,01
634,624	17,99
635,082	18,04
635,54	17,9
635,998	17,7
636,455	17,85
636,913	17,4
637,37	17,35
637,828	17,29
638,285	17,12
638,742	16,85
639,199	16,82
639,656	16,59
640,113	16,36
640,57	16,3
641,027	16,02
641,483	16,04
641,94	15,71
642,396	15,6
642,852	15,6
643,309	15,11
643,765	15,02
644,221	14,95
644,676	14,57
645,132	14,52
645,588	14,51
646,043	14,16
646,499	13,97
646,954	13,71
647,409	13,77
647,864	13,68
648,319	13,34
648,774	13,27
649,229	13,11
649,684	12,98
650,139	13,02
650,593	12,8
651,047	12,85
651,502	12,85
651,956	12,55
652,41	12,33
652,864	12,31
653,318	12,46
653,772	12,39
654,225	12,25
654,679	12,17
655,133	12,33
655,586	11,93
656,039	11,91
656,492	11,83
656,946	11,77
657,399	11,77
657,851	11,67
658,304	11,53
658,757	11,56
659,209	11,24
659,662	11,38
660,114	11,15
660,567	10,9
661,019	10,98
661,471	10,82
661,923	10,58
662,375	10,5
662,826	10,46
663,278	10,27
663,73	10,15
664,181	10,02
664,632	9,95
665,084	10,21
665,535	9,89
665,986	10
666,437	9,77
666,888	9,78
667,338	9,64
667,789	9,89
668,24	9,68
668,69	9,63
669,14	9,79
669,591	9,7
670,041	9,72
670,491	9,77
670,941	9,67
671,391	9,71
671,84	9,89
672,29	9,77
672,74	9,82
673,189	9,88
673,638	10,05
674,088	10,19
674,537	10,26
674,986	10,38
675,435	10,37
675,883	10,62
676,332	10,59
676,781	10,83
677,229	10,88
677,678	11,07
678,126	11,17
678,574	11,47
679,022	11,51
679,47	11,72
679,918	11,73
680,366	11,95
680,814	12,07
681,261	12,18
681,709	12,45
682,156	12,65
682,604	12,89
683,051	13,1
683,498	13,28
683,945	13,37
684,392	13,48
684,839	13,75
685,286	14,06
685,732	14,11
686,179	14,39
686,625	14,81
687,071	14,91
687,518	15,18
687,964	15,67
688,41	15,88
688,856	16,27
689,301	16,76
689,747	17,29
690,193	17,82
690,638	18,33
691,084	18,72
691,529	19,39
691,974	20
692,419	20,62
692,864	21,41
693,309	21,92
693,754	22,67
694,199	23,37
694,643	23,99
695,088	24,77
695,532	25,6
695,977	26,42
696,421	27,09
696,865	27,6
697,309	28,26
697,753	29,3
698,197	30,03
698,64	30,56
699,084	31,31
699,527	31,96
699,971	32,45
700,414	33,27
700,857	33,94
701,3	34,66
701,743	35,28
702,186	35,8
702,629	36,71
703,072	37,04
703,515	37,27
703,957	38,06
704,399	38,78
704,842	39,08
705,284	39,68
705,726	40,46
706,168	40,63
706,61	41,37
707,052	41,52
707,494	42,11
707,935	42,56
708,377	43,11
708,818	43,5
709,26	43,67
709,701	44,3
710,142	44,89
710,583	45,16
711,024	45,41
711,465	45,76
711,905	46,28
712,346	46,09
712,787	46,44
713,227	47,43
713,667	47,71
714,108	48
714,548	48,04
714,988	48,59
715,428	49,25
715,868	49,47
716,307	49,52
716,747	49,5
717,186	50,13
717,626	50,19
718,065	50,97
718,504	50,82
718,944	51,36
719,383	51,55
719,822	51,83
720,261	51,72
720,699	52,29
721,138	52,13
721,576	52,69
722,015	52,93
722,453	52,84
722,892	53,31
723,33	53,64
723,768	54,13
724,206	53,88
724,644	54
725,081	54,16
725,519	54,33
725,957	54,15
726,394	54,69
726,832	54,52
727,269	54,86
727,706	54,96
728,143	54,94
728,58	55,26
729,017	54,96
729,454	55,33
729,89	55,62
730,327	55,38
730,764	55,93
731,2	55,64
731,636	55,65
732,072	56,02
732,509	56,15
732,945	56,39
733,38	56,02
733,816	56,57
734,252	56,51
734,688	56,63
735,123	56,21
735,559	56,85
735,994	56,59
736,429	56,78
736,864	57,35
737,299	56,96
737,734	57,25
738,169	56,93
738,604	56,8
739,038	56,82
739,473	56,9
739,907	56,94
740,342	57,06
740,776	57,12
741,21	56,63
741,644	57,04
742,078	57,07
742,512	56,9
742,946	57,36
743,379	56,73
743,813	56,96
744,246	56,83
744,68	56,86
745,113	56,43
745,546	56,65
745,979	57,1
746,412	56,39
746,845	56,82
747,278	56,74
747,711	56,31
748,143	56,64
748,576	56,91
749,008	56,53
749,441	56,28
749,873	56,05
750,305	56,28
750,737	56,2
751,169	55,97
751,601	56,13
752,032	56,37
752,464	55,96
752,896	55,89
753,327	55,87
753,758	55,45
754,19	56,01
754,621	55,54
755,052	55,84
755,483	56,14
755,914	55,99
756,344	55,72
756,775	55,89
757,206	55,78
757,636	55,55
758,066	55,73
758,497	55,5
758,927	56,06
759,357	55,88
759,787	55,48
760,217	55,36
760,647	55,21
761,076	55,31
761,506	55,01
761,935	55,03
762,365	55,39
762,794	54,88
763,223	55,29
763,653	55,2
764,082	54,75
764,51	55,35
764,939	54,86
765,368	54,86
765,797	54,73
766,225	54,9
766,654	54,55
767,082	54,47
767,51	54,71
767,938	54,59
768,367	54,38
768,795	54,4
769,222	54,82
769,65	54,87
770,078	54,6
770,505	54,48
770,933	54,69
771,36	54,84
771,788	54,09
772,215	54,29
772,642	54,46
773,069	54,34
773,496	53,96
773,923	54,06
774,349	54,11
774,776	54,17
775,203	53,97
775,629	54,19
776,055	53,98
776,482	53,99
776,908	53,9
777,334	53,91
777,76	54,02
778,186	53,92
778,611	54,27
779,037	54,12
779,463	53,95
779,888	53,97
780,314	53,76
780,739	54,01
781,164	54,11
781,589	53,73
782,014	54
782,439	53,69
782,864	53,88
783,289	54,01
783,713	53,32
784,138	53,71
784,562	53,56
784,987	53,65
785,411	53,37
785,835	53,26
786,259	53,7
786,683	54,1
787,107	53,38
787,531	53,44
787,954	53,83
788,378	53,48
788,802	53,76
789,225	53,42
789,648	53,73
790,071	52,88
790,495	53,5
790,918	53,94
791,34	53,54
791,763	53,21
792,186	53,31
792,609	53,39
793,031	53,17
793,454	53,61
793,876	53,9
794,298	53,51
794,721	53,2
795,143	53,31
795,565	53,04
795,986	53,16
796,408	53,18
796,83	53,02
797,252	53,35
797,673	53,71
798,094	53,61
798,516	53,57
798,937	53,57
799,358	52,75
799,779	53,23
800,2	53,33
800,621	53,11
801,042	53,24
801,462	53,18
801,883	53,29
802,303	52,77
802,724	53,3
803,144	53,31
803,564	53,44
803,984	53,27
804,404	53,66
804,824	53,26
805,244	53,54
805,664	53,57
806,084	53,24
806,503	53,18
806,923	53,03
807,342	52,98
807,761	52,93
808,18	53,14
808,599	52,9
809,018	53,32
809,437	53,32
809,856	53,06
810,275	53,25
810,693	53,14
811,112	53,38
811,53	53,41
811,949	53,22
812,367	53,31
812,785	53,17
813,203	52,99
813,621	53,05
814,039	52,93
814,457	53,15
814,874	52,82
815,292	52,92
815,709	53,01
816,127	53,25
816,544	53,32
816,961	53,22
817,378	53,56
817,795	53,42
818,212	53,37
818,629	53,67
819,046	52,89
819,462	52,98
819,879	52,91
820,295	53,03
820,712	52,8
821,128	52,68
821,544	52,97
821,96	52,83
822,376	52,91
822,792	53
823,208	53,1
823,624	53,4
824,039	53,14
824,455	53,23
824,87	52,67
825,286	53,09
825,701	52,83
826,116	52,7
826,531	53,06
826,946	52,63
827,361	52,52
827,776	52,87
828,19	52,59
828,605	52,4
829,02	52,7
829,434	52,85
829,848	52,74
830,263	53,1
830,677	52,82
831,091	52,68
