Data from G6__Relative__2__00134.txt Node

Date: Wed Jan 31 18:39:34 CET 2024
User: diatiterra
Spectrometer: HDX00911
Trigger mode: 0
Integration Time (sec): 6,000000E-3
Scans to average: 2
Nonlinearity correction enabled: false
Boxcar width: 0
Storing dark spectrum: false
XAxis mode: Wavelengths
Number of Pixels in Spectrum: 2068
>>>>>Begin Spectral Data<<<<<
194,468	267,92
195,025	190
195,581	260,98
196,138	244,87
196,694	185,19
197,251	144,95
197,807	122,44
198,363	124
198,919	111,38
199,474	112,5
200,03	127,87
200,586	132,14
201,141	105,48
201,696	108,39
202,251	117,8
202,806	112,59
203,361	117,04
203,916	112,85
204,471	117,52
205,025	131,05
205,58	112,86
206,134	126,4
206,688	111,15
207,242	136,73
207,796	108,65
208,35	123,91
208,904	115,86
209,457	96,88
210,011	106,38
210,564	107,39
211,117	110,15
211,67	115,67
212,223	115,41
212,776	118,95
213,329	109
213,881	153,92
214,434	107,57
214,986	126,45
215,538	118,38
216,09	104,23
216,642	124,79
217,194	127,27
217,746	115,41
218,297	113,36
218,849	123,53
219,4	128,15
219,951	125
220,502	116,89
221,053	119,47
221,604	116,78
222,155	125
222,705	109,93
223,256	126,49
223,806	125,98
224,356	114,23
224,906	122,58
225,456	123,26
226,006	114,68
226,556	97,4
227,106	125,81
227,655	113,89
228,204	122,92
228,754	113,73
229,303	106,43
229,852	108,99
230,401	120,15
230,949	119,42
231,498	104,58
232,047	104,87
232,595	116,21
233,143	118,9
233,691	118,99
234,239	112,14
234,787	118,4
235,335	116,79
235,883	110,84
236,43	124,24
236,978	119,23
237,525	117,88
238,072	115,25
238,619	115,53
239,166	103,55
239,713	108,03
240,26	107,5
240,806	111,46
241,353	127,38
241,899	112,94
242,445	114,6
242,991	116,41
243,537	113,64
244,083	126,72
244,629	119,62
245,174	135,4
245,72	111,85
246,265	107,14
246,81	121,6
247,355	124,21
247,9	105,22
248,445	122,22
248,99	114,39
249,534	142,17
250,079	119,55
250,623	116,3
251,168	133,88
251,712	116,02
252,256	118,85
252,8	134,23
253,343	120
253,887	113,71
254,43	120,99
254,974	119,08
255,517	113,36
256,06	126,92
256,603	113,33
257,146	127,52
257,689	132,28
258,232	135,59
258,774	124,47
259,317	133,05
259,859	133,03
260,401	126,74
260,943	112,06
261,485	119,15
262,027	130,8
262,569	120,15
263,11	116,54
263,652	140,16
264,193	127,27
264,734	117,15
265,275	125,82
265,816	111,83
266,357	121,71
266,898	126,15
267,438	124,8
267,979	108,63
268,519	114,18
269,059	148,6
269,6	118,8
270,14	136,69
270,68	121,74
271,219	131,36
271,759	113,16
272,298	120,68
272,838	131,15
273,377	126,98
273,916	111,87
274,455	120,07
274,994	117,6
275,533	117,03
276,072	125,61
276,61	113,04
277,149	128,33
277,687	118,8
278,225	106,67
278,763	144,3
279,301	122,5
279,839	125,4
280,377	129,92
280,914	108,74
281,452	137,18
281,989	125,62
282,526	117,32
283,064	139,08
283,601	108,78
284,137	123,14
284,674	137,08
285,211	133,77
285,747	114,02
286,284	146,4
286,82	127,69
287,356	104,28
287,892	125,97
288,428	133,06
288,964	141,18
289,5	133,47
290,035	127,2
290,571	134,45
291,106	126,42
291,641	137,5
292,176	122,66
292,711	133,74
293,246	113,08
293,781	127,69
294,315	102,11
294,85	137,5
295,384	121,31
295,918	120,59
296,453	109,7
296,987	123,55
297,52	121,07
298,054	120,61
298,588	126,67
299,121	111,57
299,655	119,34
300,188	124,17
300,721	121,95
301,254	116,94
301,787	126,95
302,32	127,24
302,853	122,4
303,385	115,71
303,918	115,89
304,45	124,23
304,982	107,8
305,514	121,71
306,046	122,73
306,578	108,14
307,11	125,19
307,641	131,47
308,173	121,9
308,704	116,94
309,236	114,66
309,767	112,77
310,298	125
310,829	134,78
311,359	122,98
311,89	126,89
312,421	121,62
312,951	134,55
313,481	108,97
314,012	119,78
314,542	125,85
315,072	122,52
315,601	138,4
316,131	125,59
316,661	122,92
317,19	108,15
317,72	129,34
318,249	129,76
318,778	121,88
319,307	121,09
319,836	131,42
320,365	131,3
320,893	126,86
321,422	128,46
321,95	128,57
322,479	117,56
323,007	133,18
323,535	118,21
324,063	118,8
324,591	123,6
325,118	119,34
325,646	125,63
326,173	118,33
326,701	126,42
327,228	134,91
327,755	115,79
328,282	115,27
328,809	127,54
329,336	116,93
329,862	119,12
330,389	109,38
330,915	122,05
331,441	114,89
331,968	130,18
332,494	115,15
333,02	110
333,545	105,22
334,071	136,36
334,597	107,04
335,122	113,7
335,648	121,12
336,173	110,23
336,698	100
337,223	107,35
337,748	115,28
338,272	104,45
338,797	113,41
339,322	100,73
339,846	98,16
340,37	114,92
340,894	105,9
341,419	111,28
341,942	102,45
342,466	100,32
342,99	98,99
343,514	104,93
344,037	92,41
344,56	120,37
345,084	101,37
345,607	111,11
346,13	104,58
346,653	106,67
347,175	97,12
347,698	87,74
348,221	106,43
348,743	99,07
349,265	104,68
349,787	91,72
350,309	95,25
350,831	89,81
351,353	95,73
351,875	93,57
352,397	98,6
352,918	101,97
353,439	102,98
353,961	84,01
354,482	92,69
355,003	92,44
355,524	88,33
356,044	84,38
356,565	94,88
357,086	90,4
357,606	78,57
358,126	83,78
358,646	76,79
359,167	86,49
359,687	83,9
360,206	84,43
360,726	77,01
361,246	84,04
361,765	88,7
362,285	76,25
362,804	81,84
363,323	69,27
363,842	82,42
364,361	72,14
364,88	75,12
365,398	76,42
365,917	71,23
366,435	87,24
366,954	75,89
367,472	71,23
367,99	79,86
368,508	71,26
369,026	80
369,544	79,82
370,061	68,91
370,579	69,26
371,096	81,42
371,613	73,49
372,131	70,08
372,648	71,85
373,165	68,16
373,681	68,57
374,198	76,56
374,715	63,91
375,231	65,15
375,747	64,66
376,264	58,84
376,78	64,57
377,296	66,73
377,812	59,14
378,327	62,25
378,843	61,77
379,359	61,59
379,874	62,63
380,389	61,36
380,905	56,72
381,42	58,51
381,935	56,86
382,449	59,14
382,964	53
383,479	53,59
383,993	52,63
384,508	55,77
385,022	51,17
385,536	54,34
386,05	54,59
386,564	49,5
387,078	47,85
387,592	48,42
388,105	49,76
388,619	44,42
389,132	46,29
389,645	48,28
390,158	44,64
390,671	46,64
391,184	42,41
391,697	43,99
392,21	40,26
392,722	41,67
393,235	44,18
393,747	41,63
394,259	38,39
394,771	40,95
395,283	39,65
395,795	40,02
396,307	41,21
396,818	38,86
397,33	35,8
397,841	36,73
398,353	36,29
398,864	34,33
399,375	36,23
399,886	34,7
400,397	33,79
400,907	33,59
401,418	31,95
401,928	30,14
402,439	30,96
402,949	27
403,459	28,57
403,969	30,32
404,479	26,89
404,989	27,78
405,498	26,88
406,008	28,21
406,517	24,74
407,027	21,28
407,536	22,37
408,045	23,11
408,554	21,98
409,063	20,8
409,572	20,36
410,08	19,23
410,589	18,49
411,097	18,59
411,606	17,7
412,114	17,08
412,622	17,88
413,13	17,52
413,638	15,82
414,145	14,69
414,653	15,47
415,16	14,32
415,668	15,3
416,175	13,44
416,682	13,55
417,189	13,15
417,696	12,91
418,203	13,22
418,71	11,99
419,216	12,46
419,723	12,17
420,229	11,71
420,735	11,06
421,242	11,83
421,748	11,97
422,254	11,25
422,759	10,87
423,265	11,41
423,771	10,42
424,276	10,97
424,781	10,69
425,287	10,39
425,792	10,56
426,297	10,29
426,802	10,23
427,306	10,19
427,811	10,31
428,316	10,34
428,82	9,93
429,324	9,71
429,829	9,74
430,333	9,43
430,837	9,31
431,34	9,08
431,844	9,27
432,348	9,22
432,851	8,71
433,355	8,85
433,858	9,09
434,361	8,94
434,864	9,33
435,367	9,12
435,87	9,64
436,373	9,12
436,876	8,96
437,378	8,81
437,88	8,56
438,383	8,43
438,885	8,46
439,387	8,54
439,889	8,64
440,391	8,61
440,892	8,56
441,394	9,05
441,896	9,02
442,397	8,93
442,898	8,31
443,399	8,57
443,9	8,22
444,401	8,55
444,902	8,79
445,403	8,48
445,903	8,73
446,404	8,64
446,904	8,85
447,405	8,2
447,905	8,62
448,405	8,26
448,905	8,67
449,404	9,15
449,904	8,64
450,404	8,34
450,903	8,88
451,403	8,75
451,902	8,81
452,401	9,08
452,9	8,67
453,399	8,53
453,898	8,97
454,396	8,45
454,895	8,43
455,393	8,83
455,892	9,07
456,39	8,86
456,888	8,97
457,386	8,58
457,884	8,71
458,382	9,07
458,879	8,88
459,377	9,1
459,874	8,65
460,372	8,66
460,869	8,62
461,366	8,96
461,863	8,77
462,36	8,89
462,857	8,95
463,353	8,74
463,85	8,82
464,346	8,42
464,843	8,74
465,339	8,93
465,835	8,82
466,331	9,01
466,827	8,95
467,323	8,54
467,818	8,91
468,314	8,83
468,809	8,75
469,305	8,53
469,8	8,78
470,295	8,71
470,79	8,7
471,285	8,82
471,78	8,45
472,274	8,58
472,769	8,63
473,263	8,52
473,758	8,44
474,252	8,75
474,746	8,73
475,24	8,7
475,734	8,8
476,228	8,83
476,721	8,58
477,215	8,72
477,708	8,68
478,202	8,9
478,695	8,92
479,188	8,7
479,681	8,75
480,174	8,66
480,667	8,8
481,159	8,71
481,652	8,92
482,144	8,87
482,637	9,03
483,129	8,84
483,621	8,87
484,113	9,1
484,605	9,04
485,097	9,05
485,588	8,84
486,08	8,65
486,571	9,23
487,063	8,95
487,554	9,22
488,045	9,1
488,536	8,98
489,027	9,02
489,518	9,22
490,008	9,13
490,499	9,21
490,989	9,35
491,48	9,44
491,97	9,02
492,46	9,47
492,95	9,65
493,44	9,69
493,93	9,79
494,419	9,72
494,909	9,9
495,398	9,97
495,888	10,03
496,377	9,97
496,866	10,28
497,355	10,27
497,844	10,47
498,333	10,77
498,821	10,67
499,31	10,8
499,798	11,33
500,287	11,26
500,775	11,46
501,263	11,57
501,751	11,61
502,239	11,91
502,727	11,89
503,215	12,24
503,702	12,52
504,19	12,52
504,677	13,1
505,164	13,34
505,651	13,61
506,139	13,48
506,625	13,68
507,112	14,34
507,599	14,43
508,086	14,43
508,572	15,16
509,058	15,46
509,545	15,51
510,031	15,79
510,517	16,55
511,003	16,16
511,489	16,71
511,974	16,99
512,46	17,29
512,946	17,13
513,431	17,92
513,916	18,49
514,401	18,98
514,887	19,03
515,371	19,77
515,856	20,24
516,341	20,1
516,826	20,52
517,31	20,78
517,795	21,15
518,279	21,71
518,763	22,51
519,247	22,94
519,731	23,4
520,215	23,82
520,699	24,15
521,182	24,06
521,666	24,76
522,149	24,74
522,633	25,95
523,116	26
523,599	26,25
524,082	26,46
524,565	26,91
525,048	27,33
525,53	27,62
526,013	28,11
526,495	29,03
526,978	28,85
527,46	29,31
527,942	28,55
528,424	29,92
528,906	29,57
529,388	29,92
529,87	30,97
530,351	30,16
530,833	31,04
531,314	31,13
531,795	31,01
532,277	31,55
532,758	31,81
533,238	32,08
533,719	31,86
534,2	31,49
534,681	32,65
535,161	32,49
535,642	32,45
536,122	32,49
536,602	32,62
537,082	32,96
537,562	32,64
538,042	33,11
538,522	33,09
539,001	33,29
539,481	33,44
539,96	33,03
540,44	33,01
540,919	34,24
541,398	33,3
541,877	33,8
542,356	33,67
542,835	33,08
543,313	33,64
543,792	33,44
544,27	33,68
544,749	34,19
545,227	34,23
545,705	34
546,183	34,68
546,661	34,08
547,139	33,9
547,616	34,12
548,094	33,89
548,571	34,26
549,049	34,58
549,526	34,32
550,003	34,88
550,48	34,52
550,957	34,72
551,434	34,03
551,911	34,65
552,387	34,29
552,864	34,35
553,34	34,6
553,817	34,44
554,293	34,54
554,769	34,39
555,245	33,97
555,721	34,17
556,197	34,48
556,672	34,25
557,148	34,61
557,623	34,62
558,099	34,65
558,574	34,77
559,049	33,67
559,524	34,29
559,999	34,19
560,474	33,96
560,948	33,89
561,423	33,91
561,897	33,85
562,372	33,51
562,846	33,76
563,32	33,27
563,794	33,44
564,268	33,4
564,742	33,03
565,216	32,68
565,69	32,51
566,163	32,42
566,636	32,49
567,11	31,99
567,583	31,99
568,056	31,79
568,529	31,58
569,002	31,51
569,475	31,11
569,947	31,11
570,42	31,2
570,892	30,93
571,365	30,08
571,837	30,16
572,309	30,06
572,781	29,72
573,253	30,06
573,725	29,5
574,197	29,06
574,668	29,24
575,14	28,63
575,611	28,51
576,082	27,98
576,554	27,65
577,025	28,05
577,496	27,66
577,967	27,22
578,437	27,5
578,908	27,13
579,379	26,95
579,849	26,73
580,319	26,87
580,79	26,37
581,26	26,17
581,73	26,05
582,2	25,83
582,669	25,45
583,139	26,02
583,609	25,36
584,078	25,77
584,548	25,41
585,017	25,67
585,486	25,01
585,955	25
586,424	24,74
586,893	24,79
587,362	24,49
587,83	24,47
588,299	24,6
588,767	24,14
589,236	24,09
589,704	24,23
590,172	23,88
590,64	23,82
591,108	23,78
591,576	23,75
592,043	23,72
592,511	23,59
592,978	23,59
593,446	23,34
593,913	23,22
594,38	23,01
594,847	23,18
595,314	23,2
595,781	23,27
596,248	22,94
596,715	23
597,181	22,93
597,647	22,72
598,114	22,94
598,58	22,89
599,046	22,8
599,512	22,62
599,978	22,75
600,444	22,47
600,91	22,46
601,375	22,43
601,841	22,66
602,306	22,21
602,771	22,13
603,236	22,38
603,702	22,56
604,167	22,24
604,631	22,14
605,096	21,98
605,561	21,82
606,025	21,71
606,49	21,66
606,954	21,48
607,418	21,48
607,882	21,48
608,347	21,18
608,81	21,08
609,274	21,07
609,738	20,95
610,202	21,06
610,665	20,87
611,128	20,63
611,592	20,47
612,055	20,31
612,518	20,12
612,981	20,36
613,444	20,17
613,907	19,64
614,369	19,73
614,832	19,73
615,294	19,57
615,757	19,47
616,219	19,49
616,681	19,02
617,143	19,19
617,605	19,07
618,067	18,79
618,529	18,7
618,99	18,47
619,452	18,34
619,913	18,27
620,375	18,31
620,836	18,42
621,297	18,37
621,758	18,34
622,219	18,09
622,68	18,2
623,14	17,85
623,601	18,2
624,061	18
624,522	17,95
624,982	18,14
625,442	18,05
625,902	17,85
626,362	17,79
626,822	17,9
627,282	17,73
627,742	17,87
628,201	17,67
628,661	17,71
629,12	17,69
629,579	17,59
630,038	17,91
630,497	17,61
630,956	17,48
631,415	17,47
631,874	17,34
632,332	17,33
632,791	17,28
633,249	17,29
633,708	17,27
634,166	17,07
634,624	17,18
635,082	17,05
635,54	16,95
635,998	16,75
636,455	16,82
636,913	16,75
637,37	16,4
637,828	16,26
638,285	16,25
638,742	16,02
639,199	15,95
639,656	15,59
640,113	15,67
640,57	15,29
641,027	15,1
641,483	15,16
641,94	15,12
642,396	14,94
642,852	14,65
643,309	14,48
643,765	14,17
644,221	14,1
644,676	13,83
645,132	13,79
645,588	13,54
646,043	13,19
646,499	13,24
646,954	12,89
647,409	12,89
647,864	12,75
648,319	12,54
648,774	12,36
649,229	12,3
649,684	12,37
650,139	12,23
650,593	11,86
651,047	11,99
651,502	11,91
651,956	11,89
652,41	11,91
652,864	11,76
653,318	11,76
653,772	11,56
654,225	11,44
654,679	11,52
655,133	11,49
655,586	11,39
656,039	11,25
656,492	11,3
656,946	11,17
657,399	10,91
657,851	10,98
658,304	10,87
658,757	10,86
659,209	10,66
659,662	10,47
660,114	10,49
660,567	10,37
661,019	10,21
661,471	10,07
661,923	9,95
662,375	9,95
662,826	9,89
663,278	9,82
663,73	9,62
664,181	9,62
664,632	9,57
665,084	9,71
665,535	9,49
665,986	9,29
666,437	9,32
666,888	9,19
667,338	9,19
667,789	9,34
668,24	9,32
668,69	9,22
669,14	9,16
669,591	9,17
670,041	9,24
670,491	9,14
670,941	9,28
671,391	9,36
671,84	9,44
672,29	9,3
672,74	9,51
673,189	9,58
673,638	9,6
674,088	9,72
674,537	9,71
674,986	9,77
675,435	9,87
675,883	9,89
676,332	10,1
676,781	10,21
677,229	10,35
677,678	10,53
678,126	10,57
678,574	10,82
679,022	10,9
679,47	11,06
679,918	11,29
680,366	11,16
680,814	11,48
681,261	11,61
681,709	11,64
682,156	11,97
682,604	12,2
683,051	12,38
683,498	12,55
683,945	12,59
684,392	12,72
684,839	13,09
685,286	13,17
685,732	13,25
686,179	13,61
686,625	13,89
687,071	14,15
687,518	14,45
687,964	14,61
688,41	15,03
688,856	15,47
689,301	15,98
689,747	16,46
690,193	16,63
690,638	17,08
691,084	17,66
691,529	18,23
691,974	18,97
692,419	19,49
692,864	20,2
693,309	20,82
693,754	21,58
694,199	22,34
694,643	22,85
695,088	23,64
695,532	24,19
695,977	25
696,421	25,79
696,865	26,28
697,309	27,18
697,753	27,85
698,197	28,6
698,64	29,11
699,084	29,92
699,527	30,49
699,971	31,32
700,414	31,82
700,857	32,57
701,3	33
701,743	33,89
702,186	34,61
702,629	35,1
703,072	35,84
703,515	35,97
703,957	36,52
704,399	37,23
704,842	37,82
705,284	38,42
705,726	38,75
706,168	39,27
706,61	40,01
707,052	39,92
707,494	41,01
707,935	41,35
708,377	41,68
708,818	42,02
709,26	42,49
709,701	42,74
710,142	43,42
710,583	43,48
711,024	43,86
711,465	44,51
711,905	44,82
712,346	45
712,787	45,23
713,227	45,97
713,667	45,92
714,108	46,32
714,548	46,79
714,988	47,18
715,428	47,75
715,868	48,29
716,307	48,09
716,747	48,28
717,186	48,56
717,626	48,94
718,065	49,44
718,504	49,39
718,944	49,71
719,383	50,06
719,822	50,26
720,261	50,25
720,699	50,83
721,138	50,58
721,576	50,95
722,015	51,31
722,453	51,54
722,892	51,77
723,33	52,16
723,768	52,57
724,206	52,59
724,644	52,58
725,081	52,79
725,519	53
725,957	52,76
726,394	53,32
726,832	53,13
727,269	53,36
727,706	53,61
728,143	53,54
728,58	54,13
729,017	53,71
729,454	54,03
729,89	54,37
730,327	54,03
730,764	54,62
731,2	54,27
731,636	54,87
732,072	54,83
732,509	54,72
732,945	54,9
733,38	54,8
733,816	55,04
734,252	54,86
734,688	55,14
735,123	55,06
735,559	55,19
735,994	55,08
736,429	55,41
736,864	55,63
737,299	55,65
737,734	55,88
738,169	55,23
738,604	55,54
739,038	55,22
739,473	55,4
739,907	55,39
740,342	55,37
740,776	55,47
741,21	55,63
741,644	56,09
742,078	55,76
742,512	55,33
742,946	55,93
743,379	55,29
743,813	55,2
744,246	55,41
744,68	55,6
745,113	55,14
745,546	55,19
745,979	55,69
746,412	55,14
746,845	55,07
747,278	55,35
747,711	55
748,143	55,23
748,576	55,7
749,008	55,41
749,441	54,8
749,873	54,95
750,305	55,2
750,737	55
751,169	54,99
751,601	54,63
752,032	54,81
752,464	54,82
752,896	54,61
753,327	54,6
753,758	54,67
754,19	54,62
754,621	54,49
755,052	54,39
755,483	54,31
755,914	54,48
756,344	54,57
756,775	54,55
757,206	54,37
757,636	54,74
758,066	54,17
758,497	54,24
758,927	54,49
759,357	54,4
759,787	54,26
760,217	54,12
760,647	54,14
761,076	53,95
761,506	53,78
761,935	53,8
762,365	54,14
762,794	53,62
763,223	53,93
763,653	54,13
764,082	53,47
764,51	53,67
764,939	53,74
765,368	53,45
765,797	53,68
766,225	53,29
766,654	53,51
767,082	53,05
767,51	53,56
767,938	53,17
768,367	53,09
768,795	52,99
769,222	53,58
769,65	53,73
770,078	52,99
770,505	53,5
770,933	53,39
771,36	53,33
771,788	52,99
772,215	53,19
772,642	53,32
773,069	53,04
773,496	52,95
773,923	52,76
774,349	52,82
774,776	53,22
775,203	52,94
775,629	52,99
776,055	52,45
776,482	52,83
776,908	52,77
777,334	52,54
777,76	52,89
778,186	52,53
778,611	52,89
779,037	52,8
779,463	52,53
779,888	52,68
780,314	52,57
780,739	52,72
781,164	52,88
781,589	52,27
782,014	52,46
782,439	52,42
782,864	52,81
783,289	52,62
783,713	52,31
784,138	52,33
784,562	52,09
784,987	52,29
785,411	52,51
785,835	52,03
786,259	52,22
786,683	52,72
787,107	52,12
787,531	52,51
787,954	52,39
788,378	52,35
788,802	52,31
789,225	52,05
789,648	52,65
790,071	51,69
790,495	52,56
790,918	52,36
791,34	52,44
791,763	52,08
792,186	52,08
792,609	52,37
793,031	52,06
793,454	52,19
793,876	52,31
794,298	52,33
794,721	51,7
795,143	52,38
795,565	51,89
795,986	51,85
796,408	51,92
796,83	52,04
797,252	51,95
797,673	52,16
798,094	52,47
798,516	52,48
798,937	52,26
799,358	51,83
799,779	51,96
800,2	52,06
800,621	52,11
801,042	51,62
801,462	52,08
801,883	51,72
802,303	51,75
802,724	52,13
803,144	51,53
803,564	52,01
803,984	52,24
804,404	52,28
804,824	52,05
805,244	52,12
805,664	52,34
806,084	52,27
806,503	52,31
806,923	52
807,342	51,75
807,761	51,45
808,18	51,63
808,599	51,62
809,018	51,81
809,437	51,88
809,856	51,76
810,275	52,39
810,693	51,89
811,112	52,55
811,53	52,18
811,949	51,87
812,367	52,37
812,785	52,12
813,203	51,89
813,621	51,91
814,039	51,93
814,457	51,86
814,874	51,61
815,292	51,9
815,709	51,91
816,127	52,02
816,544	51,94
816,961	51,55
817,378	52,24
817,795	52,11
818,212	52
818,629	52,19
819,046	51,58
819,462	51,79
819,879	51,61
820,295	51,66
820,712	51,78
821,128	51,59
821,544	51,93
821,96	51,75
822,376	51,92
822,792	51,38
823,208	51,9
823,624	51,87
824,039	51,81
824,455	51,81
824,87	51,54
825,286	51,57
825,701	51,81
826,116	51,77
826,531	51,68
826,946	51,56
827,361	51,59
827,776	51,49
828,19	51,49
828,605	51,22
829,02	51,64
829,434	51,53
829,848	51,76
830,263	51,78
830,677	51,29
831,091	51,44
