Data from I2__Relative__2__00144.txt Node

Date: Wed Jan 31 18:40:54 CET 2024
User: diatiterra
Spectrometer: HDX00911
Trigger mode: 0
Integration Time (sec): 6,000000E-3
Scans to average: 2
Nonlinearity correction enabled: false
Boxcar width: 0
Storing dark spectrum: false
XAxis mode: Wavelengths
Number of Pixels in Spectrum: 2068
>>>>>Begin Spectral Data<<<<<
194,468	261,32
195,025	171,82
195,581	248,78
196,138	257,69
196,694	163,58
197,251	136,87
197,807	120,47
198,363	113,6
198,919	102,76
199,474	108,09
200,03	118,85
200,586	124,55
201,141	100
201,696	101,68
202,251	111,74
202,806	100
203,361	118,15
203,916	102,78
204,471	110,22
205,025	127,42
205,58	112,86
206,134	114,4
206,688	123,08
207,242	125,66
207,796	107,52
208,35	107,97
208,904	113,1
209,457	100,35
210,011	100,35
210,564	107,39
211,117	108,27
211,67	110,82
212,223	104,11
212,776	117,74
213,329	103,67
213,881	145,59
214,434	106,58
214,986	116,12
215,538	120,59
216,09	102,82
216,642	134,71
217,194	112,12
217,746	106,77
218,297	119,08
218,849	121,69
219,4	123,53
219,951	117,74
220,502	117,23
221,053	118,7
221,604	115,44
222,155	116,67
222,705	106,99
223,256	117,54
223,806	118,5
224,356	113,85
224,906	127,42
225,456	128,68
226,006	112,7
226,556	89,29
227,106	124,6
227,655	105,56
228,204	117,92
228,754	110,56
229,303	108,21
229,852	100,72
230,401	106,72
230,949	102,88
231,498	105,63
232,047	98,7
232,595	104,48
233,143	116,14
233,691	110,47
234,239	107,14
234,787	109,6
235,335	113,06
235,883	103,15
236,43	105,3
236,978	116,15
237,525	111,68
238,072	100
238,619	116,67
239,166	101,42
239,713	97,45
240,26	102,86
240,806	112,5
241,353	111,51
241,899	113,29
242,445	112,77
242,991	120,61
243,537	103,03
244,083	118,32
244,629	108,08
245,174	121,24
245,72	106,3
246,265	105,16
246,81	120,4
247,355	116,67
247,9	106,34
248,445	121,83
248,99	110,23
249,534	128,7
250,079	113,91
250,623	108,89
251,168	126,86
251,712	117,97
252,256	129,51
252,8	115,38
253,343	108,57
253,887	113,71
254,43	115,65
254,974	121,37
255,517	105,48
256,06	124,23
256,603	112,96
257,146	116,28
257,689	119,29
258,232	131,36
258,774	106,74
259,317	125,85
259,859	126,61
260,401	121,71
260,943	108,87
261,485	106,74
262,027	111,2
262,569	116,42
263,11	109,23
263,652	124,02
264,193	119,01
264,734	113,87
265,275	121,72
265,816	118,7
266,357	113,57
266,898	111,54
267,438	116,93
267,979	108,99
268,519	108,58
269,059	127,1
269,6	117,67
270,14	120,16
270,68	112,32
271,219	130,51
271,759	109,02
272,298	116,17
272,838	113,08
273,377	121,03
273,916	102,52
274,455	114,96
274,994	113,2
275,533	109,78
276,072	116,26
276,61	101,09
277,149	124,17
277,687	113,53
278,225	96,33
278,763	140,79
279,301	123,75
279,839	110,48
280,377	117,62
280,914	98,95
281,452	131,2
281,989	116,53
282,526	118,9
283,064	128,15
283,601	105,41
284,137	109,09
284,674	125,83
285,211	125
285,747	112,5
286,284	131,08
286,82	125,21
287,356	99,67
287,892	119,38
288,428	119,01
288,964	134,03
289,5	127,27
290,035	107,2
290,571	118,07
291,106	129,27
291,641	125
292,176	107,81
292,711	119,92
293,246	106,15
293,781	120,66
294,315	95,07
294,85	128,7
295,384	115,98
295,918	116,54
296,453	100
296,987	114,46
297,52	115,29
298,054	112,98
298,588	113,75
299,121	113,06
299,655	102,92
300,188	113,33
300,721	118,7
301,254	113,31
301,787	114,45
302,32	121,95
302,853	115,6
303,385	111,79
303,918	113,95
304,45	115,77
304,982	98,23
305,514	113,18
306,046	111,16
306,578	111,24
307,11	105,04
307,641	128,02
308,173	113,22
308,704	115,7
309,236	92,48
309,767	112,77
310,298	108,47
310,829	121,3
311,359	116,94
311,89	114,71
312,421	117,12
312,951	127,24
313,481	89,31
314,012	112,69
314,542	128,81
315,072	106,11
315,601	118
316,131	119,69
316,661	107,92
317,19	108,15
317,72	120,66
318,249	121,03
318,778	117,19
319,307	112,11
319,836	122,12
320,365	115,22
320,893	128,1
321,422	124,39
321,95	117,67
322,479	118,32
323,007	125
323,535	107,86
324,063	123,2
324,591	114,4
325,118	119,34
325,646	121,43
326,173	118,33
326,701	121,14
327,228	125,86
327,755	109,02
328,282	116,03
328,809	122,46
329,336	109,45
329,862	111,03
330,389	109,77
330,915	118,9
331,441	109,16
331,968	131,98
332,494	109,85
333,02	116,25
333,545	105,6
334,071	128,51
334,597	95,77
335,122	108,15
335,648	120,69
336,173	106,82
336,698	96,52
337,223	105,51
337,748	101,74
338,272	105,14
338,797	106,88
339,322	96,72
339,846	97,06
340,37	121,77
340,894	99,65
341,419	106,39
341,942	103,85
342,466	99,68
342,99	102,01
343,514	103,17
344,037	92,09
344,56	108,15
345,084	98,97
345,607	104,51
346,13	101,41
346,653	101
347,175	90,06
347,698	91,51
348,221	104,64
348,743	93,79
349,265	101,44
349,787	90,49
350,309	93,35
350,831	83,02
351,353	88,41
351,875	89,18
352,397	97,55
352,918	88,16
353,439	95,36
353,961	80,81
354,482	93,86
355,003	90,12
355,524	86,67
356,044	86,93
356,565	89,76
357,086	90,96
357,606	80,49
358,126	75,8
358,646	80,36
359,167	80
359,687	81,36
360,206	76,23
360,726	76,54
361,246	79,52
361,765	81,07
362,285	77,5
362,804	79,74
363,323	69,51
363,842	76,65
364,361	78,11
364,88	76,85
365,398	68,12
365,917	67,92
366,435	80,99
366,954	72,99
367,472	70,05
367,99	75,36
368,508	65,18
369,026	77,5
369,544	72,37
370,061	68,07
370,579	67,42
371,096	72,71
371,613	69,18
372,131	62,01
372,648	66,54
373,165	62,5
373,681	65,61
374,198	66,21
374,715	65,23
375,231	62,88
375,747	62,76
376,264	60,2
376,78	64,57
377,296	62,64
377,812	59,97
378,327	61,75
378,843	60,75
379,359	63,58
379,874	64,01
380,389	57,73
380,905	54,48
381,42	56,69
381,935	61,13
382,449	56,05
382,964	55,29
383,479	51,87
383,993	52,91
384,508	53,94
385,022	51,17
385,536	50
386,05	50,39
386,564	51,12
387,078	47,37
387,592	47,32
388,105	46,93
388,619	45,42
389,132	43,48
389,645	45,52
390,158	42,7
390,671	42,06
391,184	41,9
391,697	41,28
392,21	37,25
392,722	38,79
393,235	39,31
393,747	40,08
394,259	38,11
394,771	39,03
395,283	38
395,795	37,87
396,307	40,56
396,818	38,51
397,33	35,37
397,841	35,93
398,353	35,26
398,864	34,41
399,375	34,22
399,886	32,57
400,397	32,12
400,907	31,32
401,418	29,38
401,928	30,14
402,439	29,97
402,949	27,88
403,459	27,92
403,969	28,58
404,479	27,42
404,989	26,03
405,498	24,45
406,008	25,39
406,517	24,11
407,027	21,04
407,536	21,1
408,045	21,3
408,554	20,7
409,063	19,83
409,572	18,41
410,08	18,9
410,589	18,81
411,097	17,31
411,606	17,77
412,114	17,12
412,622	16,45
413,13	16,06
413,638	15,92
414,145	14,03
414,653	14,83
415,16	13,73
415,668	13,66
416,175	13,85
416,682	12,7
417,189	12,07
417,696	12,64
418,203	12,57
418,71	12,64
419,216	11,6
419,723	11,78
420,229	10,71
420,735	11,65
421,242	11,52
421,748	10,85
422,254	10,42
422,759	10,82
423,265	11,29
423,771	10,34
424,276	10,56
424,781	9,48
425,287	9,96
425,792	9,88
426,297	10,03
426,802	9,81
427,306	10,12
427,811	9,79
428,316	9,58
428,82	9,69
429,324	9,73
429,829	9,32
430,333	9,71
430,837	9,43
431,34	9,13
431,844	8,98
432,348	8,8
432,851	9,1
433,355	8,85
433,858	8,84
434,361	8,14
434,864	8,82
435,367	8,28
435,87	9,12
436,373	8,83
436,876	8,42
437,378	8,75
437,88	8,24
438,383	8,39
438,885	8,4
439,387	8,35
439,889	8,17
440,391	8,1
440,892	8,31
441,394	8,4
441,896	8,32
442,397	8,29
442,898	7,94
443,399	8,51
443,9	7,95
444,401	8,08
444,902	8,27
445,403	8,13
445,903	7,93
446,404	8,18
446,904	8,19
447,405	7,84
447,905	8,23
448,405	7,96
448,905	8,13
449,404	8,5
449,904	7,95
450,404	8,12
450,903	8,2
451,403	7,91
451,902	8,23
452,401	8,31
452,9	8,53
453,399	8,1
453,898	8,04
454,396	8,09
454,895	8
455,393	8,08
455,892	8,12
456,39	8
456,888	7,86
457,386	8,26
457,884	8,19
458,382	8,29
458,879	8,73
459,377	8,5
459,874	8,08
460,372	8,18
460,869	7,84
461,366	8,04
461,863	7,96
462,36	8,08
462,857	8,14
463,353	7,81
463,85	7,69
464,346	7,77
464,843	8,36
465,339	7,8
465,835	8,19
466,331	8,03
466,827	7,89
467,323	7,83
467,818	8
468,314	8,04
468,809	8,15
469,305	7,74
469,8	8,16
470,295	7,9
470,79	7,97
471,285	7,98
471,78	7,78
472,274	7,86
472,769	7,46
473,263	7,63
473,758	7,69
474,252	7,97
474,746	7,68
475,24	7,97
475,734	7,78
476,228	7,86
476,721	7,91
477,215	7,63
477,708	8,07
478,202	7,9
478,695	7,96
479,188	7,7
479,681	7,69
480,174	7,69
480,667	8
481,159	7,9
481,652	7,95
482,144	7,96
482,637	8,24
483,129	7,65
483,621	8,15
484,113	7,83
484,605	7,89
485,097	8,27
485,588	7,86
486,08	8,11
486,571	8,23
487,063	8,12
487,554	8,37
488,045	8,05
488,536	7,96
489,027	8,21
489,518	8,15
490,008	7,96
490,499	8,3
490,989	8,12
491,48	8,32
491,97	8,18
492,46	8,5
492,95	8,49
493,44	8,59
493,93	8,62
494,419	8,48
494,909	8,8
495,398	9,03
495,888	8,73
496,377	8,93
496,866	9
497,355	8,87
497,844	9,18
498,333	9,48
498,821	9,2
499,31	9,4
499,798	9,5
500,287	9,64
500,775	10,07
501,263	10,35
501,751	10,1
502,239	10,31
502,727	10,56
503,215	10,85
503,702	10,9
504,19	10,62
504,677	11,43
505,164	11,47
505,651	11,6
506,139	11,97
506,625	11,72
507,112	12,63
507,599	12,92
508,086	12,76
508,572	12,93
509,058	13,52
509,545	13,26
510,031	13,72
510,517	14,02
511,003	13,86
511,489	14,8
511,974	14,87
512,46	15,15
512,946	15,43
513,431	15,82
513,916	16,14
514,401	16,5
514,887	16,67
515,371	16,99
515,856	17,62
516,341	17,66
516,826	18,46
517,31	18,35
517,795	19
518,279	19,09
518,763	19,96
519,247	19,94
519,731	20,36
520,215	20,88
520,699	21,28
521,182	21,24
521,666	21,43
522,149	21,75
522,633	22,5
523,116	22,92
523,599	23,36
524,082	23,52
524,565	23,88
525,048	24,36
525,53	24,34
526,013	24,99
526,495	25,2
526,978	25,41
527,46	25,82
527,942	25,44
528,424	26,72
528,906	26,09
529,388	26,38
529,87	26,94
530,351	26,59
530,833	27,45
531,314	27,46
531,795	27,51
532,277	28,11
532,758	28,06
533,238	28,13
533,719	28,2
534,2	28,34
534,681	28,64
535,161	28,35
535,642	29,18
536,122	28,7
536,602	29
537,082	28,81
537,562	29,69
538,042	29,26
538,522	29,27
539,001	29,1
539,481	29,49
539,96	29,48
540,44	29,63
540,919	29,84
541,398	29,31
541,877	29,69
542,356	29,45
542,835	29,59
543,313	29,91
543,792	30,3
544,27	29,73
544,749	30,43
545,227	30,16
545,705	30,36
546,183	30,51
546,661	30,38
547,139	30,46
547,616	30,01
548,094	30,42
548,571	30,39
549,049	30,39
549,526	30,38
550,003	31,04
550,48	30,2
550,957	30,97
551,434	30,3
551,911	30,52
552,387	30,68
552,864	30,6
553,34	31
553,817	30,53
554,293	30,75
554,769	30,75
555,245	30,83
555,721	30,24
556,197	30,63
556,672	30,41
557,148	30,4
557,623	30,82
558,099	30,28
558,574	30,84
559,049	29,82
559,524	30,54
559,999	30,57
560,474	30,13
560,948	29,9
561,423	30,24
561,897	29,83
562,372	29,91
562,846	29,74
563,32	29,47
563,794	29,38
564,268	29,91
564,742	29,37
565,216	29,01
565,69	28,74
566,163	29,06
566,636	28,49
567,11	28,29
567,583	28,18
568,056	28,23
568,529	27,89
569,002	27,77
569,475	27,61
569,947	27
570,42	27,2
570,892	26,99
571,365	26,59
571,837	26,83
572,309	26,38
572,781	26,28
573,253	26,23
573,725	25,86
574,197	25,77
574,668	25,4
575,14	25,13
575,611	24,91
576,082	24,71
576,554	24,53
577,025	24,29
577,496	24,16
577,967	24,16
578,437	24,19
578,908	23,93
579,379	23,84
579,849	23,61
580,319	23,3
580,79	23,27
581,26	23,19
581,73	22,96
582,2	22,67
582,669	22,45
583,139	22,4
583,609	22,24
584,078	22,53
584,548	22,4
585,017	22
585,486	21,82
585,955	22,09
586,424	21,55
586,893	21,65
587,362	21,56
587,83	21,4
588,299	21,29
588,767	21,15
589,236	21,13
589,704	20,97
590,172	21,12
590,64	20,92
591,108	20,9
591,576	20,64
592,043	20,68
592,511	20,45
592,978	20,58
593,446	20,65
593,913	20,5
594,38	20,34
594,847	20,34
595,314	20,11
595,781	19,91
596,248	20,04
596,715	20,12
597,181	20,19
597,647	19,93
598,114	20,13
598,58	19,64
599,046	19,98
599,512	19,91
599,978	19,7
600,444	19,77
600,91	19,63
601,375	19,88
601,841	19,72
602,306	19,31
602,771	19,35
603,236	19,2
603,702	19,76
604,167	19,43
604,631	19,31
605,096	19,04
605,561	19,26
606,025	18,88
606,49	18,97
606,954	18,46
607,418	18,71
607,882	18,68
608,347	18,41
608,81	18,44
609,274	18,28
609,738	18,06
610,202	18,06
610,665	17,95
611,128	17,83
611,592	17,45
612,055	17,47
612,518	17,6
612,981	17,35
613,444	17,24
613,907	17,3
614,369	16,9
614,832	16,94
615,294	16,72
615,757	16,71
616,219	16,73
616,681	16,44
617,143	16,51
617,605	16,28
618,067	16,13
618,529	16,06
618,99	16,04
619,452	15,99
619,913	15,74
620,375	15,84
620,836	15,86
621,297	15,95
621,758	15,54
622,219	15,66
622,68	15,58
623,14	15,24
623,601	15,43
624,061	15,54
624,522	15,4
624,982	15,42
625,442	15,42
625,902	15,17
626,362	15,05
626,822	15,16
627,282	15,26
627,742	15,34
628,201	15
628,661	15,29
629,12	14,93
629,579	15,04
630,038	15,17
630,497	15,12
630,956	14,92
631,415	14,99
631,874	14,8
632,332	14,89
632,791	14,74
633,249	14,68
633,708	14,73
634,166	14,53
634,624	14,48
635,082	14,42
635,54	14,49
635,998	14,14
636,455	14,4
636,913	14,31
637,37	13,92
637,828	13,76
638,285	13,72
638,742	13,63
639,199	13,65
639,656	13,38
640,113	13,42
640,57	13,27
641,027	12,85
641,483	12,87
641,94	12,76
642,396	12,64
642,852	12,5
643,309	12,2
643,765	12,18
644,221	12
644,676	11,8
645,132	11,71
645,588	11,54
646,043	11,17
646,499	11,26
646,954	11,13
647,409	11,17
647,864	10,76
648,319	10,56
648,774	10,65
649,229	10,59
649,684	10,52
650,139	10,38
650,593	10,37
651,047	10,11
651,502	10,05
651,956	10,02
652,41	10,02
652,864	9,79
653,318	9,9
653,772	9,76
654,225	9,64
654,679	9,69
655,133	9,75
655,586	9,58
656,039	9,58
656,492	9,4
656,946	9,37
657,399	9,18
657,851	9,23
658,304	9,16
658,757	9,12
659,209	8,89
659,662	8,78
660,114	8,66
660,567	8,71
661,019	8,59
661,471	8,49
661,923	8,28
662,375	8,21
662,826	8,24
663,278	8,15
663,73	8,13
664,181	8,05
664,632	7,98
665,084	7,91
665,535	7,81
665,986	7,79
666,437	7,89
666,888	7,8
667,338	7,8
667,789	7,91
668,24	7,71
668,69	7,77
669,14	7,89
669,591	7,79
670,041	7,8
670,491	7,83
670,941	8,03
671,391	7,93
671,84	8,1
672,29	8,07
672,74	8,19
673,189	8,23
673,638	8,31
674,088	8,34
674,537	8,37
674,986	8,55
675,435	8,66
675,883	8,67
676,332	8,94
676,781	8,88
677,229	9,02
677,678	9,09
678,126	9,35
678,574	9,56
679,022	9,66
679,47	9,76
679,918	9,92
680,366	10,04
680,814	10,15
681,261	10,25
681,709	10,48
682,156	10,48
682,604	10,72
683,051	10,97
683,498	11,13
683,945	11,13
684,392	11,25
684,839	11,63
685,286	11,73
685,732	11,79
686,179	12,09
686,625	12,12
687,071	12,41
687,518	12,66
687,964	12,72
688,41	13,23
688,856	13,49
689,301	13,83
689,747	14,26
690,193	14,82
690,638	14,87
691,084	15,44
691,529	15,91
691,974	16,52
692,419	17,03
692,864	17,66
693,309	18,2
693,754	18,65
694,199	19,27
694,643	19,86
695,088	20,7
695,532	21,23
695,977	21,84
696,421	22,48
696,865	23,05
697,309	23,73
697,753	24,3
698,197	25,2
698,64	25,56
699,084	26,27
699,527	26,87
699,971	27,43
700,414	27,93
700,857	28,68
701,3	28,97
701,743	29,78
702,186	30,31
702,629	30,85
703,072	31,53
703,515	31,77
703,957	32
704,399	32,68
704,842	33,29
705,284	33,64
705,726	34,22
706,168	34,62
706,61	35,13
707,052	35,36
707,494	35,97
707,935	36,22
708,377	36,87
708,818	37,12
709,26	37,37
709,701	37,81
710,142	38,23
710,583	38,1
711,024	38,49
711,465	39,12
711,905	39,61
712,346	39,68
712,787	39,94
713,227	40,63
713,667	40,56
714,108	41,23
714,548	41,56
714,988	41,71
715,428	42,16
715,868	42,52
716,307	42,48
716,747	42,55
717,186	43,23
717,626	43,3
718,065	43,43
718,504	43,8
718,944	44,11
719,383	44,29
719,822	44,68
720,261	44,57
720,699	44,92
721,138	44,85
721,576	45,38
722,015	45,4
722,453	45,59
722,892	45,95
723,33	46,4
723,768	46,5
724,206	46,61
724,644	46,54
725,081	46,86
725,519	46,67
725,957	46,97
726,394	47,17
726,832	47,38
727,269	47,35
727,706	47,59
728,143	47,52
728,58	47,87
729,017	47,54
729,454	47,73
729,89	48,22
730,327	47,86
730,764	48,4
731,2	48,4
731,636	48,5
732,072	48,57
732,509	48,83
732,945	48,66
733,38	48,56
733,816	48,66
734,252	48,62
734,688	48,93
735,123	48,78
735,559	49,11
735,994	48,86
736,429	49,13
736,864	49,07
737,299	49,13
737,734	49,07
738,169	49,12
738,604	49,39
739,038	48,92
739,473	49,19
739,907	49,56
740,342	49,46
740,776	49,48
741,21	49,47
741,644	49,67
742,078	49,25
742,512	49,04
742,946	49,27
743,379	49,29
743,813	49,17
744,246	49,26
744,68	49,23
745,113	49,19
745,546	48,86
745,979	49,08
746,412	49,16
746,845	48,95
747,278	48,88
747,711	48,72
748,143	49,14
748,576	49,05
749,008	49,15
749,441	48,66
749,873	48,73
750,305	48,97
750,737	48,66
751,169	48,73
751,601	48,62
752,032	48,63
752,464	48,47
752,896	48,24
753,327	48,5
753,758	48,22
754,19	48,6
754,621	48,44
755,052	48,06
755,483	48,35
755,914	48,3
756,344	48,12
756,775	48,14
757,206	48,04
757,636	48,25
758,066	48,32
758,497	48
758,927	48,45
759,357	48,36
759,787	47,77
760,217	48,09
760,647	48,11
761,076	47,98
761,506	47,45
761,935	47,66
762,365	47,71
762,794	47,53
763,223	47,96
763,653	47,84
764,082	47,3
764,51	47,76
764,939	47,71
765,368	47,48
765,797	47,28
766,225	47,49
766,654	46,94
767,082	47,02
767,51	47,21
767,938	46,84
768,367	47,06
768,795	47,08
769,222	47,29
769,65	47,32
770,078	47,13
770,505	47,1
770,933	47,31
771,36	47,31
771,788	46,91
772,215	47,13
772,642	47,16
773,069	47
773,496	46,93
773,923	46,73
774,349	46,62
774,776	47
775,203	46,69
775,629	47,01
776,055	46,08
776,482	46,82
776,908	46,8
777,334	46,59
777,76	46,58
778,186	46,64
778,611	46,67
779,037	46,84
779,463	46,61
779,888	46,71
780,314	46,56
780,739	46,95
781,164	47,05
781,589	46,47
782,014	46,7
782,439	46,73
782,864	46,62
783,289	46,8
783,713	46,25
784,138	46,45
784,562	46,3
784,987	46,13
785,411	46,28
785,835	46,29
786,259	46,32
786,683	46,29
787,107	46,41
787,531	46,37
787,954	46,39
788,378	46,3
788,802	46,31
789,225	46
789,648	46,14
790,071	45,62
790,495	46,38
790,918	46,41
791,34	46,33
791,763	46,31
792,186	46,25
792,609	46,21
793,031	46,14
793,454	46,32
793,876	46,53
794,298	46,16
794,721	46,21
795,143	46,35
795,565	45,82
795,986	45,9
796,408	46,34
796,83	45,95
797,252	45,98
797,673	46,4
798,094	46,18
798,516	46,26
798,937	46,24
799,358	45,76
799,779	46,07
800,2	46,22
800,621	46
801,042	45,82
801,462	45,93
801,883	45,96
802,303	45,63
802,724	46,19
803,144	45,84
803,564	45,82
803,984	46,34
804,404	45,92
804,824	46,19
805,244	45,99
805,664	46,45
806,084	46,02
806,503	46,14
806,923	45,72
807,342	46,29
807,761	45,66
808,18	45,73
808,599	45,66
809,018	46,03
809,437	46,08
809,856	45,37
810,275	46,02
810,693	45,65
811,112	46,12
811,53	45,96
811,949	45,96
812,367	46,16
812,785	46,02
813,203	45,98
813,621	45,65
814,039	45,66
814,457	46,03
814,874	45,59
815,292	45,95
815,709	45,46
816,127	45,78
816,544	45,96
816,961	45,98
817,378	46,31
817,795	45,48
818,212	45,87
818,629	45,91
819,046	45,65
819,462	45,5
819,879	45,5
820,295	45,64
820,712	45,41
821,128	45,49
821,544	45,74
821,96	45,43
822,376	45,69
822,792	45,64
823,208	45,87
823,624	45,72
824,039	45,83
824,455	45,89
824,87	45,55
825,286	45,69
825,701	45,66
826,116	45,44
826,531	45,61
826,946	45,46
827,361	45,62
827,776	45,5
828,19	45,38
828,605	45,48
829,02	45,54
829,434	45,82
829,848	45,46
830,263	45,39
830,677	45,57
831,091	45,18
831,505	45,29
831,919	45,5
832,332	45,63
832,746	45,7
833,16	45,28
833,573	45,15
833,987	45,81
834,4	45,21
