Data from I4__Relative__2__00152.txt Node

Date: Wed Jan 31 18:42:02 CET 2024
User: diatiterra
Spectrometer: HDX00911
Trigger mode: 0
Integration Time (sec): 6,000000E-3
Scans to average: 2
Nonlinearity correction enabled: false
Boxcar width: 0
Storing dark spectrum: false
XAxis mode: Wavelengths
Number of Pixels in Spectrum: 2068
>>>>>Begin Spectral Data<<<<<
194,468	248,11
195,025	160,91
195,581	218,29
196,138	229,49
196,694	146,3
197,251	111,11
197,807	94,88
198,363	94,4
198,919	83,1
199,474	86,03
200,03	97,54
200,586	105,8
201,141	77,74
201,696	86,58
202,251	84,85
202,806	90,21
203,361	93,7
203,916	85,76
204,471	90,88
205,025	107,66
205,58	90,36
206,134	100,4
206,688	89,62
207,242	98,67
207,796	90,23
208,35	91,3
208,904	89,66
209,457	85,07
210,011	84,75
210,564	86,27
211,117	90,98
211,67	95,9
212,223	90,75
212,776	95,97
213,329	82,33
213,881	117,16
214,434	84,87
214,986	102,07
215,538	96,69
216,09	83,45
216,642	99,17
217,194	101,52
217,746	93,61
218,297	96,18
218,849	96,69
219,4	102,52
219,951	95,97
220,502	92,91
221,053	101,91
221,604	95,64
222,155	98,81
222,705	87,13
223,256	87,69
223,806	103,15
224,356	98,46
224,906	105,65
225,456	100
226,006	96,03
226,556	81,17
227,106	95,97
227,655	83,33
228,204	95,83
228,754	90,85
229,303	88,93
229,852	82,73
230,401	89,93
230,949	96,4
231,498	86,62
232,047	79,87
232,595	95,52
233,143	102,36
233,691	91,86
234,239	94,29
234,787	88,8
235,335	95,15
235,883	84,97
236,43	92,8
236,978	97,31
237,525	89,42
238,072	91,13
238,619	94,32
239,166	82,62
239,713	88,32
240,26	90,36
240,806	91,67
241,353	97,22
241,899	86,01
242,445	94,53
242,991	98,47
243,537	81,82
244,083	98,85
244,629	94,23
245,174	101,77
245,72	91,85
246,265	84,52
246,81	89,2
247,355	92,46
247,9	89,18
248,445	94,84
248,99	89,02
249,534	106,52
250,079	89,85
250,623	83,33
251,168	92,98
251,712	83,59
252,256	96,31
252,8	96,54
253,343	89,64
253,887	88,71
254,43	93,51
254,974	91,6
255,517	81,51
256,06	102,69
256,603	91,85
257,146	89,92
257,689	100,79
258,232	98,73
258,774	90,78
259,317	101,27
259,859	98,62
260,401	92,64
260,943	86,88
261,485	93,62
262,027	98,4
262,569	91,42
263,11	92,31
263,652	104,33
264,193	97,52
264,734	94,53
265,275	95,49
265,816	94,27
266,357	105,04
266,898	96,92
267,438	97,24
267,979	90,65
268,519	93,28
269,059	110,28
269,6	99,25
270,14	104,03
270,68	98,55
271,219	105,08
271,759	91,35
272,298	95,11
272,838	93,08
273,377	97,22
273,916	87,41
274,455	101,09
274,994	94
275,533	93,84
276,072	96,75
276,61	85,51
277,149	101,67
277,687	94,74
278,225	87,67
278,763	106,58
279,301	96,67
279,839	96,77
280,377	94,26
280,914	85,31
281,452	104,27
281,989	100,83
282,526	96,06
283,064	101,68
283,601	80,41
284,137	100
284,674	107,08
285,211	101,32
285,747	91,29
286,284	110,36
286,82	98,76
287,356	79,28
287,892	97,67
288,428	98,76
288,964	109,66
289,5	101,65
290,035	104
290,571	102,94
291,106	102,85
291,641	104,91
292,176	97,66
292,711	98,37
293,246	93,08
293,781	104,13
294,315	85,56
294,85	114,35
295,384	94,67
295,918	89,71
296,453	84,7
296,987	95,04
297,52	95,04
298,054	100,76
298,588	96,25
299,121	92,16
299,655	94,89
300,188	92,5
300,721	97,97
301,254	91,53
301,787	95,7
302,32	103,66
302,853	92
303,385	89,64
303,918	94,96
304,45	94,23
304,982	80,14
305,514	98,84
306,046	93,39
306,578	90,7
307,11	98,06
307,641	105,17
308,173	99,17
308,704	92,15
309,236	80,08
309,767	93,26
310,298	97,98
310,829	105,22
311,359	98,79
311,89	100
312,421	101,35
312,951	100,41
313,481	83,79
314,012	89,18
314,542	108,9
315,072	98,85
315,601	101,2
316,131	96,46
316,661	95,42
317,19	93,7
317,72	114,05
318,249	101,19
318,778	104,3
319,307	94,53
319,836	99,12
320,365	97,39
320,893	102,89
321,422	104,47
321,95	106,39
322,479	98,47
323,007	96,36
323,535	89,29
324,063	99,2
324,591	100,8
325,118	97,45
325,646	103,36
326,173	90,42
326,701	106,91
327,228	104,31
327,755	96,62
328,282	90,84
328,809	108,9
329,336	97,24
329,862	96,69
330,389	89,45
330,915	96,46
331,441	97,33
331,968	100,9
332,494	95,45
333,02	102,5
333,545	84,7
334,071	102,48
334,597	78,52
335,122	88,52
335,648	101,29
336,173	87,5
336,698	81,01
337,223	89,34
337,748	90,97
338,272	85,96
338,797	90,22
339,322	80,66
339,846	88,97
340,37	102,82
340,894	87,85
341,419	89,85
341,942	84,62
342,466	83,65
342,99	80,2
343,514	86,27
344,037	71,2
344,56	90
345,084	86,3
345,607	89,93
346,13	83,8
346,653	86,33
347,175	83,01
347,698	80,5
348,221	79,29
348,743	80,43
349,265	85,61
349,787	75,77
350,309	69,62
350,831	67,59
351,353	73,48
351,875	68,42
352,397	77,62
352,918	79,61
353,439	79,8
353,961	69,19
354,482	77,19
355,003	71,51
355,524	71,67
356,044	68,47
356,565	72,29
357,086	70,62
357,606	59,34
358,126	66,49
358,646	62,76
359,167	67,3
359,687	65,82
360,206	65,57
360,726	65,17
361,246	66,22
361,765	66,67
362,285	59,5
362,804	67,89
363,323	53,66
363,842	62,36
364,361	53,73
364,88	63,3
365,398	59,83
365,917	57,08
366,435	67,19
366,954	60,49
367,472	52,36
367,99	59
368,508	51,21
369,026	64,55
369,544	55,26
370,061	50,21
370,579	52,25
371,096	52,29
371,613	51,72
372,131	47,44
372,648	47,24
373,165	52,15
373,681	50,63
374,198	57,42
374,715	50,75
375,231	48,11
375,747	46,03
376,264	47,11
376,78	47,3
377,296	43,87
377,812	44,35
378,327	42,22
378,843	45,39
379,359	44,37
379,874	45,85
380,389	39,12
380,905	37,61
381,42	37,99
381,935	42,07
382,449	38,05
382,964	36,43
383,479	35,2
383,993	35,46
384,508	37,01
385,022	34,33
385,536	34,61
386,05	35,04
386,564	31,72
387,078	32,78
387,592	32
388,105	33,92
388,619	29,13
389,132	30,34
389,645	32,18
390,158	28,22
390,671	29,43
391,184	26,92
391,697	26,05
392,21	25,59
392,722	25,69
393,235	26,17
393,747	25,58
394,259	26,5
394,771	24,86
395,283	26,19
395,795	22,29
396,307	24,95
396,818	23,95
397,33	19,47
397,841	22,12
398,353	21,38
398,864	22,55
399,375	20,87
399,886	20,78
400,397	20,06
400,907	19,99
401,418	19,1
401,928	19,47
402,439	19,24
402,949	17,19
403,459	17,56
403,969	17,25
404,479	16,39
404,989	14,77
405,498	15,82
406,008	15,54
406,517	13,24
407,027	13,31
407,536	13,69
408,045	12,78
408,554	12,71
409,063	12,05
409,572	10,7
410,08	11,37
410,589	11,9
411,097	10,91
411,606	10,96
412,114	10,59
412,622	9,86
413,13	10,05
413,638	9,04
414,145	8,83
414,653	8,82
415,16	7,85
415,668	7,92
416,175	7,73
416,682	7,09
417,189	6,69
417,696	7,24
418,203	7,21
418,71	7,18
419,216	6,72
419,723	6,8
420,229	6,72
420,735	6,23
421,242	6,37
421,748	6,37
422,254	6,64
422,759	6,46
423,265	6,7
423,771	5,91
424,276	5,58
424,781	5,55
425,287	5,68
425,792	5,76
426,297	5,95
426,802	5,71
427,306	5,62
427,811	5,22
428,316	5,36
428,82	5,1
429,324	5,25
429,829	5,08
430,333	5,04
430,837	5,21
431,34	5,07
431,844	5,04
432,348	5,22
432,851	4,51
433,355	4,94
433,858	5,09
434,361	4,57
434,864	4,73
435,367	4,63
435,87	5,13
436,373	5
436,876	4,72
437,378	4,64
437,88	4,59
438,383	4,63
438,885	4,55
439,387	4,51
439,889	4,59
440,391	4,44
440,892	4,64
441,394	4,17
441,896	4,6
442,397	4,46
442,898	4,35
443,399	4,53
443,9	4,14
444,401	4,19
444,902	4,1
445,403	4,4
445,903	4,07
446,404	4,37
446,904	4,43
447,405	3,87
447,905	4,37
448,405	4,19
448,905	4,25
449,404	4,32
449,904	4,06
450,404	4,11
450,903	4,43
451,403	3,84
451,902	3,99
452,401	4,11
452,9	4,22
453,399	3,98
453,898	4,04
454,396	4,1
454,895	4,05
455,393	3,87
455,892	3,8
456,39	4,04
456,888	3,75
457,386	4,01
457,884	3,98
458,382	4,11
458,879	3,98
459,377	4,23
459,874	3,83
460,372	4,1
460,869	3,94
461,366	3,91
461,863	3,9
462,36	4,01
462,857	3,88
463,353	3,85
463,85	3,87
464,346	3,46
464,843	3,9
465,339	3,67
465,835	3,9
466,331	3,8
466,827	3,55
467,323	3,68
467,818	3,84
468,314	3,64
468,809	3,8
469,305	3,58
469,8	3,81
470,295	3,55
470,79	3,82
471,285	3,55
471,78	3,57
472,274	3,49
472,769	3,54
473,263	3,48
473,758	3,62
474,252	3,36
474,746	3,83
475,24	3,51
475,734	3,38
476,228	3,58
476,721	3,49
477,215	3,45
477,708	3,31
478,202	3,34
478,695	3,52
479,188	3,46
479,681	3,43
480,174	3,54
480,667	3,54
481,159	3,51
481,652	3,64
482,144	3,51
482,637	3,37
483,129	3,35
483,621	3,5
484,113	3,58
484,605	3,4
485,097	3,63
485,588	3,47
486,08	3,43
486,571	3,41
487,063	3,33
487,554	3,42
488,045	3,55
488,536	3,42
489,027	3,49
489,518	3,79
490,008	3,14
490,499	3,39
490,989	3,48
491,48	3,51
491,97	3,38
492,46	3,52
492,95	3,4
493,44	3,63
493,93	3,56
494,419	3,61
494,909	3,51
495,398	3,46
495,888	3,52
496,377	3,73
496,866	3,6
497,355	3,53
497,844	3,67
498,333	3,69
498,821	3,62
499,31	3,65
499,798	3,78
500,287	3,79
500,775	3,71
501,263	3,87
501,751	3,64
502,239	4
502,727	4,04
503,215	3,99
503,702	4,03
504,19	3,89
504,677	4,16
505,164	4,32
505,651	4,4
506,139	4,3
506,625	4,37
507,112	4,23
507,599	4,63
508,086	4,58
508,572	4,76
509,058	4,69
509,545	4,75
510,031	4,99
510,517	5,02
511,003	5,06
511,489	5,36
511,974	5,44
512,46	5,42
512,946	5,28
513,431	5,42
513,916	5,65
514,401	5,79
514,887	5,94
515,371	6,04
515,856	6,15
516,341	6,12
516,826	6,37
517,31	6,33
517,795	6,65
518,279	6,65
518,763	6,76
519,247	6,87
519,731	7,15
520,215	7,23
520,699	7,28
521,182	7,47
521,666	7,58
522,149	7,93
522,633	7,88
523,116	8,08
523,599	8,22
524,082	8,43
524,565	8,58
525,048	8,55
525,53	8,8
526,013	8,77
526,495	8,87
526,978	9,07
527,46	9,31
527,942	9,35
528,424	9,57
528,906	9,57
529,388	9,56
529,87	10,12
530,351	9,89
530,833	10,15
531,314	10,12
531,795	9,93
532,277	10,24
532,758	10,23
533,238	10,33
533,719	10,38
534,2	10,51
534,681	10,68
535,161	10,68
535,642	10,71
536,122	10,36
536,602	10,77
537,082	10,84
537,562	11,06
538,042	10,74
538,522	10,79
539,001	10,96
539,481	10,9
539,96	10,81
540,44	11,05
540,919	11,4
541,398	11,16
541,877	10,97
542,356	10,96
542,835	11,21
543,313	11,24
543,792	11,16
544,27	11,15
544,749	11,47
545,227	11,34
545,705	11,38
546,183	11,39
546,661	11,24
547,139	11,26
547,616	11,05
548,094	11,13
548,571	11,59
549,049	11,34
549,526	11,36
550,003	11,53
550,48	11,46
550,957	11,6
551,434	11,53
551,911	11,48
552,387	11,21
552,864	11,41
553,34	11,66
553,817	11,52
554,293	11,41
554,769	11,48
555,245	11,3
555,721	11,21
556,197	11,37
556,672	11,33
557,148	11,52
557,623	11,65
558,099	11,39
558,574	11,54
559,049	10,98
559,524	11,38
559,999	11,31
560,474	11,31
560,948	11,07
561,423	11,07
561,897	10,71
562,372	10,98
562,846	11,16
563,32	10,88
563,794	10,99
564,268	10,78
564,742	10,74
565,216	10,68
565,69	10,69
566,163	10,47
566,636	10,4
567,11	10,33
567,583	10,11
568,056	10,09
568,529	10,25
569,002	9,95
569,475	10,01
569,947	9,77
570,42	9,89
570,892	9,68
571,365	9,54
571,837	9,56
572,309	9,54
572,781	9,48
573,253	9,27
573,725	9,11
574,197	9,14
574,668	8,94
575,14	8,87
575,611	9,15
576,082	8,75
576,554	8,73
577,025	8,62
577,496	8,69
577,967	8,51
578,437	8,37
578,908	8,32
579,379	8,51
579,849	8,19
580,319	8,27
580,79	8,1
581,26	7,95
581,73	7,99
582,2	7,78
582,669	7,82
583,139	7,73
583,609	7,65
584,078	7,84
584,548	7,62
585,017	7,66
585,486	7,46
585,955	7,48
586,424	7,51
586,893	7,55
587,362	7,44
587,83	7,35
588,299	7,37
588,767	7,38
589,236	7,41
589,704	7,23
590,172	6,97
590,64	7,2
591,108	7,13
591,576	7,08
592,043	7,17
592,511	6,99
592,978	6,93
593,446	7,1
593,913	7,03
594,38	6,9
594,847	6,73
595,314	7
595,781	6,79
596,248	6,86
596,715	6,67
597,181	6,8
597,647	6,67
598,114	6,72
598,58	6,55
599,046	6,71
599,512	6,69
599,978	6,75
600,444	6,64
600,91	6,56
601,375	6,53
601,841	6,72
602,306	6,56
602,771	6,66
603,236	6,49
603,702	6,61
604,167	6,52
604,631	6,44
605,096	6,43
605,561	6,42
606,025	6,3
606,49	6,39
606,954	6,4
607,418	6,06
607,882	6,19
608,347	6,11
608,81	6,31
609,274	6,18
609,738	6,04
610,202	6,19
610,665	6,05
611,128	6,03
611,592	6,01
612,055	5,87
612,518	5,86
612,981	5,83
613,444	5,85
613,907	5,67
614,369	5,76
614,832	5,61
615,294	5,57
615,757	5,66
616,219	5,62
616,681	5,45
617,143	5,47
617,605	5,41
618,067	5,31
618,529	5,35
618,99	5,3
619,452	5,16
619,913	5,33
620,375	5,32
620,836	5,31
621,297	5,18
621,758	5,28
622,219	5,08
622,68	5,14
623,14	5,16
623,601	5,16
624,061	5,1
624,522	5,13
624,982	5,02
625,442	5,01
625,902	5,02
626,362	5,05
626,822	5,02
627,282	5,08
627,742	5,07
628,201	5,03
628,661	5,07
629,12	5,04
629,579	4,96
630,038	4,99
630,497	4,98
630,956	5,01
631,415	4,91
631,874	4,91
632,332	4,95
632,791	4,93
633,249	4,84
633,708	4,87
634,166	4,81
634,624	4,73
635,082	4,81
635,54	4,77
635,998	4,7
636,455	4,6
636,913	4,6
637,37	4,61
637,828	4,47
638,285	4,5
638,742	4,5
639,199	4,44
639,656	4,35
640,113	4,29
640,57	4,18
641,027	4,19
641,483	4,15
641,94	4,1
642,396	3,98
642,852	4,01
643,309	3,97
643,765	3,86
644,221	3,82
644,676	3,71
645,132	3,75
645,588	3,62
646,043	3,56
646,499	3,58
646,954	3,52
647,409	3,52
647,864	3,38
648,319	3,49
648,774	3,41
649,229	3,35
649,684	3,27
650,139	3,31
650,593	3,28
651,047	3,23
651,502	3,25
651,956	3,21
652,41	3,23
652,864	3,21
653,318	3,23
653,772	3,11
654,225	3,13
654,679	3,21
655,133	3,09
655,586	3,16
656,039	3,03
656,492	3,04
656,946	3,1
657,399	3,07
657,851	3,05
658,304	2,96
658,757	2,99
659,209	2,91
659,662	2,93
660,114	2,9
660,567	2,93
661,019	2,82
661,471	2,84
661,923	2,73
662,375	2,84
662,826	2,79
663,278	2,74
663,73	2,7
664,181	2,64
664,632	2,7
665,084	2,67
665,535	2,65
665,986	2,59
666,437	2,59
666,888	2,61
667,338	2,56
667,789	2,66
668,24	2,67
668,69	2,59
669,14	2,63
669,591	2,62
670,041	2,67
670,491	2,61
670,941	2,64
671,391	2,78
671,84	2,65
672,29	2,67
672,74	2,73
673,189	2,8
673,638	2,77
674,088	2,82
674,537	2,87
674,986	2,91
675,435	2,93
675,883	2,93
676,332	2,95
676,781	3,03
677,229	3,11
677,678	3,17
678,126	3,17
678,574	3,21
679,022	3,29
679,47	3,36
679,918	3,31
680,366	3,45
680,814	3,45
681,261	3,54
681,709	3,65
682,156	3,6
682,604	3,72
683,051	3,78
683,498	3,81
683,945	3,85
684,392	3,88
684,839	3,91
685,286	4,01
685,732	4,08
686,179	4,09
686,625	4,16
687,071	4,21
687,518	4,34
687,964	4,39
688,41	4,33
688,856	4,56
689,301	4,72
689,747	4,72
690,193	4,88
690,638	4,88
691,084	5,09
691,529	5,32
691,974	5,46
692,419	5,67
692,864	5,87
693,309	6,06
693,754	6,22
694,199	6,45
694,643	6,71
695,088	6,94
695,532	7,14
695,977	7,39
696,421	7,61
696,865	7,78
697,309	8,09
697,753	8,32
698,197	8,69
698,64	8,94
699,084	9,21
699,527	9,45
699,971	9,69
700,414	9,98
700,857	10,16
701,3	10,41
701,743	10,8
702,186	11,1
702,629	11,28
703,072	11,54
703,515	11,79
703,957	11,96
704,399	12,27
704,842	12,51
705,284	12,74
705,726	13
706,168	13,27
706,61	13,57
707,052	13,59
707,494	13,88
707,935	14,13
708,377	14,62
708,818	14,55
709,26	14,86
709,701	14,99
710,142	15,35
710,583	15,59
711,024	15,59
711,465	15,82
711,905	16,06
712,346	16,26
712,787	16,42
713,227	16,76
713,667	16,95
714,108	16,92
714,548	17,46
714,988	17,47
715,428	17,83
715,868	18,07
716,307	18,01
716,747	18,13
717,186	18,51
717,626	18,72
718,065	19
718,504	19
718,944	19,14
719,383	19,37
719,822	19,34
720,261	19,61
720,699	19,68
721,138	19,87
721,576	20,23
722,015	20,27
722,453	20,27
722,892	20,58
723,33	20,68
723,768	21,04
724,206	20,91
724,644	21,02
725,081	21,19
725,519	21,34
725,957	21,27
726,394	21,44
726,832	21,61
727,269	21,51
727,706	21,56
728,143	22,04
728,58	22,05
729,017	22,01
729,454	22,16
729,89	22,37
730,327	22,18
730,764	22,56
731,2	22,34
731,636	22,61
732,072	22,82
732,509	22,83
732,945	22,88
733,38	22,7
733,816	22,97
734,252	23,07
734,688	23,02
735,123	23,06
735,559	23,19
735,994	23,29
736,429	23,3
736,864	23,51
737,299	23,24
737,734	23,52
738,169	23,46
738,604	23,48
739,038	23,11
739,473	23,37
739,907	23,41
740,342	23,53
740,776	23,5
741,21	23,49
741,644	23,63
742,078	23,6
742,512	23,47
742,946	23,7
743,379	23,62
743,813	23,61
744,246	23,63
744,68	23,57
745,113	23,6
745,546	23,48
745,979	23,59
746,412	23,65
746,845	23,6
747,278	23,64
747,711	23,24
748,143	23,65
748,576	23,4
749,008	23,6
749,441	23,49
749,873	23,39
750,305	23,49
750,737	23,42
751,169	23,51
751,601	23,3
752,032	23,26
752,464	23,26
752,896	23,25
753,327	23,45
753,758	23,42
754,19	23,27
754,621	23,29
755,052	23,48
755,483	23,55
755,914	23,25
756,344	23,29
756,775	23,29
757,206	23,46
757,636	23,31
758,066	23,29
758,497	23,15
758,927	23,18
759,357	23,36
759,787	23,15
760,217	23,15
760,647	23,19
761,076	23,23
761,506	22,99
761,935	23
762,365	23,09
762,794	22,93
763,223	23,03
763,653	23,03
764,082	22,81
764,51	22,94
764,939	22,93
765,368	22,93
765,797	23,19
766,225	23,02
766,654	22,75
767,082	22,85
767,51	22,84
767,938	22,72
768,367	22,84
768,795	22,63
769,222	23,06
769,65	23,12
770,078	22,63
770,505	22,73
770,933	22,84
771,36	22,9
771,788	22,85
772,215	22,74
772,642	22,81
773,069	22,67
773,496	22,63
773,923	22,7
774,349	22,53
774,776	22,83
775,203	22,57
775,629	22,59
776,055	22,62
776,482	22,74
776,908	22,67
777,334	22,51
777,76	22,61
778,186	22,71
778,611	22,42
779,037	22,48
779,463	22,45
779,888	22,46
780,314	22,47
780,739	22,63
781,164	22,75
781,589	22,36
782,014	22,53
782,439	22,39
782,864	22,51
783,289	22,51
783,713	22,44
784,138	22,58
784,562	22,44
784,987	22,45
785,411	22,46
785,835	22,41
786,259	22,36
786,683	22,68
787,107	22,5
787,531	22,45
787,954	22,45
788,378	22,25
788,802	22,5
789,225	22,4
789,648	22,67
790,071	22,13
790,495	22,39
790,918	22,54
791,34	22,41
791,763	22,45
792,186	22,46
792,609	22,46
793,031	22,16
793,454	22,26
793,876	22,57
794,298	22,14
794,721	22,22
795,143	22,4
795,565	22,16
795,986	22,13
796,408	22,17
796,83	22,18
797,252	22,42
797,673	22,43
798,094	22,53
798,516	22,31
798,937	22,32
799,358	22,19
799,779	22,29
800,2	22,25
800,621	22,33
801,042	22,37
801,462	22,42
801,883	22,12
802,303	22,15
802,724	22,3
803,144	22,18
803,564	22,16
803,984	22,17
804,404	22,25
804,824	22,2
805,244	22,4
805,664	22,33
806,084	22,38
806,503	22,28
806,923	22,18
807,342	22,15
807,761	21,95
808,18	22,03
808,599	22,03
809,018	22,18
809,437	22,15
809,856	22,16
810,275	22,38
810,693	22,3
811,112	22,54
811,53	22,25
811,949	22,47
812,367	22,33
812,785	22,31
813,203	22,24
813,621	22,32
814,039	22
814,457	22,17
814,874	21,94
815,292	22,23
815,709	22,08
816,127	22,16
816,544	22,19
816,961	22,07
817,378	22,22
817,795	22,35
818,212	22,3
818,629	22,29
819,046	22,28
819,462	22,04
819,879	22,28
820,295	21,98
820,712	22,11
821,128	22,04
821,544	22,03
821,96	22,27
822,376	22,22
822,792	22,23
823,208	22,36
823,624	22,07
824,039	22,21
824,455	22,15
824,87	22,01
825,286	22,18
825,701	22,1
826,116	22,04
826,531	22,12
826,946	22,17
827,361	22
827,776	22,18
828,19	22,15
828,605	21,99
829,02	22,21
829,434	21,92
829,848	21,89
830,263	22,08
830,677	22,05
831,091	21,92
831,505	21,78
831,919	22,11
832,332	22,02
832,746	21,98
833,16	22,12
833,573	22,12
833,987	22,25
834,4	22,04
834,813	21,88
835,226	21,91
835,639	22,09
836,052	21,85
836,465	22,04
836,878	21,99
837,29	21,83
837,703	22,07
838,116	21,89
838,528	21,97
838,94	22,26
839,352	21,87
839,765	22,04
840,177	22,1
840,589	21,92
841	21,95
841,412	21,94
841,824	21,97
842,235	21,91
842,647	22,02
843,058	21,99
843,47	21,87
843,881	22,18
844,292	21,74
844,703	22,06
845,114	21,91
845,525	21,91
845,935	21,76
846,346	21,92
846,757	21,99
