Data from A2_Relative__0__00000.txt Node

Date: Thu Feb 01 16:14:12 CET 2024
User: diatiterra
Spectrometer: HDX00911
Trigger mode: 0
Integration Time (sec): 6,000000E-3
Scans to average: 2
Nonlinearity correction enabled: false
Boxcar width: 0
Storing dark spectrum: false
XAxis mode: Wavelengths
Number of Pixels in Spectrum: 2068
>>>>>Begin Spectral Data<<<<<
194,468	70,77
195,025	30,56
195,581	51,52
196,138	41,18
196,694	39,56
197,251	50,79
197,807	34,88
198,363	34,32
198,919	34,78
199,474	27,39
200,03	35,23
200,586	24,05
201,141	25,77
201,696	36,42
202,251	19,34
202,806	29,31
203,361	34,97
203,916	41,62
204,471	30,43
205,025	40,54
205,58	30,64
206,134	30,32
206,688	28,27
207,242	40,12
207,796	28,79
208,35	34,88
208,904	38,98
209,457	28,24
210,011	36,81
210,564	33,87
211,117	40,52
211,67	34,27
212,223	36,08
212,776	24,06
213,329	33,69
213,881	28,5
214,434	35,5
214,986	36,14
215,538	30,98
216,09	33,33
216,642	48,19
217,194	32,94
217,746	39,43
218,297	33,33
218,849	42,44
219,4	21,67
219,951	33,14
220,502	31,36
221,053	25
221,604	36,69
222,155	34,22
222,705	28,07
223,256	29,78
223,806	22,86
224,356	32,47
224,906	35,76
225,456	26,2
226,006	25,14
226,556	38,92
227,106	35,37
227,655	28,8
228,204	25,42
228,754	32,18
229,303	25,29
229,852	41,11
230,401	29,63
230,949	35,03
231,498	32,98
232,047	36,11
232,595	35,63
233,143	33,16
233,691	23,08
234,239	29,51
234,787	29,07
235,335	37,79
235,883	28,42
236,43	30,32
236,978	34,04
237,525	23,62
238,072	27,22
238,619	33,54
239,166	27,94
239,713	30,73
240,26	39,18
240,806	27,61
241,353	23,84
241,899	27,47
242,445	21,3
242,991	29,73
243,537	24,84
244,083	28,57
244,629	32
245,174	29,89
245,72	29,61
246,265	30,89
246,81	22,16
247,355	32,42
247,9	23,53
248,445	28,03
248,99	25
249,534	32,58
250,079	32,53
250,623	28,8
251,168	28,16
251,712	33,53
252,256	18,63
252,8	15,82
253,343	37,91
253,887	24,59
254,43	39,2
254,974	27,37
255,517	30,51
256,06	33,52
256,603	25,28
257,146	28,73
257,689	28,04
258,232	21,69
258,774	33,93
259,317	26,92
259,859	30,37
260,401	24,16
260,943	27,39
261,485	36,76
262,027	29,63
262,569	30,46
263,11	20,34
263,652	31,87
264,193	17,05
264,734	19,88
265,275	22,92
265,816	27,57
266,357	35,98
266,898	16,16
267,438	25,95
267,979	30,11
268,519	33,93
269,059	34,94
269,6	22,95
270,14	26,02
270,68	28,77
271,219	31,61
271,759	39,1
272,298	32,97
272,838	29,82
273,377	34,08
273,916	28,19
274,455	34,87
274,994	30,56
275,533	31,74
276,072	22,16
276,61	33,73
277,149	29,41
277,687	28,31
278,225	30,59
278,763	17,34
279,301	32,98
279,839	30,85
280,377	27,95
280,914	24,74
281,452	34,64
281,989	22,94
282,526	35,44
283,064	33,75
283,601	34,83
284,137	28,83
284,674	28,65
285,211	35,48
285,747	33,67
286,284	25,29
286,82	34,38
287,356	27,32
287,892	41,44
288,428	19,54
288,964	22,04
289,5	23,7
290,035	34,66
290,571	28,04
291,106	30,34
291,641	36,05
292,176	33,87
292,711	29,07
293,246	26,09
293,781	31,49
294,315	26,02
294,85	29,68
295,384	37,57
295,918	37,77
296,453	25,95
296,987	31,69
297,52	32,61
298,054	34,48
298,588	32,32
299,121	38,55
299,655	32,94
300,188	29,33
300,721	31,68
301,254	38,1
301,787	33,87
302,32	31,61
302,853	31,84
303,385	29,89
303,918	41,71
304,45	31,12
304,982	31,64
305,514	33,51
306,046	30,43
306,578	40,64
307,11	38,12
307,641	34,62
308,173	38,76
308,704	34,09
309,236	30,96
309,767	36,84
310,298	37,11
310,829	38,5
311,359	35,27
311,89	21,64
312,421	29,19
312,951	32
313,481	25,88
314,012	30,73
314,542	29,26
315,072	34,81
315,601	35,06
316,131	23,4
316,661	32,95
317,19	33,53
317,72	32,53
318,249	38,89
318,778	27,21
319,307	38,02
319,836	31,64
320,365	30,16
320,893	35,75
321,422	39,88
321,95	42,19
322,479	44,85
323,007	41,57
323,535	36,42
324,063	37,85
324,591	38,62
325,118	35,48
325,646	34,57
326,173	40,44
326,701	29,74
327,228	38,22
327,755	38,07
328,282	38,55
328,809	33,53
329,336	37,31
329,862	35,43
330,389	30,93
330,915	33,16
331,441	26,9
331,968	46,07
332,494	33,16
333,02	32,4
333,545	28,57
334,071	24,1
334,597	35,96
335,122	35,64
335,648	36,06
336,173	36,22
336,698	31,38
337,223	25,67
337,748	32,34
338,272	12,23
338,797	24,04
339,322	30,27
339,846	27,96
340,37	20,22
340,894	26,87
341,419	35,63
341,942	27,51
342,466	35,75
342,99	23,56
343,514	23,53
344,037	27,13
344,56	30,14
345,084	26,37
345,607	28,64
346,13	28,64
346,653	30,37
347,175	29,67
347,698	29,65
348,221	30,99
348,743	27,73
349,265	24,63
349,787	22,93
350,309	18,62
350,831	26,36
351,353	21,33
351,875	27,13
352,397	18,1
352,918	30,83
353,439	26,16
353,961	21,26
354,482	28,94
355,003	18,93
355,524	20,58
356,044	25,73
356,565	22,76
357,086	17,98
357,606	13,19
358,126	19,92
358,646	22,3
359,167	21,3
359,687	24,91
360,206	23,33
360,726	9,34
361,246	21,51
361,765	20,29
362,285	20,07
362,804	19,42
363,323	13,12
363,842	17,96
364,361	18,25
364,88	18,12
365,398	20
365,917	16,05
366,435	21,67
366,954	17,92
367,472	22,15
367,99	15,26
368,508	19
369,026	19,87
369,544	17,3
370,061	18,1
370,579	21,91
371,096	14,6
371,613	25,07
372,131	19,13
372,648	18,52
373,165	14,52
373,681	11,14
374,198	16,62
374,715	15,38
375,231	18,23
375,747	14,81
376,264	14,62
376,78	17,26
377,296	12,74
377,812	11,9
378,327	13,03
378,843	13,04
379,359	15,57
379,874	17,87
380,389	11,96
380,905	14,62
381,42	10,89
381,935	15,78
382,449	11,98
382,964	8,73
383,479	12,14
383,993	14,91
384,508	15,04
385,022	9,67
385,536	12,74
386,05	12,62
386,564	13,14
387,078	15,05
387,592	8,05
388,105	11,57
388,619	10,24
389,132	12,81
389,645	10,24
390,158	11,55
390,671	13,57
391,184	11,92
391,697	11,94
392,21	9,62
392,722	11,02
393,235	10,57
393,747	10,98
394,259	11,41
394,771	11,32
395,283	10,29
395,795	12,11
396,307	7,29
396,818	9,77
397,33	11,71
397,841	11,31
398,353	9,33
398,864	10,44
399,375	9,35
399,886	8,6
400,397	10,46
400,907	9,16
401,418	8,56
401,928	9,12
402,439	9,39
402,949	7,26
403,459	8,53
403,969	7,88
404,479	8,37
404,989	6,9
405,498	7,05
406,008	5,96
406,517	6,8
407,027	7,3
407,536	7,09
408,045	6,9
408,554	6,76
409,063	5,29
409,572	5,46
410,08	4,93
410,589	4,26
411,097	4,31
411,606	4,38
412,114	3,79
412,622	4,06
413,13	4,89
413,638	4,53
414,145	3,95
414,653	3,99
415,16	4,27
415,668	3,94
416,175	4,21
416,682	3,03
417,189	3,73
417,696	3,48
418,203	3,19
418,71	3,33
419,216	4,05
419,723	3,65
420,229	3,1
420,735	3,16
421,242	2,69
421,748	3,05
422,254	2,76
422,759	2,44
423,265	2,68
423,771	3,37
424,276	2,96
424,781	3,43
425,287	2,71
425,792	2,92
426,297	2,75
426,802	3,13
427,306	2,56
427,811	2,87
428,316	2,86
428,82	2,73
429,324	3,14
429,829	2,53
430,333	2,94
430,837	2,23
431,34	2,69
431,844	2,85
432,348	2,24
432,851	2,28
433,355	2,37
433,858	2,6
434,361	2,61
434,864	2,83
435,367	2,66
435,87	2,6
436,373	2,6
436,876	2,76
437,378	2,58
437,88	2,2
438,383	2,44
438,885	2,63
439,387	2,31
439,889	2,23
440,391	2,52
440,892	2,59
441,394	2,51
441,896	2,44
442,397	2,73
442,898	2,5
443,399	2,38
443,9	2,57
444,401	2,8
444,902	2,53
445,403	2,83
445,903	2,4
446,404	2,44
446,904	2,38
447,405	2,41
447,905	2,38
448,405	2,93
448,905	2,41
449,404	2,51
449,904	2,54
450,404	2,52
450,903	2,24
451,403	2,27
451,902	2,47
452,401	2,76
452,9	2,73
453,399	2,83
453,898	2,38
454,396	2,4
454,895	2,43
455,393	2,42
455,892	2,31
456,39	2,7
456,888	2,22
457,386	2,51
457,884	2,27
458,382	2,23
458,879	2,44
459,377	2,72
459,874	2,62
460,372	2,38
460,869	2,43
461,366	2,45
461,863	2,63
462,36	2,19
462,857	2,3
463,353	2,27
463,85	2,47
464,346	2,43
464,843	2,25
465,339	2,18
465,835	2,5
466,331	2,48
466,827	2,43
467,323	2,44
467,818	2,31
468,314	2,36
468,809	2,13
469,305	2,23
469,8	2,25
470,295	2,48
470,79	2,39
471,285	2,47
471,78	2,21
472,274	2,33
472,769	2,19
473,263	2,35
473,758	2,19
474,252	2,53
474,746	2,25
475,24	2,2
475,734	2,06
476,228	2,41
476,721	2,44
477,215	2,25
477,708	2,45
478,202	2,61
478,695	2,38
479,188	2,29
479,681	2,7
480,174	2,37
480,667	2,13
481,159	2,65
481,652	2,13
482,144	2,52
482,637	2,17
483,129	2,49
483,621	2,61
484,113	2,39
484,605	2,47
485,097	2,49
485,588	2,47
486,08	2,62
486,571	2,51
487,063	2,46
487,554	2,31
488,045	2,69
488,536	2,25
489,027	2,24
489,518	2,44
490,008	2,31
490,499	2,27
490,989	2,51
491,48	2,64
491,97	2,37
492,46	2,56
492,95	2,25
493,44	2,76
493,93	2,45
494,419	2,5
494,909	2,61
495,398	2,51
495,888	2,85
496,377	2,74
496,866	2,62
497,355	2,78
497,844	2,97
498,333	2,79
498,821	2,75
499,31	2,74
499,798	2,82
500,287	2,91
500,775	2,81
501,263	3,07
501,751	2,73
502,239	3,08
502,727	3,11
503,215	2,85
503,702	3,03
504,19	3,1
504,677	3,1
505,164	3,18
505,651	3,08
506,139	3,23
506,625	3,1
507,112	3,34
507,599	3,51
508,086	3,73
508,572	3,54
509,058	3,65
509,545	3,69
510,031	3,81
510,517	3,78
511,003	3,88
511,489	3,78
511,974	3,89
512,46	4,2
512,946	4,26
513,431	4,32
513,916	4,22
514,401	4,38
514,887	4,62
515,371	4,39
515,856	4,75
516,341	4,91
516,826	4,69
517,31	5,34
517,795	4,95
518,279	5,35
518,763	5,45
519,247	5,62
519,731	5,86
520,215	5,93
520,699	6,05
521,182	6,01
521,666	6,21
522,149	6,42
522,633	6,47
523,116	6,58
523,599	6,7
524,082	6,64
524,565	7,04
525,048	7,12
525,53	7,07
526,013	7,16
526,495	7,54
526,978	7,38
527,46	7,82
527,942	7,98
528,424	8,03
528,906	8,24
529,388	8,19
529,87	8,39
530,351	8,72
530,833	8,56
531,314	8,65
531,795	8,78
532,277	8,82
532,758	8,72
533,238	9,09
533,719	9,1
534,2	9,3
534,681	8,96
535,161	9,36
535,642	9,19
536,122	9,38
536,602	9,36
537,082	9,32
537,562	9,46
538,042	9,62
538,522	9,59
539,001	9,28
539,481	9,16
539,96	9,65
540,44	9,84
540,919	9,51
541,398	9,74
541,877	9,81
542,356	9,56
542,835	10,05
543,313	9,86
543,792	10
544,27	9,82
544,749	9,66
545,227	10,04
545,705	9,89
546,183	9,86
546,661	10,06
547,139	10,03
547,616	10,08
548,094	10,04
548,571	9,95
549,049	9,97
549,526	10,22
550,003	10
550,48	10,26
550,957	10,05
551,434	9,93
551,911	10,16
552,387	10,39
552,864	10,16
553,34	10,17
553,817	10,18
554,293	10,16
554,769	10,15
555,245	10,27
555,721	10,11
556,197	10
556,672	9,86
557,148	10,19
557,623	9,94
558,099	10,13
558,574	9,95
559,049	10,36
559,524	9,72
559,999	9,72
560,474	9,8
560,948	9,65
561,423	9,52
561,897	9,75
562,372	9,65
562,846	9,74
563,32	9,59
563,794	9,65
564,268	9,44
564,742	9,56
565,216	9,38
565,69	9,31
566,163	9,31
566,636	9,19
567,11	8,91
567,583	8,75
568,056	8,62
568,529	8,83
569,002	8,46
569,475	8,61
569,947	8,42
570,42	8,26
570,892	8,51
571,365	8,23
571,837	8,11
572,309	7,98
572,781	7,96
573,253	7,93
573,725	7,73
574,197	7,65
574,668	7,63
575,14	7,44
575,611	7,32
576,082	7,31
576,554	7,49
577,025	7,23
577,496	7,13
577,967	7,02
578,437	7
578,908	7,02
579,379	7,06
579,849	7,01
580,319	6,72
580,79	6,9
581,26	6,51
581,73	6,46
582,2	6,56
582,669	6,66
583,139	6,65
583,609	6,45
584,078	6,2
584,548	6,38
585,017	6,34
585,486	6,24
585,955	6,23
586,424	6,51
586,893	6,26
587,362	5,9
587,83	6,1
588,299	6,13
588,767	6,08
589,236	6,08
589,704	5,98
590,172	5,77
590,64	5,85
591,108	5,91
591,576	5,86
592,043	5,73
592,511	5,7
592,978	5,53
593,446	5,75
593,913	5,61
594,38	5,68
594,847	5,81
595,314	5,87
595,781	5,62
596,248	5,65
596,715	5,58
597,181	5,62
597,647	5,55
598,114	5,57
598,58	5,51
599,046	5,56
599,512	5,48
599,978	5,51
600,444	5,52
600,91	5,49
601,375	5,53
601,841	5,38
602,306	5,43
602,771	5,33
603,236	5,43
603,702	5,24
604,167	5,4
604,631	5,32
605,096	5,22
605,561	5,36
606,025	5,27
606,49	5,31
606,954	5,17
607,418	5,21
607,882	5,07
608,347	4,98
608,81	5,23
609,274	4,99
609,738	5,13
610,202	5,05
610,665	4,92
611,128	4,93
611,592	4,85
612,055	4,83
612,518	4,85
612,981	4,91
613,444	4,6
613,907	4,67
614,369	4,74
614,832	4,68
615,294	4,7
615,757	4,46
616,219	4,5
616,681	4,56
617,143	4,31
617,605	4,42
618,067	4,46
618,529	4,4
618,99	4,46
619,452	4,37
619,913	4,42
620,375	4,28
620,836	4,34
621,297	4,39
621,758	4,33
622,219	4,31
622,68	4,24
623,14	4,26
623,601	4,15
624,061	4,24
624,522	4,21
624,982	4,09
625,442	4,17
625,902	4,13
626,362	4,22
626,822	4,2
627,282	4,23
627,742	4,07
628,201	4,27
628,661	4,09
629,12	4,05
629,579	4,08
630,038	4,24
630,497	4,17
630,956	4,08
631,415	4,13
631,874	4,15
632,332	3,97
632,791	4,06
633,249	4,01
633,708	3,99
634,166	4,01
634,624	3,96
635,082	3,91
635,54	3,96
635,998	3,82
636,455	3,75
636,913	3,81
637,37	3,89
637,828	3,65
638,285	3,77
638,742	3,68
639,199	3,69
639,656	3,67
640,113	3,65
640,57	3,51
641,027	3,49
641,483	3,5
641,94	3,51
642,396	3,43
642,852	3,38
643,309	3,39
643,765	3,29
644,221	3,26
644,676	3,27
645,132	3,23
645,588	3,19
646,043	3,22
646,499	3,14
646,954	3,12
647,409	3,13
647,864	3,08
648,319	3,09
648,774	2,99
649,229	3,05
649,684	3,03
650,139	2,97
650,593	2,92
651,047	2,9
651,502	2,94
651,956	2,95
652,41	2,91
652,864	2,95
653,318	2,93
653,772	2,88
654,225	2,92
654,679	2,87
655,133	2,84
655,586	2,81
656,039	2,97
656,492	2,85
656,946	2,82
657,399	2,76
657,851	2,79
658,304	2,78
658,757	2,71
659,209	2,72
659,662	2,68
660,114	2,76
660,567	2,67
661,019	2,66
661,471	2,64
661,923	2,74
662,375	2,74
662,826	2,62
663,278	2,62
663,73	2,59
664,181	2,69
664,632	2,71
665,084	2,59
665,535	2,65
665,986	2,59
666,437	2,59
666,888	2,68
667,338	2,71
667,789	2,71
668,24	2,71
668,69	2,65
669,14	2,74
669,591	2,72
670,041	2,65
670,491	2,78
670,941	2,86
671,391	2,77
671,84	2,77
672,29	2,87
672,74	2,74
673,189	2,9
673,638	2,93
674,088	2,9
674,537	3,06
674,986	3,05
675,435	3,08
675,883	3,12
676,332	3,1
676,781	3,18
677,229	3,18
677,678	3,32
678,126	3,33
678,574	3,32
679,022	3,48
679,47	3,49
679,918	3,52
680,366	3,65
680,814	3,61
681,261	3,74
681,709	3,68
682,156	3,73
682,604	3,75
683,051	3,87
683,498	3,89
683,945	3,88
684,392	4
684,839	4,06
685,286	4,06
685,732	4,02
686,179	4,15
686,625	4,08
687,071	4,17
687,518	4,16
687,964	4,16
688,41	4,33
688,856	4,37
689,301	4,41
689,747	4,36
690,193	4,68
690,638	4,68
691,084	4,62
691,529	4,77
691,974	4,98
692,419	5,11
692,864	5,25
693,309	5,42
693,754	5,55
694,199	5,78
694,643	5,93
695,088	6,28
695,532	6,42
695,977	6,53
696,421	6,83
696,865	6,99
697,309	7,41
697,753	7,62
698,197	7,92
698,64	8,23
699,084	8,5
699,527	8,63
699,971	9,09
700,414	9,44
700,857	9,68
701,3	9,87
701,743	10,23
702,186	10,4
702,629	10,97
703,072	11,27
703,515	11,67
703,957	11,79
704,399	12,04
704,842	12,43
705,284	12,62
705,726	12,93
706,168	13,42
706,61	13,63
707,052	13,88
707,494	14,43
707,935	14,7
708,377	14,98
708,818	15,22
709,26	15,56
709,701	15,84
710,142	16,04
710,583	16,58
711,024	16,71
711,465	17,16
711,905	17,57
712,346	17,69
712,787	17,92
713,227	18,5
713,667	18,87
714,108	19,14
714,548	19,57
714,988	19,73
715,428	19,98
715,868	20,19
716,307	20,4
716,747	20,95
717,186	21,44
717,626	21,63
718,065	21,93
718,504	22,01
718,944	22,68
719,383	22,7
719,822	22,72
720,261	23,19
720,699	23,5
721,138	23,7
721,576	24,26
722,015	24,38
722,453	24,52
722,892	24,89
723,33	25,25
723,768	25,47
724,206	25,78
724,644	26,12
725,081	26,04
725,519	26,48
725,957	26,77
726,394	26,83
726,832	27,16
727,269	27,55
727,706	27,57
728,143	27,7
728,58	27,59
729,017	28,03
729,454	28,3
729,89	28,48
730,327	28,73
730,764	28,7
731,2	29
731,636	28,9
732,072	29,22
732,509	29,29
732,945	29,56
733,38	29,74
733,816	29,82
734,252	29,79
734,688	30,07
735,123	30,13
735,559	30,09
735,994	30,36
736,429	30,44
736,864	30,35
737,299	30,39
737,734	30,59
738,169	31,01
738,604	30,76
739,038	30,92
739,473	31,04
739,907	31,07
740,342	31
740,776	30,85
741,21	31,03
741,644	31,35
742,078	31,36
742,512	31,17
742,946	31,23
743,379	31,57
743,813	31,36
744,246	31,49
744,68	31,61
745,113	31,52
745,546	31,57
745,979	31,48
746,412	31,66
746,845	31,78
747,278	31,76
747,711	31,62
748,143	31,47
748,576	31,4
749,008	31,59
749,441	31,63
749,873	31,49
750,305	31,55
750,737	31,77
751,169	31,45
751,601	31,7
752,032	31,9
752,464	31,58
752,896	31,51
753,327	31,54
753,758	31,84
754,19	31,46
754,621	31,68
755,052	31,43
755,483	31,4
755,914	31,35
756,344	31,78
756,775	31,55
757,206	31,16
757,636	31,63
758,066	31,17
758,497	31,47
758,927	31,47
759,357	31,47
759,787	31,42
760,217	31,26
760,647	31,39
761,076	31,43
761,506	31,41
761,935	31,26
762,365	31,28
762,794	31,16
763,223	31,14
763,653	31,22
764,082	30,76
764,51	30,98
764,939	31,26
765,368	31,32
765,797	31,01
766,225	31,08
766,654	30,94
767,082	31,17
767,51	30,87
767,938	30,71
768,367	30,7
768,795	31,03
769,222	30,8
769,65	30,66
770,078	30,88
770,505	30,64
770,933	30,43
771,36	30,88
771,788	30,71
772,215	30,82
772,642	30,48
773,069	30,76
773,496	30,48
773,923	30,87
774,349	30,59
774,776	30,79
775,203	30,89
775,629	30,81
776,055	30,63
776,482	30,38
776,908	30,57
777,334	30,44
777,76	30,48
778,186	30,75
778,611	30,44
779,037	30,36
779,463	30,57
779,888	30,21
780,314	30,4
780,739	30,31
781,164	30,55
781,589	30,51
782,014	30,29
782,439	30,42
782,864	30,78
783,289	30,12
783,713	30,65
784,138	30,36
784,562	30,77
784,987	30,67
785,411	30,57
785,835	30,56
786,259	30,04
786,683	30,43
787,107	30,3
787,531	30,33
787,954	30,4
788,378	30,35
788,802	30,4
789,225	30,25
789,648	30
790,071	30,33
790,495	30,05
790,918	30,3
791,34	30,35
791,763	30,43
792,186	30,33
792,609	30,02
793,031	30,42
793,454	30,08
793,876	29,9
794,298	30,18
794,721	30,16
795,143	30,2
795,565	30,2
795,986	30,17
796,408	29,92
796,83	29,91
797,252	30,42
797,673	30,09
798,094	30,16
798,516	30,33
798,937	30,47
799,358	30,33
799,779	30,12
800,2	29,91
800,621	30,07
801,042	29,96
801,462	30,14
801,883	30,33
802,303	30,03
802,724	29,99
803,144	30,06
803,564	29,93
803,984	30,07
804,404	29,67
804,824	29,96
805,244	29,96
805,664	29,91
806,084	30,07
806,503	29,7
806,923	30,28
807,342	29,75
807,761	29,98
808,18	30,17
808,599	30,02
809,018	30,1
809,437	30,06
809,856	29,84
810,275	29,77
810,693	29,9
811,112	30,16
811,53	29,78
811,949	30,09
812,367	30,06
812,785	30,17
813,203	29,79
813,621	29,98
814,039	30,18
814,457	29,72
814,874	30,1
815,292	29,91
815,709	29,82
816,127	29,91
816,544	29,91
816,961	29,49
817,378	30
817,795	29,78
818,212	29,87
818,629	29,82
819,046	30,05
819,462	29,75
819,879	30,07
820,295	30,23
820,712	29,74
821,128	30,14
821,544	30,06
821,96	29,94
822,376	29,82
822,792	29,65
823,208	30,03
823,624	29,62
824,039	29,74
824,455	29,91
824,87	29,89
825,286	29,87
825,701	29,79
826,116	29,69
826,531	29,94
826,946	30,19
827,361	30,13
827,776	29,63
828,19	29,67
828,605	29,79
829,02	29,87
829,434	29,74
829,848	29,7
830,263	29,53
830,677	29,88
831,091	29,97
831,505	30,25
831,919	29,89
832,332	29,81
832,746	29,56
833,16	29,5
833,573	29,39
833,987	30
834,4	29,71
834,813	29,63
835,226	29,64
835,639	29,9
836,052	30
836,465	29,7
836,878	29,76
837,29	29,93
837,703	29,52
838,116	29,42
838,528	29,5
838,94	29,43
839,352	29,59
839,765	29,57
840,177	29,46
840,589	29,65
841	29,72
841,412	29,6
841,824	29,8
842,235	29,63
842,647	29,75
843,058	29,44
843,47	29,53
843,881	29,97
844,292	29,79
844,703	29,7
845,114	29,6
845,525	29,53
845,935	29,48
846,346	29,81
846,757	29,85
847,167	29,22
847,577	29,71
847,988	29,38
848,398	29,67
848,808	29,48
849,218	29,77
849,628	29,79
850,038	29,47
850,448	29,54
850,857	29,73
