Data from A2_Relative__2__00002.txt Node

Date: Thu Feb 01 16:14:21 CET 2024
User: diatiterra
Spectrometer: HDX00911
Trigger mode: 0
Integration Time (sec): 6,000000E-3
Scans to average: 2
Nonlinearity correction enabled: false
Boxcar width: 0
Storing dark spectrum: false
XAxis mode: Wavelengths
Number of Pixels in Spectrum: 2068
>>>>>Begin Spectral Data<<<<<
194,468	66,15
195,025	45,83
195,581	62,12
196,138	47,06
196,694	45,05
197,251	47,62
197,807	32,56
198,363	34,91
198,919	38,59
199,474	31,85
200,03	42,05
200,586	33,54
201,141	24,74
201,696	26,01
202,251	31,49
202,806	33,33
203,361	39,34
203,916	41,62
204,471	28,26
205,025	37,84
205,58	31,79
206,134	34,04
206,688	28,27
207,242	27,33
207,796	33,33
208,35	33,14
208,904	32,77
209,457	32,35
210,011	38,65
210,564	34,95
211,117	32,68
211,67	36,52
212,223	39,69
212,776	42,78
213,329	38,5
213,881	27,98
214,434	36,5
214,986	22,29
215,538	25,54
216,09	37,5
216,642	36,14
217,194	35,88
217,746	32
218,297	36,11
218,849	39,53
219,4	34,44
219,951	43,43
220,502	24,85
221,053	26,79
221,604	44,97
222,155	36,36
222,705	36,26
223,256	39,33
223,806	23,43
224,356	26,29
224,906	36,97
225,456	29,95
226,006	30,05
226,556	41,62
227,106	28,05
227,655	34,03
228,204	27,12
228,754	37,36
229,303	31,18
229,852	39,44
230,401	32,1
230,949	31,07
231,498	36,17
232,047	30
232,595	32,18
233,143	35,79
233,691	32,42
234,239	31,15
234,787	29,07
235,335	47,09
235,883	29,47
236,43	34,19
236,978	36,17
237,525	26,13
238,072	32,22
238,619	37,8
239,166	31,37
239,713	24,58
240,26	33,92
240,806	31,9
241,353	29,65
241,899	30,22
242,445	23,08
242,991	34,05
243,537	34,64
244,083	31,32
244,629	36,5
245,174	28,74
245,72	32,96
246,265	27,23
246,81	32,39
247,355	34,07
247,9	28,24
248,445	30,57
248,99	32,78
249,534	26,4
250,079	31,33
250,623	28,8
251,168	33,91
251,712	35,88
252,256	24,84
252,8	32,77
253,343	41,21
253,887	20,77
254,43	39,2
254,974	44,69
255,517	37,29
256,06	46,59
256,603	39,33
257,146	26,52
257,689	33,33
258,232	34,92
258,774	44,64
259,317	32,42
259,859	45,03
260,401	24,16
260,943	33,12
261,485	38,92
262,027	35,98
262,569	38,41
263,11	30,51
263,652	40,11
264,193	31,82
264,734	29,82
265,275	31,77
265,816	32,97
266,357	36,51
266,898	23,74
267,438	30,38
267,979	25
268,519	29,17
269,059	36,75
269,6	37,16
270,14	25
270,68	36,3
271,219	39,66
271,759	37,18
272,298	40,54
272,838	33,92
273,377	34,64
273,916	42,28
274,455	33,85
274,994	35
275,533	35,93
276,072	40,12
276,61	43,2
277,149	35,29
277,687	24,7
278,225	32,94
278,763	38,15
279,301	31,91
279,839	40,43
280,377	29,19
280,914	30,41
281,452	43,02
281,989	33,53
282,526	34,81
283,064	30,63
283,601	34,83
284,137	38,65
284,674	39,33
285,211	38,17
285,747	43,72
286,284	24,71
286,82	33,85
287,356	26,8
287,892	48,62
288,428	35,06
288,964	41,94
289,5	32,37
290,035	34,09
290,571	39,68
291,106	34,83
291,641	43,02
292,176	34,41
292,711	34,3
293,246	35,87
293,781	40,33
294,315	31,12
294,85	25,81
295,384	46,24
295,918	38,83
296,453	39,46
296,987	34,43
297,52	32,07
298,054	49,43
298,588	49,39
299,121	39,66
299,655	35,88
300,188	36,67
300,721	40,99
301,254	36,51
301,787	38,71
302,32	37,82
302,853	36,87
303,385	41,3
303,918	34,86
304,45	36,73
304,982	38,98
305,514	27,13
306,046	36,96
306,578	38,5
307,11	37,57
307,641	46,15
308,173	44,94
308,704	49,43
309,236	32,99
309,767	37,37
310,298	42,77
310,829	34,5
311,359	28,99
311,89	33,33
312,421	38,92
312,951	37,71
313,481	40,59
314,012	32,81
314,542	37,23
315,072	39,78
315,601	46,75
316,131	35,64
316,661	46,02
317,19	35,84
317,72	40,36
318,249	45
318,778	36,73
319,307	36,46
319,836	40,68
320,365	37,04
320,893	41,97
321,422	45,24
321,95	41,67
322,479	51,52
323,007	39,33
323,535	41,62
324,063	36,16
324,591	34,39
325,118	37,1
325,646	34,57
326,173	38,8
326,701	30,77
327,228	45,03
327,755	41,12
328,282	33,52
328,809	41,18
329,336	40,8
329,862	29,14
330,389	33,51
330,915	36,27
331,441	40,94
331,968	43,26
332,494	39,8
333,02	37,99
333,545	30,69
334,071	31,79
334,597	34,27
335,122	28,72
335,648	31,73
336,173	27,57
336,698	29,26
337,223	36,36
337,748	25,87
338,272	27,66
338,797	33,33
339,322	35,68
339,846	31,18
340,37	27,32
340,894	29,85
341,419	39,66
341,942	41,27
342,466	34,2
342,99	23,56
343,514	22,55
344,037	20,21
344,56	29,19
345,084	24,38
345,607	24,76
346,13	24,88
346,653	34,11
347,175	26,79
347,698	24,62
348,221	29,11
348,743	26,05
349,265	26,11
349,787	19,51
350,309	19,43
350,831	26,78
351,353	22,27
351,875	28,74
352,397	24,57
352,918	30,83
353,439	31,65
353,961	29,92
354,482	29,79
355,003	18,93
355,524	26,75
356,044	31,54
356,565	20,73
357,086	25,84
357,606	13,62
358,126	21,84
358,646	26,39
359,167	18,7
359,687	26,39
360,206	24,44
360,726	26,85
361,246	23,77
361,765	20,29
362,285	29
362,804	26,98
363,323	26,95
363,842	25
364,361	18,25
364,88	24,6
365,398	29,82
365,917	20,99
366,435	27,67
366,954	21,5
367,472	21,2
367,99	18,18
368,508	20,33
369,026	22,12
369,544	24,21
370,061	20,77
370,579	23,46
371,096	20,11
371,613	23,93
372,131	21,45
372,648	20,23
373,165	20,82
373,681	24,1
374,198	21,2
374,715	24,5
375,231	24,56
375,747	23,02
376,264	22,72
376,78	23,6
377,296	19,23
377,812	24,56
378,327	26,82
378,843	22,51
379,359	22,64
379,874	24,57
380,389	21,9
380,905	23,66
381,42	23,78
381,935	21,54
382,449	20,25
382,964	21
383,479	18,52
383,993	20,91
384,508	22,56
385,022	20,31
385,536	18,23
386,05	22,6
386,564	20,07
387,078	21,86
387,592	18,32
388,105	19,34
388,619	16,8
389,132	20,16
389,645	17,44
390,158	21,05
390,671	19,05
391,184	17,81
391,697	19,52
392,21	15,93
392,722	17,4
393,235	17,04
393,747	16,47
394,259	19,3
394,771	16,92
395,283	16,89
395,795	17,14
396,307	16,96
396,818	15,3
397,33	17,12
397,841	15,94
398,353	15,64
398,864	15,9
399,375	15,59
399,886	15,89
400,397	15,9
400,907	15,17
401,418	13,4
401,928	14,06
402,439	15,47
402,949	16,18
403,459	12,79
403,969	14,17
404,479	12,09
404,989	12,14
405,498	10,04
406,008	11,68
406,517	12,15
407,027	10,88
407,536	11,1
408,045	11,86
408,554	11,6
409,063	10,39
409,572	9,24
410,08	9,56
410,589	8,75
411,097	8,61
411,606	8,71
412,114	7,94
412,622	7,28
413,13	7,73
413,638	7,04
414,145	6,47
414,653	7,13
415,16	8,13
415,668	6,47
416,175	6,23
416,682	7,09
417,189	6,85
417,696	6,24
418,203	6,23
418,71	6,11
419,216	6,5
419,723	6,47
420,229	5,64
420,735	6,25
421,242	5,1
421,748	5,61
422,254	5,22
422,759	5,52
423,265	5,57
423,771	5,45
424,276	5,44
424,781	5,31
425,287	4,94
425,792	5,57
426,297	5,04
426,802	5,3
427,306	4,88
427,811	5,25
428,316	4,72
428,82	4,89
429,324	4,81
429,829	4,57
430,333	4,96
430,837	5,22
431,34	5,17
431,844	4,59
432,348	4,83
432,851	4,46
433,355	4,49
433,858	4,6
434,361	4,78
434,864	5,05
435,367	4,44
435,87	4,33
436,373	4,45
436,876	5,23
437,378	4,07
437,88	4,36
438,383	4,8
438,885	4,34
439,387	4,68
439,889	3,93
440,391	4,53
440,892	4,78
441,394	4,51
441,896	4,54
442,397	4,8
442,898	4,62
443,399	4,47
443,9	4,84
444,401	4,16
444,902	4,65
445,403	4,73
445,903	4,53
446,404	4,74
446,904	4,72
447,405	4,39
447,905	4,38
448,405	5,01
448,905	3,89
449,404	4,31
449,904	4,9
450,404	4,85
450,903	5,12
451,403	4,45
451,902	5,24
452,401	4,68
452,9	4,99
453,399	4,96
453,898	4,72
454,396	4,76
454,895	5,05
455,393	4,91
455,892	5,33
456,39	4,76
456,888	4,71
457,386	5,33
457,884	4,75
458,382	4,99
458,879	4,93
459,377	4,75
459,874	4,92
460,372	4,97
460,869	4,94
461,366	4,84
461,863	5,03
462,36	5,22
462,857	5,05
463,353	4,54
463,85	5,17
464,346	4,82
464,843	5,01
465,339	4,99
465,835	4,74
466,331	5,45
466,827	5,11
467,323	5,18
467,818	5,03
468,314	5,08
468,809	4,82
469,305	5,12
469,8	5,07
470,295	5,44
470,79	5,11
471,285	5,03
471,78	5,03
472,274	5,14
472,769	4,87
473,263	5,06
473,758	4,9
474,252	5,23
474,746	5,04
475,24	5,07
475,734	5,01
476,228	4,81
476,721	5,08
477,215	4,77
477,708	5,18
478,202	5,08
478,695	5,32
479,188	5,11
479,681	5,13
480,174	5,27
480,667	5,11
481,159	5,15
481,652	4,79
482,144	5,08
482,637	5,23
483,129	4,86
483,621	4,78
484,113	5,13
484,605	5,1
485,097	5,19
485,588	5,26
486,08	5,57
486,571	5,28
487,063	5,23
487,554	5,09
488,045	5,21
488,536	5,19
489,027	5,03
489,518	5,05
490,008	5,45
490,499	5,43
490,989	5,42
491,48	5,42
491,97	5,36
492,46	5,71
492,95	5,72
493,44	5,88
493,93	5,75
494,419	5,79
494,909	5,85
495,398	5,89
495,888	5,77
496,377	6,24
496,866	6,26
497,355	6,35
497,844	6,07
498,333	6,43
498,821	6,39
499,31	6,67
499,798	6,43
500,287	6,8
500,775	6,47
501,263	6,76
501,751	6,92
502,239	7,45
502,727	7,25
503,215	7,14
503,702	7,71
504,19	7,37
504,677	7,68
505,164	7,66
505,651	7,73
506,139	7,92
506,625	7,87
507,112	8,33
507,599	8,19
508,086	8,53
508,572	8,61
509,058	8,97
509,545	8,8
510,031	9,03
510,517	9,55
511,003	9,27
511,489	9,57
511,974	9,63
512,46	9,98
512,946	10,02
513,431	10,24
513,916	10,42
514,401	10,54
514,887	10,78
515,371	10,8
515,856	11,02
516,341	11,24
516,826	11,14
517,31	11,26
517,795	11,94
518,279	11,88
518,763	11,65
519,247	12,09
519,731	12,4
520,215	12,8
520,699	12,54
521,182	13,28
521,666	13,41
522,149	13,35
522,633	13,54
523,116	13,73
523,599	13,63
524,082	14,19
524,565	14,86
525,048	14,33
525,53	15,09
526,013	14,96
526,495	14,84
526,978	14,8
527,46	15,37
527,942	15,26
528,424	15,58
528,906	15,35
529,388	15,54
529,87	16,1
530,351	16,11
530,833	16,21
531,314	16,26
531,795	16,53
532,277	16,33
532,758	16,46
533,238	16,57
533,719	16,81
534,2	17,18
534,681	16,73
535,161	16,88
535,642	17,04
536,122	16,94
536,602	16,86
537,082	16,99
537,562	16,97
538,042	17,18
538,522	17,6
539,001	17,29
539,481	17,12
539,96	17,42
540,44	17,4
540,919	17,54
541,398	17,47
541,877	17,64
542,356	17,48
542,835	17,29
543,313	17,31
543,792	17,46
544,27	17,69
544,749	17,4
545,227	17,95
545,705	18,08
546,183	17,79
546,661	17,5
547,139	17,62
547,616	17,73
548,094	17,76
548,571	17,72
549,049	17,91
549,526	17,88
550,003	17,73
550,48	17,79
550,957	17,67
551,434	18,1
551,911	18,2
552,387	17,98
552,864	18,4
553,34	17,97
553,817	17,87
554,293	17,94
554,769	18,01
555,245	18,19
555,721	18,02
556,197	18,29
556,672	17,95
557,148	17,9
557,623	18,06
558,099	18,12
558,574	17,85
559,049	17,6
559,524	17,96
559,999	17,74
560,474	17,74
560,948	17,58
561,423	17,68
561,897	17,67
562,372	17,77
562,846	17,64
563,32	17,59
563,794	17,6
564,268	17,53
564,742	17,16
565,216	17,09
565,69	17,52
566,163	17,11
566,636	16,98
567,11	16,81
567,583	16,82
568,056	16,52
568,529	16,24
569,002	16,76
569,475	16,61
569,947	16,42
570,42	16,05
570,892	16,14
571,365	16,07
571,837	15,88
572,309	15,76
572,781	15,84
573,253	15,59
573,725	15,53
574,197	15,51
574,668	15,19
575,14	14,97
575,611	15,27
576,082	14,72
576,554	15,07
577,025	14,87
577,496	14,49
577,967	14,81
578,437	14,42
578,908	14,69
579,379	14,3
579,849	14,27
580,319	14,26
580,79	14,14
581,26	14,15
581,73	13,95
582,2	13,89
582,669	14,16
583,139	13,88
583,609	13,86
584,078	13,44
584,548	13,67
585,017	13,61
585,486	13,4
585,955	13,56
586,424	13,35
586,893	13,45
587,362	13,33
587,83	13,31
588,299	13,11
588,767	13,01
589,236	13,01
589,704	12,89
590,172	13,02
590,64	12,77
591,108	12,83
591,576	12,74
592,043	13
592,511	12,73
592,978	12,66
593,446	12,92
593,913	12,62
594,38	12,66
594,847	12,64
595,314	12,43
595,781	12,73
596,248	12,47
596,715	12,51
597,181	12,48
597,647	12,64
598,114	12,47
598,58	12,25
599,046	12,24
599,512	12,23
599,978	12,26
600,444	12,44
600,91	12,17
601,375	12,19
601,841	12,26
602,306	12,23
602,771	12,2
603,236	12,18
603,702	12,22
604,167	12,28
604,631	12,18
605,096	11,97
605,561	11,97
606,025	11,95
606,49	11,89
606,954	11,67
607,418	11,89
607,882	11,49
608,347	11,53
608,81	11,86
609,274	11,42
609,738	11,41
610,202	11,55
610,665	11,35
611,128	11,39
611,592	11,33
612,055	11,21
612,518	11,37
612,981	11,41
613,444	11
613,907	11,17
614,369	11,01
614,832	11,01
615,294	10,86
615,757	10,58
616,219	10,71
616,681	10,84
617,143	10,61
617,605	10,76
618,067	10,58
618,529	10,58
618,99	10,59
619,452	10,61
619,913	10,31
620,375	10,43
620,836	10,38
621,297	10,44
621,758	10,43
622,219	10,22
622,68	10,45
623,14	10,4
623,601	10,25
624,061	10,22
624,522	10,18
624,982	10,28
625,442	10,19
625,902	10,16
626,362	10,03
626,822	10,13
627,282	10,04
627,742	9,96
628,201	10,18
628,661	9,89
629,12	10,04
629,579	9,91
630,038	10,24
630,497	9,87
630,956	9,84
631,415	9,87
631,874	9,91
632,332	9,94
632,791	9,9
633,249	9,92
633,708	9,84
634,166	9,79
634,624	9,71
635,082	9,64
635,54	9,67
635,998	9,56
636,455	9,73
636,913	9,66
637,37	9,48
637,828	9,27
638,285	9,41
638,742	9,17
639,199	9,13
639,656	9,21
640,113	8,96
640,57	8,88
641,027	8,83
641,483	8,91
641,94	8,73
642,396	8,6
642,852	8,65
643,309	8,31
643,765	8,52
644,221	8,27
644,676	8,19
645,132	8,26
645,588	8,07
646,043	8,06
646,499	7,94
646,954	7,85
647,409	7,77
647,864	7,71
648,319	7,74
648,774	7,57
649,229	7,5
649,684	7,32
650,139	7,34
650,593	7,33
651,047	7,25
651,502	7,25
651,956	7,12
652,41	7,17
652,864	7,22
653,318	7,13
653,772	7,15
654,225	7,07
654,679	7,12
655,133	7,01
655,586	7,06
656,039	6,82
656,492	7,01
656,946	6,73
657,399	6,86
657,851	6,76
658,304	6,65
658,757	6,63
659,209	6,46
659,662	6,45
660,114	6,45
660,567	6,35
661,019	6,33
661,471	6,22
661,923	6,22
662,375	6,36
662,826	6,07
663,278	6,09
663,73	5,94
664,181	6,1
664,632	6,02
665,084	5,95
665,535	5,93
665,986	5,84
666,437	5,83
666,888	5,74
667,338	5,7
667,789	5,82
668,24	5,66
668,69	5,67
669,14	5,65
669,591	5,67
670,041	5,61
670,491	5,57
670,941	5,76
671,391	5,77
671,84	5,62
672,29	5,76
672,74	5,73
673,189	5,92
673,638	5,87
674,088	5,88
674,537	5,95
674,986	5,87
675,435	5,87
675,883	5,92
676,332	6,03
676,781	6,02
677,229	6,02
677,678	6,21
678,126	6,21
678,574	6,29
679,022	6,43
679,47	6,56
679,918	6,46
680,366	6,67
680,814	6,68
681,261	6,87
681,709	6,78
682,156	7,08
682,604	7,09
683,051	7,18
683,498	7,3
683,945	7,38
684,392	7,47
684,839	7,5
685,286	7,69
685,732	7,78
686,179	8,09
686,625	8,21
687,071	8,44
687,518	8,5
687,964	8,65
688,41	8,84
688,856	9,01
689,301	9,11
689,747	9,26
690,193	9,69
690,638	9,98
691,084	10,2
691,529	10,33
691,974	10,8
692,419	10,99
692,864	11,47
693,309	11,6
693,754	12
694,199	12,42
694,643	12,33
695,088	12,85
695,532	13,2
695,977	13,48
696,421	13,78
696,865	14,21
697,309	14,62
697,753	14,93
698,197	15,07
698,64	15,69
699,084	16,14
699,527	16,19
699,971	16,56
700,414	16,97
700,857	17,2
701,3	17,51
701,743	17,71
702,186	18,06
702,629	18,46
703,072	18,77
703,515	19,28
703,957	19,37
704,399	19,71
704,842	19,94
705,284	20,24
705,726	20,44
706,168	20,61
706,61	21,04
707,052	21,37
707,494	21,6
707,935	22,1
708,377	22,18
708,818	22,37
709,26	22,75
709,701	22,87
710,142	23,21
710,583	23,08
711,024	23,55
711,465	23,79
711,905	23,91
712,346	24,25
712,787	24,47
713,227	25,06
713,667	25,16
714,108	25,41
714,548	25,6
714,988	25,68
715,428	26,14
715,868	26,14
716,307	26,28
716,747	26,52
717,186	26,93
717,626	26,98
718,065	27,12
718,504	26,98
718,944	27,73
719,383	27,94
719,822	27,84
720,261	28,06
720,699	28,06
721,138	28,38
721,576	28,71
722,015	28,67
722,453	28,93
722,892	29,2
723,33	29,21
723,768	29,42
724,206	29,69
724,644	29,92
725,081	29,86
725,519	29,9
725,957	30,1
726,394	30,19
726,832	30,7
727,269	30,59
727,706	30,55
728,143	30,74
728,58	30,76
729,017	31
729,454	31,03
729,89	31,15
730,327	31,32
730,764	31,57
731,2	31,66
731,636	31,36
732,072	31,54
732,509	31,63
732,945	31,72
733,38	31,44
733,816	31,94
734,252	31,84
734,688	32,14
735,123	32,13
735,559	31,98
735,994	32,33
736,429	32,22
736,864	32,22
737,299	32,26
737,734	32,28
738,169	32,57
738,604	32,7
739,038	32,54
739,473	32,72
739,907	32,39
740,342	32,63
740,776	32,55
741,21	32,62
741,644	32,6
742,078	32,93
742,512	32,68
742,946	32,52
743,379	32,51
743,813	32,32
744,246	32,54
744,68	32,59
745,113	32,55
745,546	32,84
745,979	32,56
746,412	32,69
746,845	32,69
747,278	32,59
747,711	32,49
748,143	32,82
748,576	32,24
749,008	32,96
749,441	32,67
749,873	32,54
750,305	32,48
750,737	32,45
751,169	32,56
751,601	32,37
752,032	32,65
752,464	32,26
752,896	31,96
753,327	32,53
753,758	32,1
754,19	32,43
754,621	32,22
755,052	32,16
755,483	32,42
755,914	32,26
756,344	32,56
756,775	32,07
757,206	31,82
757,636	31,94
758,066	32,21
758,497	32,23
758,927	32,21
759,357	31,9
759,787	32,31
760,217	32,18
760,647	31,96
761,076	31,65
761,506	31,58
761,935	32,25
762,365	31,96
762,794	31,88
763,223	32,05
763,653	31,97
764,082	31,88
764,51	31,97
764,939	31,66
765,368	31,88
765,797	31,69
766,225	31,9
766,654	31,64
767,082	31,81
767,51	31,58
767,938	31,34
768,367	31,54
768,795	31,48
769,222	31,62
769,65	31,77
770,078	31,53
770,505	31,55
770,933	31,38
771,36	31,6
771,788	31,59
772,215	31,11
772,642	31,44
773,069	31,26
773,496	31,22
773,923	31,24
774,349	31,47
774,776	31,31
775,203	30,95
775,629	31,52
776,055	31,39
776,482	31,04
776,908	31,48
777,334	31,34
777,76	31,23
778,186	31,39
778,611	31,24
779,037	31,15
779,463	31,06
779,888	31,16
780,314	31,12
780,739	31,23
781,164	31,28
781,589	31,25
782,014	31,04
782,439	31,6
782,864	31,34
783,289	30,97
783,713	31,01
784,138	31,25
784,562	31,21
784,987	31,28
785,411	31,35
785,835	31,08
786,259	30,94
786,683	30,9
787,107	31,16
787,531	31,05
787,954	30,97
788,378	30,96
788,802	31,01
789,225	30,89
789,648	31,03
790,071	30,98
790,495	30,99
790,918	31,11
791,34	30,99
791,763	31,13
792,186	31,05
792,609	30,7
793,031	30,94
793,454	31,06
793,876	30,95
794,298	31,19
794,721	31,01
795,143	30,97
795,565	31
795,986	31,09
796,408	31,04
796,83	30,99
797,252	30,96
797,673	30,77
798,094	30,78
798,516	31,22
798,937	31,03
799,358	30,85
799,779	30,97
800,2	30,96
800,621	30,83
801,042	30,98
801,462	30,56
801,883	30,66
802,303	30,86
802,724	30,86
803,144	30,85
803,564	30,63
803,984	31,04
804,404	30,84
804,824	30,57
805,244	30,94
805,664	30,55
806,084	30,71
806,503	30,78
806,923	30,9
807,342	30,86
807,761	30,7
808,18	31,07
808,599	30,87
809,018	30,86
809,437	30,82
809,856	30,82
810,275	30,85
810,693	30,95
811,112	30,76
811,53	30,87
811,949	30,97
812,367	31,01
812,785	30,8
813,203	30,81
813,621	30,72
814,039	30,76
814,457	30,73
814,874	30,85
815,292	30,81
815,709	30,87
816,127	31,13
816,544	30,79
816,961	30,56
817,378	31,05
817,795	30,82
818,212	30,62
818,629	30,63
819,046	31,29
819,462	30,81
819,879	30,94
820,295	30,85
820,712	30,67
821,128	30,78
821,544	30,68
821,96	30,78
822,376	30,6
822,792	30,46
823,208	30,68
823,624	30,56
824,039	30,49
824,455	30,86
824,87	30,67
825,286	30,77
825,701	31,04
826,116	30,7
826,531	30,83
826,946	30,69
827,361	30,53
827,776	30,65
828,19	30,73
828,605	30,53
829,02	30,72
829,434	30,68
829,848	30,49
830,263	30,68
830,677	30,72
831,091	30,53
831,505	30,57
831,919	30,57
832,332	30,86
832,746	30,28
833,16	30,37
833,573	30,49
833,987	30,56
834,4	30,38
834,813	30,59
835,226	30,52
835,639	30,73
836,052	30,67
836,465	30,42
836,878	30,51
837,29	30,46
837,703	30,51
838,116	30,53
838,528	30,34
838,94	30,35
839,352	30,66
839,765	30,56
840,177	30,53
840,589	30,51
841	30,27
841,412	30,71
841,824	30,72
842,235	30,47
842,647	30,54
843,058	30,8
843,47	30,47
