Data from A6__Relative__8__00012.txt Node

Date: Thu Feb 01 16:15:05 CET 2024
User: diatiterra
Spectrometer: HDX00911
Trigger mode: 0
Integration Time (sec): 6,000000E-3
Scans to average: 2
Nonlinearity correction enabled: false
Boxcar width: 0
Storing dark spectrum: false
XAxis mode: Wavelengths
Number of Pixels in Spectrum: 2068
>>>>>Begin Spectral Data<<<<<
194,468	69,23
195,025	56,94
195,581	68,18
196,138	64,71
196,694	50,55
197,251	53,17
197,807	40,12
198,363	39,05
198,919	31,52
199,474	31,85
200,03	48,3
200,586	27,85
201,141	24,74
201,696	36,99
202,251	38,67
202,806	35,06
203,361	45,36
203,916	40,54
204,471	32,61
205,025	35,68
205,58	38,15
206,134	31,91
206,688	30,37
207,242	33,72
207,796	33,84
208,35	38,95
208,904	40,68
209,457	37,06
210,011	38,04
210,564	39,25
211,117	31,37
211,67	42,13
212,223	43,3
212,776	32,09
213,329	43,85
213,881	35,23
214,434	31
214,986	35,54
215,538	33,15
216,09	32,81
216,642	36,75
217,194	42,94
217,746	34,86
218,297	34,44
218,849	40,12
219,4	27,78
219,951	42,29
220,502	31,95
221,053	39,88
221,604	41,42
222,155	33,69
222,705	34,5
223,256	41,57
223,806	24,57
224,356	25,77
224,906	40,61
225,456	29,95
226,006	30,05
226,556	36,76
227,106	44,51
227,655	38,74
228,204	31,64
228,754	40,23
229,303	23,53
229,852	40
230,401	33,95
230,949	42,37
231,498	43,62
232,047	22,22
232,595	28,16
233,143	37,89
233,691	35,71
234,239	27,87
234,787	34,3
235,335	44,77
235,883	37,89
236,43	30,97
236,978	36,7
237,525	32,16
238,072	41,67
238,619	43,9
239,166	34,31
239,713	37,43
240,26	33,33
240,806	40,49
241,353	36,05
241,899	32,97
242,445	27,22
242,991	32,43
243,537	25,49
244,083	39,56
244,629	33,5
245,174	37,93
245,72	29,61
246,265	26,7
246,81	39,77
247,355	31,87
247,9	26,47
248,445	35,67
248,99	30
249,534	32,58
250,079	33,13
250,623	35,33
251,168	28,16
251,712	29,41
252,256	29,81
252,8	36,72
253,343	37,91
253,887	32,24
254,43	23,3
254,974	34,64
255,517	30,51
256,06	25
256,603	34,83
257,146	32,04
257,689	34,92
258,232	28,04
258,774	27,38
259,317	34,07
259,859	37,7
260,401	28,09
260,943	36,31
261,485	32,97
262,027	28,57
262,569	35,1
263,11	26,55
263,652	34,62
264,193	34,66
264,734	33,92
265,275	24,48
265,816	34,05
266,357	34,92
266,898	26,77
267,438	27,85
267,979	32,39
268,519	37,5
269,059	37,95
269,6	39,89
270,14	33,16
270,68	24,66
271,219	36,21
271,759	47,44
272,298	36,22
272,838	33,33
273,377	50,28
273,916	41,61
274,455	44,1
274,994	35,56
275,533	28,74
276,072	41,92
276,61	28,4
277,149	47,65
277,687	31,33
278,225	40
278,763	34,1
279,301	38,3
279,839	42,55
280,377	36,02
280,914	28,87
281,452	41,9
281,989	39,41
282,526	41,77
283,064	37,5
283,601	37,08
284,137	44,17
284,674	45,51
285,211	47,85
285,747	37,69
286,284	32,35
286,82	36,98
287,356	26,8
287,892	39,78
288,428	28,16
288,964	46,77
289,5	38,15
290,035	38,07
290,571	39,15
291,106	37,08
291,641	42,44
292,176	38,71
292,711	44,77
293,246	34,24
293,781	35,36
294,315	36,22
294,85	36,77
295,384	45,66
295,918	35,64
296,453	31,89
296,987	29,51
297,52	32,61
298,054	35,06
298,588	45,12
299,121	35,2
299,655	30
300,188	46,67
300,721	38,51
301,254	43,92
301,787	35,48
302,32	32,64
302,853	44,69
303,385	40,22
303,918	45,14
304,45	36,22
304,982	35,59
305,514	35,11
306,046	34,24
306,578	42,25
307,11	44,75
307,641	43,96
308,173	46,63
308,704	46,02
309,236	33,5
309,767	45,26
310,298	37,11
310,829	37,5
311,359	38,16
311,89	35,09
312,421	37,84
312,951	36
313,481	37,06
314,012	37,5
314,542	38,83
315,072	44,2
315,601	35,71
316,131	36,17
316,661	43,18
317,19	30,64
317,72	28,92
318,249	36,67
318,778	42,86
319,307	36,98
319,836	43,5
320,365	37,04
320,893	40,41
321,422	36,9
321,95	38,02
322,479	47,27
323,007	44,38
323,535	42,77
324,063	40,68
324,591	34,39
325,118	33,33
325,646	40,96
326,173	31,69
326,701	34,36
327,228	35,08
327,755	40,1
328,282	40,22
328,809	42,94
329,336	34,33
329,862	36,57
330,389	27,32
330,915	36,79
331,441	35,67
331,968	38,76
332,494	33,16
333,02	27,93
333,545	26,46
334,071	34,36
334,597	33,71
335,122	35,64
335,648	36,54
336,173	40,54
336,698	30,32
337,223	35,83
337,748	29,85
338,272	26,6
338,797	22,95
339,322	32,97
339,846	42,47
340,37	30,05
340,894	27,36
341,419	44,83
341,942	33,86
342,466	35,23
342,99	30,89
343,514	27,45
344,037	23,94
344,56	31,58
345,084	33,83
345,607	35,44
346,13	32,86
346,653	35,05
347,175	28,23
347,698	27,14
348,221	33,8
348,743	32,77
349,265	30,05
349,787	23,41
350,309	24,29
350,831	23,85
351,353	27,01
351,875	25,91
352,397	27,16
352,918	32,08
353,439	32,07
353,961	24,41
354,482	25,96
355,003	28,81
355,524	25,1
356,044	25,31
356,565	17,48
357,086	18,73
357,606	20,43
358,126	19,16
358,646	19,33
359,167	16,52
359,687	21,56
360,206	25,56
360,726	26,07
361,246	18,87
361,765	23,55
362,285	30,48
362,804	26,62
363,323	21,28
363,842	23,59
364,361	19,71
364,88	17,48
365,398	25,96
365,917	26,54
366,435	21,33
366,954	24,43
367,472	22,15
367,99	22,08
368,508	22
369,026	27,88
369,544	17,92
370,061	24,04
370,579	24,38
371,096	23,97
371,613	28,21
372,131	22,03
372,648	18,8
373,165	26,58
373,681	26,51
374,198	19,77
374,715	24,79
375,231	22,53
375,747	21,69
376,264	22,98
376,78	22,84
377,296	18,75
377,812	20
378,327	24,81
378,843	25,83
379,359	21,93
379,874	21,09
380,389	19,86
380,905	21,72
381,42	23,78
381,935	21,75
382,449	20,45
382,964	17,67
383,479	16,26
383,993	20,29
384,508	21,24
385,022	19,73
385,536	20,88
386,05	22,6
386,564	22,02
387,078	20,79
387,592	19,69
388,105	16,69
388,619	19,84
389,132	16,56
389,645	16,64
390,158	20,61
390,671	21,49
391,184	19,07
391,697	18,4
392,21	17,45
392,722	20,05
393,235	17,83
393,747	18,17
394,259	19,3
394,771	17,05
395,283	20,71
395,795	18,3
396,307	17,21
396,818	14,91
397,33	17,5
397,841	17,03
398,353	16,85
398,864	15,78
399,375	14,14
399,886	16,76
400,397	16,11
400,907	14,98
401,418	13,12
401,928	15,29
402,439	12,89
402,949	12,32
403,459	13,9
403,969	11,78
404,479	12,93
404,989	12,22
405,498	10,79
406,008	10,66
406,517	11,76
407,027	10,88
407,536	10,88
408,045	10
408,554	9,87
409,063	9,73
409,572	7,94
410,08	8,7
410,589	8,63
411,097	8,07
411,606	8,34
412,114	8,05
412,622	7,43
413,13	8,06
413,638	7,13
414,145	6,21
414,653	6,06
415,16	6,8
415,668	6,06
416,175	6,59
416,682	6,11
417,189	5,85
417,696	6,13
418,203	6,45
418,71	5,27
419,216	6,13
419,723	5,23
420,229	5,48
420,735	5,33
421,242	4,98
421,748	5
422,254	5,34
422,759	4,58
423,265	4,93
423,771	4,83
424,276	4,99
424,781	5,07
425,287	4,58
425,792	5,31
426,297	5,07
426,802	4,88
427,306	4,73
427,811	4,47
428,316	5,07
428,82	4,45
429,324	4,57
429,829	4,69
430,333	5,15
430,837	4,36
431,34	4,4
431,844	4,41
432,348	4,25
432,851	3,91
433,355	4,36
433,858	4,34
434,361	4,84
434,864	4,37
435,367	3,88
435,87	4,54
436,373	4,29
436,876	4,69
437,378	4,47
437,88	4,28
438,383	3,9
438,885	4,44
439,387	4,39
439,889	4,12
440,391	3,93
440,892	4,44
441,394	4,79
441,896	4,65
442,397	4,51
442,898	4,09
443,399	4,04
443,9	4,28
444,401	4,49
444,902	4,22
445,403	4,76
445,903	4,13
446,404	4,74
446,904	4,39
447,405	4,02
447,905	4,34
448,405	3,91
448,905	4,32
449,404	4,59
449,904	4,32
450,404	4,47
450,903	4,58
451,403	4,52
451,902	4,87
452,401	4,31
452,9	4,96
453,399	4,51
453,898	4,78
454,396	4,44
454,895	4,84
455,393	4,67
455,892	4,96
456,39	4,51
456,888	4,5
457,386	5,09
457,884	4,82
458,382	4,38
458,879	4,81
459,377	4,59
459,874	4,96
460,372	4,71
460,869	4,99
461,366	4,98
461,863	4,82
462,36	4,9
462,857	4,91
463,353	4,48
463,85	5,44
464,346	4,82
464,843	5
465,339	4,68
465,835	4,54
466,331	5,08
466,827	5,09
467,323	4,77
467,818	4,97
468,314	4,78
468,809	4,3
469,305	4,82
469,8	4,49
470,295	4,78
470,79	4,64
471,285	4,96
471,78	4,87
472,274	4,94
472,769	4,79
473,263	4,43
473,758	4,34
474,252	4,62
474,746	4,75
475,24	4,95
475,734	4,85
476,228	4,74
476,721	4,87
477,215	4,73
477,708	4,73
478,202	4,85
478,695	4,71
479,188	5,16
479,681	5,33
480,174	4,53
480,667	4,87
481,159	4,68
481,652	4,65
482,144	4,69
482,637	5,02
483,129	4,78
483,621	4,98
484,113	5,19
484,605	5,11
485,097	4,9
485,588	5,17
486,08	5,36
486,571	4,95
487,063	5,03
487,554	5,45
488,045	5,06
488,536	5,14
489,027	5,17
489,518	5,27
490,008	4,99
490,499	5,45
490,989	5,56
491,48	5,63
491,97	5,56
492,46	5,64
492,95	5,61
493,44	6,01
493,93	5,69
494,419	5,69
494,909	5,88
495,398	5,88
495,888	6,29
496,377	6,14
496,866	5,98
497,355	6,7
497,844	5,9
498,333	6,34
498,821	6,36
499,31	6,61
499,798	6,6
500,287	6,87
500,775	6,89
501,263	7,02
501,751	7,07
502,239	7,24
502,727	7,08
503,215	7,33
503,702	7,62
504,19	7,6
504,677	7,78
505,164	8,15
505,651	8,11
506,139	8,35
506,625	8,59
507,112	8,51
507,599	8,8
508,086	9,06
508,572	8,96
509,058	9,29
509,545	9,8
510,031	9,55
510,517	9,68
511,003	9,53
511,489	10,2
511,974	10,48
512,46	10,67
512,946	10,72
513,431	10,94
513,916	11,3
514,401	11,19
514,887	11,51
515,371	11,63
515,856	11,75
516,341	12
516,826	12,37
517,31	12,32
517,795	12,55
518,279	13,2
518,763	13,45
519,247	13,39
519,731	13,59
520,215	14,06
520,699	13,85
521,182	14,14
521,666	14,8
522,149	14,92
522,633	15,16
523,116	15,42
523,599	15,58
524,082	15,9
524,565	16,15
525,048	16,19
525,53	16,62
526,013	16,63
526,495	16,82
526,978	16,71
527,46	17,43
527,942	17,22
528,424	17,51
528,906	17,32
529,388	17,74
529,87	17,98
530,351	17,94
530,833	18,12
531,314	18,38
531,795	18,62
532,277	18,77
532,758	18,88
533,238	18,67
533,719	18,68
534,2	18,97
534,681	18,76
535,161	19,07
535,642	18,87
536,122	19,07
536,602	18,98
537,082	18,98
537,562	19,4
538,042	19,09
538,522	19,56
539,001	19,15
539,481	19,47
539,96	19,98
540,44	19,78
540,919	19,68
541,398	19,73
541,877	19,73
542,356	19,69
542,835	19,36
543,313	19,66
543,792	19,67
544,27	19,66
544,749	19,88
545,227	19,88
545,705	19,9
546,183	19,88
546,661	19,91
547,139	19,77
547,616	19,74
548,094	19,92
548,571	20,42
549,049	20,04
549,526	20,07
550,003	19,86
550,48	20,19
550,957	20,19
551,434	19,98
551,911	20,12
552,387	20,09
552,864	20,2
553,34	20,38
553,817	20,27
554,293	20,22
554,769	20,38
555,245	20,46
555,721	20,22
556,197	20,11
556,672	20,18
557,148	20,62
557,623	20,2
558,099	20,05
558,574	20,27
559,049	20,4
559,524	20,27
559,999	20,13
560,474	20,02
560,948	19,75
561,423	19,64
561,897	19,69
562,372	20,17
562,846	19,95
563,32	19,76
563,794	19,63
564,268	19,62
564,742	19,37
565,216	19,59
565,69	19,55
566,163	19,21
566,636	19,35
567,11	18,76
567,583	19,35
568,056	18,88
568,529	18,8
569,002	18,68
569,475	18,76
569,947	18,48
570,42	18,46
570,892	18,7
571,365	18,07
571,837	17,79
572,309	17,58
572,781	18,08
573,253	17,53
573,725	17,58
574,197	17,17
574,668	17,34
575,14	17,28
575,611	17,41
576,082	17,02
576,554	17,06
577,025	16,62
577,496	16,62
577,967	16,6
578,437	16,4
578,908	16,72
579,379	16,59
579,849	16,1
580,319	16,19
580,79	16,18
581,26	15,99
581,73	16,35
582,2	15,91
582,669	15,96
583,139	15,91
583,609	15,8
584,078	15,43
584,548	15,7
585,017	15,31
585,486	15,4
585,955	15,48
586,424	15,38
586,893	15,4
587,362	15,07
587,83	15,26
588,299	15,07
588,767	15,04
589,236	14,93
589,704	14,82
590,172	14,71
590,64	14,48
591,108	14,84
591,576	14,5
592,043	14,36
592,511	14,04
592,978	14,26
593,446	14,21
593,913	14,28
594,38	14,27
594,847	14,24
595,314	14,38
595,781	14,45
596,248	14,19
596,715	14,03
597,181	14,03
597,647	14,29
598,114	14,08
598,58	14,12
599,046	13,91
599,512	14
599,978	13,99
600,444	13,93
600,91	13,85
601,375	14,03
601,841	13,91
602,306	13,84
602,771	13,82
603,236	13,9
603,702	13,65
604,167	13,87
604,631	13,55
605,096	13,62
605,561	13,57
606,025	13,64
606,49	13,72
606,954	13,53
607,418	13,15
607,882	13,35
608,347	13,33
608,81	13,43
609,274	13,37
609,738	13,06
610,202	13,03
610,665	13,04
611,128	12,92
611,592	12,77
612,055	12,78
612,518	12,78
612,981	12,84
613,444	12,46
613,907	12,74
614,369	12,42
614,832	12,44
615,294	12,52
615,757	12,16
616,219	12,22
616,681	12,24
617,143	11,98
617,605	12,09
618,067	12,17
618,529	12,01
618,99	11,69
619,452	12,07
619,913	11,76
620,375	11,73
620,836	11,87
621,297	11,86
621,758	11,48
622,219	11,71
622,68	11,68
623,14	11,66
623,601	11,66
624,061	11,45
624,522	11,48
624,982	11,6
625,442	11,3
625,902	11,46
626,362	11,19
626,822	11,35
627,282	11,27
627,742	11,27
628,201	11,44
628,661	11,4
629,12	11,34
629,579	11,09
630,038	11,28
630,497	11,17
630,956	11,12
631,415	10,93
631,874	10,97
632,332	11,11
632,791	11,07
633,249	11,3
633,708	11
634,166	10,92
634,624	11,09
635,082	10,79
635,54	10,93
635,998	10,72
636,455	10,63
636,913	10,52
637,37	10,3
637,828	10,5
638,285	10,4
638,742	10,19
639,199	10,01
639,656	9,84
640,113	9,82
640,57	9,76
641,027	9,79
641,483	9,67
641,94	9,64
642,396	9,27
642,852	9,3
643,309	9,24
643,765	8,97
644,221	8,89
644,676	8,97
645,132	8,77
645,588	8,65
646,043	8,6
646,499	8,5
646,954	8,31
647,409	8,26
647,864	8,21
648,319	8,19
648,774	7,87
649,229	7,95
649,684	7,87
650,139	7,99
650,593	7,79
651,047	7,63
651,502	7,61
651,956	7,7
652,41	7,59
652,864	7,57
653,318	7,54
653,772	7,49
654,225	7,42
654,679	7,48
655,133	7,39
655,586	7,43
656,039	7,37
656,492	7,27
656,946	7,2
657,399	7,26
657,851	7,12
658,304	7,06
658,757	7,07
659,209	7,16
659,662	7,06
660,114	6,88
660,567	6,74
661,019	6,62
661,471	6,65
661,923	6,52
662,375	6,49
662,826	6,44
663,278	6,3
663,73	6,15
664,181	6,23
664,632	6,07
665,084	6,13
665,535	6,05
665,986	5,94
666,437	5,89
666,888	5,83
667,338	5,88
667,789	5,8
668,24	5,8
668,69	5,79
669,14	5,72
669,591	5,72
670,041	5,77
670,491	5,79
670,941	5,73
671,391	5,76
671,84	5,7
672,29	5,7
672,74	5,59
673,189	5,82
673,638	5,81
674,088	5,79
674,537	5,95
674,986	6
675,435	6,04
675,883	5,98
676,332	6,08
676,781	6,27
677,229	6,23
677,678	6,26
678,126	6,44
678,574	6,3
679,022	6,48
679,47	6,54
679,918	6,65
680,366	6,7
680,814	6,81
681,261	7,03
681,709	6,94
682,156	7,11
682,604	7,23
683,051	7,26
683,498	7,44
683,945	7,51
684,392	7,8
684,839	8,09
685,286	7,91
685,732	8,3
686,179	8,4
686,625	8,56
687,071	8,81
687,518	9
687,964	9,23
688,41	9,42
688,856	9,6
689,301	9,9
689,747	10,13
690,193	10,54
690,638	10,8
691,084	11,13
691,529	11,59
691,974	11,75
692,419	12,16
692,864	12,53
693,309	12,6
693,754	13,2
694,199	13,43
694,643	14
695,088	14,2
695,532	14,84
695,977	14,82
696,421	15,27
696,865	15,93
697,309	16,04
697,753	16,62
698,197	17,01
698,64	17,39
699,084	17,55
699,527	17,99
699,971	18,22
700,414	18,68
700,857	18,91
701,3	19,38
701,743	19,25
702,186	19,67
702,629	20,12
703,072	20,39
703,515	20,84
703,957	20,95
704,399	21,16
704,842	21,43
705,284	21,87
705,726	22,25
706,168	22,19
706,61	22,75
707,052	22,67
707,494	23,01
707,935	23,47
708,377	23,76
708,818	23,58
709,26	23,96
709,701	24,33
710,142	24,41
710,583	24,38
711,024	24,78
711,465	24,75
711,905	24,99
712,346	25,16
712,787	25,38
713,227	25,67
713,667	25,9
714,108	26,28
714,548	26,32
714,988	26,46
715,428	26,5
715,868	26,84
716,307	26,72
716,747	26,81
717,186	27,25
717,626	27,62
718,065	27,56
718,504	27,32
718,944	27,92
719,383	28
719,822	27,85
720,261	27,97
720,699	28,01
721,138	28,54
721,576	28,41
722,015	28,35
722,453	28,76
722,892	28,79
723,33	28,73
723,768	29,05
724,206	28,99
724,644	29,44
725,081	29,13
725,519	29,34
725,957	29,52
726,394	29,26
726,832	29,35
727,269	29,71
727,706	29,72
728,143	29,88
728,58	29,56
729,017	29,94
729,454	29,76
729,89	29,91
730,327	30,09
730,764	30,01
731,2	29,99
731,636	30,26
732,072	30,17
732,509	30,23
732,945	30,28
733,38	30,09
733,816	30,39
734,252	30,46
734,688	30,61
735,123	30,39
735,559	30,34
735,994	30,5
736,429	30,49
736,864	30,65
737,299	30,35
737,734	30,66
738,169	30,66
738,604	30,57
739,038	30,71
739,473	30,6
739,907	30,62
740,342	30,5
740,776	30,51
741,21	30,58
741,644	30,54
742,078	30,48
742,512	30,71
742,946	30,75
743,379	30,71
743,813	30,55
744,246	30,29
744,68	30,73
745,113	30,48
745,546	30,83
745,979	30,5
746,412	30,49
746,845	30,5
747,278	30,72
747,711	30,41
748,143	30,49
748,576	30,16
749,008	30,38
749,441	30,37
749,873	30,42
750,305	30,44
750,737	30,41
751,169	30,15
751,601	30,45
752,032	30,18
752,464	30,23
752,896	29,97
753,327	30,12
753,758	30,31
754,19	30,3
754,621	30,33
755,052	30,02
755,483	29,92
755,914	29,95
756,344	30,5
756,775	30,11
757,206	29,78
757,636	29,89
758,066	29,84
758,497	29,94
758,927	29,66
759,357	29,81
759,787	29,92
760,217	29,28
760,647	29,9
761,076	29,58
761,506	29,69
761,935	29,79
762,365	29,98
762,794	29,46
763,223	29,6
763,653	29,44
764,082	29,65
764,51	29,53
764,939	29,5
765,368	29,61
765,797	29,61
766,225	29,58
766,654	29,51
767,082	29,76
767,51	29,38
767,938	29,27
768,367	29,38
768,795	29,35
769,222	29,41
769,65	29,25
770,078	29,42
770,505	29,3
770,933	29,17
771,36	29,43
771,788	29,3
772,215	29,59
772,642	29,27
773,069	29,1
773,496	29,04
773,923	29,18
774,349	29,27
774,776	29,27
775,203	29,14
775,629	29,3
776,055	29,38
776,482	28,86
776,908	29,19
777,334	29,26
777,76	29,08
778,186	29,16
778,611	28,73
779,037	28,59
779,463	29,05
779,888	28,81
780,314	28,99
780,739	29,02
781,164	28,88
781,589	29
782,014	28,76
782,439	29,03
782,864	28,74
783,289	28,68
783,713	29,17
784,138	29,06
784,562	28,99
784,987	29,15
785,411	28,72
785,835	28,97
786,259	28,6
786,683	29,07
787,107	28,68
787,531	29,05
787,954	28,78
788,378	29,05
788,802	28,94
789,225	28,82
789,648	28,72
790,071	29,04
790,495	28,64
790,918	28,68
791,34	28,92
791,763	28,94
792,186	28,81
792,609	28,52
793,031	28,74
793,454	28,85
793,876	28,63
794,298	28,67
794,721	28,56
795,143	28,77
795,565	28,75
795,986	28,55
796,408	28,56
796,83	28,55
797,252	28,76
797,673	28,94
798,094	28,52
798,516	28,82
798,937	28,87
799,358	28,72
799,779	28,92
800,2	28,49
800,621	28,62
801,042	28,62
801,462	28,54
801,883	28,39
802,303	28,47
802,724	28,66
803,144	28,84
803,564	28,64
803,984	28,66
804,404	28,63
804,824	28,84
805,244	28,47
805,664	28,26
806,084	28,68
806,503	28,78
806,923	28,65
807,342	28,79
807,761	28,37
808,18	28,88
808,599	28,87
809,018	28,77
809,437	28,62
809,856	28,5
810,275	28,47
810,693	28,33
811,112	28,72
811,53	28,45
811,949	28,93
812,367	28,62
812,785	28,57
813,203	28,33
813,621	28,71
814,039	28,55
814,457	28,28
814,874	28,84
815,292	28,7
815,709	28,58
816,127	28,55
816,544	28,61
816,961	28,47
817,378	28,7
817,795	28,43
818,212	28,48
818,629	28,41
819,046	28,53
819,462	28,75
819,879	28,57
820,295	28,65
820,712	28,44
821,128	28,31
821,544	28,38
821,96	28,3
822,376	28,4
822,792	28,75
823,208	28,46
823,624	28,4
824,039	28,17
824,455	28,6
824,87	28,53
825,286	28,52
825,701	28,54
826,116	28,06
826,531	28,57
826,946	28,53
827,361	28,39
827,776	28,63
828,19	28,56
828,605	28,36
829,02	28,45
829,434	28,56
829,848	28,65
830,263	28,38
830,677	28,5
831,091	28,5
831,505	28,61
831,919	28,59
832,332	28,35
832,746	28,15
833,16	28,39
833,573	28,23
833,987	28,21
834,4	28,25
834,813	28,38
835,226	28,36
835,639	28,6
836,052	28,52
836,465	28,26
836,878	28,18
837,29	28,52
837,703	28,21
838,116	28,57
838,528	28,33
838,94	28,06
839,352	28,4
839,765	28,03
840,177	28,5
840,589	28,32
841	28,29
841,412	28,31
841,824	28,31
842,235	28,51
842,647	28,48
843,058	28,62
843,47	28,28
