Data from C4___Relative__5__00025.txt Node

Date: Thu Feb 01 16:17:30 CET 2024
User: diatiterra
Spectrometer: HDX00911
Trigger mode: 0
Integration Time (sec): 6,000000E-3
Scans to average: 2
Nonlinearity correction enabled: false
Boxcar width: 0
Storing dark spectrum: false
XAxis mode: Wavelengths
Number of Pixels in Spectrum: 2068
>>>>>Begin Spectral Data<<<<<
194,468	116,92
195,025	80,56
195,581	80,3
196,138	64,71
196,694	79,12
197,251	78,57
197,807	52,33
198,363	55,03
198,919	53,8
199,474	49,68
200,03	63,07
200,586	58,86
201,141	48,97
201,696	56,07
202,251	59,12
202,806	57,47
203,361	60,11
203,916	59,46
204,471	51,63
205,025	59,46
205,58	46,24
206,134	53,19
206,688	54,45
207,242	58,72
207,796	54,04
208,35	49,42
208,904	57,63
209,457	60
210,011	57,06
210,564	53,23
211,117	67,32
211,67	56,74
212,223	62,89
212,776	51,87
213,329	60,43
213,881	51,3
214,434	54,5
214,986	67,47
215,538	54,35
216,09	59,38
216,642	53,61
217,194	57,06
217,746	61,71
218,297	45
218,849	58,14
219,4	52,78
219,951	65,71
220,502	55,03
221,053	48,21
221,604	62,13
222,155	57,22
222,705	61,4
223,256	55,62
223,806	47,43
224,356	44,33
224,906	54,55
225,456	52,41
226,006	53,01
226,556	60
227,106	53,05
227,655	54,97
228,204	49,72
228,754	59,2
229,303	55,29
229,852	56,11
230,401	58,02
230,949	54,24
231,498	45,21
232,047	50
232,595	51,72
233,143	60
233,691	60,44
234,239	49,73
234,787	56,4
235,335	61,05
235,883	48,42
236,43	60,65
236,978	59,04
237,525	40,7
238,072	46,67
238,619	57,32
239,166	48,53
239,713	50,84
240,26	55,56
240,806	53,37
241,353	59,88
241,899	57,69
242,445	45,56
242,991	52,43
243,537	41,18
244,083	56,04
244,629	54
245,174	54,6
245,72	49,72
246,265	45,55
246,81	52,27
247,355	61,54
247,9	56,47
248,445	52,87
248,99	46,11
249,534	58,43
250,079	56,02
250,623	52,17
251,168	57,47
251,712	45,88
252,256	56,52
252,8	51,98
253,343	61,54
253,887	53,55
254,43	52,84
254,974	49,72
255,517	59,32
256,06	61,93
256,603	65,17
257,146	44,2
257,689	43,92
258,232	42,33
258,774	67,26
259,317	47,8
259,859	48,69
260,401	47,75
260,943	58,6
261,485	55,68
262,027	48,68
262,569	54,3
263,11	49,72
263,652	60,99
264,193	56,82
264,734	50,88
265,275	38,54
265,816	50,27
266,357	47,62
266,898	40,4
267,438	58,23
267,979	48,3
268,519	50
269,059	50,6
269,6	50,82
270,14	44,39
270,68	48,63
271,219	40,8
271,759	64,74
272,298	55,14
272,838	44,44
273,377	56,42
273,916	47,65
274,455	57,95
274,994	55
275,533	60,48
276,072	46,11
276,61	57,99
277,149	62,94
277,687	55,42
278,225	57,06
278,763	51,45
279,301	48,94
279,839	59,04
280,377	41,61
280,914	52,58
281,452	53,07
281,989	58,82
282,526	56,96
283,064	47,5
283,601	52,81
284,137	46,63
284,674	64,04
285,211	54,84
285,747	60,8
286,284	54,71
286,82	52,6
287,356	54,12
287,892	51,93
288,428	50,57
288,964	51,08
289,5	52,6
290,035	59,09
290,571	52,91
291,106	57,3
291,641	52,91
292,176	53,23
292,711	54,65
293,246	60,33
293,781	58,56
294,315	51,53
294,85	50,97
295,384	59,54
295,918	48,4
296,453	50,81
296,987	45,36
297,52	52,72
298,054	53,45
298,588	57,32
299,121	53,63
299,655	52,94
300,188	60
300,721	50,31
301,254	46,56
301,787	47,85
302,32	51,81
302,853	53,07
303,385	48,37
303,918	56
304,45	48,98
304,982	51,98
305,514	51,6
306,046	56,52
306,578	56,15
307,11	48,07
307,641	58,79
308,173	58,43
308,704	54,55
309,236	46,7
309,767	48,95
310,298	59,75
310,829	53,5
311,359	55,56
311,89	66,67
312,421	52,43
312,951	49,14
313,481	59,41
314,012	55,73
314,542	58,51
315,072	48,07
315,601	61,04
316,131	50
316,661	56,25
317,19	45,66
317,72	46,39
318,249	53,89
318,778	61,9
319,307	60,94
319,836	61,02
320,365	49,21
320,893	69,43
321,422	54,17
321,95	59,38
322,479	61,82
323,007	63,48
323,535	56,65
324,063	56,5
324,591	50,26
325,118	51,08
325,646	56,38
326,173	66,67
326,701	40,51
327,228	51,31
327,755	50,25
328,282	61,45
328,809	63,53
329,336	50,25
329,862	56,57
330,389	47,94
330,915	47,15
331,441	60,23
331,968	66,29
332,494	55,61
333,02	55,31
333,545	43,39
334,071	48,21
334,597	58,43
335,122	56,38
335,648	50,48
336,173	48,65
336,698	60,11
337,223	56,68
337,748	40,8
338,272	36,7
338,797	49,73
339,322	48,65
339,846	56,45
340,37	54,1
340,894	48,26
341,419	56,9
341,942	47,62
342,466	52,85
342,99	54,97
343,514	46,08
344,037	43,62
344,56	45,45
345,084	49,75
345,607	51,46
346,13	50,23
346,653	49,53
347,175	47,37
347,698	51,76
348,221	46,01
348,743	50
349,265	47,78
349,787	39,51
350,309	50,2
350,831	51,05
351,353	51,66
351,875	54,66
352,397	45,69
352,918	55,83
353,439	44,3
353,961	46,85
354,482	50,64
355,003	47,74
355,524	46,09
356,044	51,45
356,565	45,53
357,086	45,69
357,606	48,51
358,126	46,36
358,646	44,61
359,167	56,52
359,687	52,04
360,206	42,96
360,726	48,64
361,246	44,53
361,765	43,48
362,285	50,56
362,804	52,88
363,323	48,23
363,842	45,77
364,361	47,81
364,88	50,49
365,398	54,04
365,917	43,52
366,435	45,67
366,954	49,19
367,472	46,52
367,99	47,08
368,508	47,33
369,026	58,01
369,544	46,23
370,061	48,66
370,579	56,17
371,096	46,83
371,613	51,28
372,131	46,67
372,648	46,44
373,165	53,15
373,681	51,51
374,198	50,43
374,715	55,84
375,231	52,15
375,747	50,53
376,264	53
376,78	49,49
377,296	43,75
377,812	48,86
378,327	49,62
378,843	54,22
379,359	42,22
379,874	50,37
380,389	46,28
380,905	42,8
381,42	45,78
381,935	45,84
382,449	43,6
382,964	40,12
383,479	44,03
383,993	44,51
384,508	41,73
385,022	44,29
385,536	42,3
386,05	45,39
386,564	45,12
387,078	45,16
387,592	41,95
388,105	39,34
388,619	39,52
389,132	42,5
389,645	39,2
390,158	41,23
390,671	40,7
391,184	39,13
391,697	37,22
392,21	37,36
392,722	36,12
393,235	39,23
393,747	36,08
394,259	39,58
394,771	37,24
395,283	37,07
395,795	36,47
396,307	32,79
396,818	34,96
397,33	35,26
397,841	37,35
398,353	33,45
398,864	31,67
399,375	32,41
399,886	32,21
400,397	33,26
400,907	33,6
401,418	27,57
401,928	30,29
402,439	29,28
402,949	30,06
403,459	26,78
403,969	27,46
404,479	26,71
404,989	25,02
405,498	24,4
406,008	24,92
406,517	25,52
407,027	23,16
407,536	20,9
408,045	23,59
408,554	21,6
409,063	21,97
409,572	21,02
410,08	20,15
410,589	18,19
411,097	17,82
411,606	16,68
412,114	17,58
412,622	15,99
413,13	16,75
413,638	15,65
414,145	14,63
414,653	15,81
415,16	15,64
415,668	14,86
416,175	14,37
416,682	13,51
417,189	13,34
417,696	13,17
418,203	13,14
418,71	13,22
419,216	12,6
419,723	11,73
420,229	12,21
420,735	11,93
421,242	11,46
421,748	12,45
422,254	11,45
422,759	11,22
423,265	11,55
423,771	11,63
424,276	11,68
424,781	10,98
425,287	11,39
425,792	10,99
426,297	11,92
426,802	11,56
427,306	10,28
427,811	11,02
428,316	11,16
428,82	10,3
429,324	10,91
429,829	10,34
430,333	10,57
430,837	9,88
431,34	9,99
431,844	10,52
432,348	9,86
432,851	9,7
433,355	9,73
433,858	10,83
434,361	10,19
434,864	10,37
435,367	9,49
435,87	9,54
436,373	9,76
436,876	9,84
437,378	9,38
437,88	9,62
438,383	9,49
438,885	10,35
439,387	9,56
439,889	9,69
440,391	10,51
440,892	9,48
441,394	9,72
441,896	9,93
442,397	9,53
442,898	9,4
443,399	10,16
443,9	9,5
444,401	9,9
444,902	10,35
445,403	10,02
445,903	9,69
446,404	10,08
446,904	10,33
447,405	10,11
447,905	10,99
448,405	10,38
448,905	10,04
449,404	10,73
449,904	10,83
450,404	10,64
450,903	10,94
451,403	11,23
451,902	11,11
452,401	10,92
452,9	11,42
453,399	11,32
453,898	11,27
454,396	10,96
454,895	11,51
455,393	11,14
455,892	11,57
456,39	11,59
456,888	10,94
457,386	11,96
457,884	11,81
458,382	11,07
458,879	11,46
459,377	11,67
459,874	11,5
460,372	11,64
460,869	11,74
461,366	11,51
461,863	11,77
462,36	12,14
462,857	11,52
463,353	11,4
463,85	11,67
464,346	11,95
464,843	11,41
465,339	11,59
465,835	12,24
466,331	12,05
466,827	11,66
467,323	11,55
467,818	11,63
468,314	11,57
468,809	11,17
469,305	11,72
469,8	11,58
470,295	11,22
470,79	12,11
471,285	11,68
471,78	11,56
472,274	11,58
472,769	11,37
473,263	11,94
473,758	11,67
474,252	11,58
474,746	11,82
475,24	11,75
475,734	11,87
476,228	11,47
476,721	11,25
477,215	11,67
477,708	12,15
478,202	12,28
478,695	11,67
479,188	12,27
479,681	12,14
480,174	12,09
480,667	12,11
481,159	12,42
481,652	12,16
482,144	12,39
482,637	12,17
483,129	12,33
483,621	12,16
484,113	12,1
484,605	12,47
485,097	12,61
485,588	12,48
486,08	12,23
486,571	12,47
487,063	12,33
487,554	12,92
488,045	13,16
488,536	12,53
489,027	13,01
489,518	12,69
490,008	13,04
490,499	13,2
490,989	13,23
491,48	13,1
491,97	13,39
492,46	13,27
492,95	13,35
493,44	13,5
493,93	13,88
494,419	13,9
494,909	14,14
495,398	14,23
495,888	14,49
496,377	15,05
496,866	14,66
497,355	15,05
497,844	15
498,333	15,14
498,821	14,99
499,31	15,29
499,798	15,56
500,287	15,83
500,775	15,94
501,263	16,4
501,751	16,38
502,239	17,27
502,727	16,61
503,215	17,03
503,702	17,8
504,19	17,32
504,677	18,27
505,164	18,29
505,651	18,5
506,139	18,85
506,625	19,2
507,112	19,18
507,599	19,11
508,086	19,32
508,572	20,05
509,058	20,63
509,545	20,47
510,031	20,86
510,517	21,44
511,003	21,46
511,489	21,49
511,974	22,31
512,46	22,74
512,946	22,97
513,431	23,23
513,916	23,48
514,401	23,82
514,887	24,17
515,371	24,41
515,856	24,52
516,341	25,13
516,826	25,55
517,31	25,84
517,795	26,26
518,279	26,79
518,763	26,87
519,247	27,35
519,731	27,79
520,215	27,92
520,699	27,96
521,182	28,82
521,666	28,85
522,149	29,07
522,633	29,29
523,116	29,33
523,599	29,71
524,082	30,27
524,565	30,8
525,048	30,9
525,53	31,25
526,013	31,38
526,495	31,33
526,978	31,3
527,46	31,73
527,942	31,92
528,424	32,42
528,906	32,02
529,388	32,32
529,87	32,53
530,351	33,77
530,833	33,02
531,314	33,67
531,795	34,35
532,277	33,25
532,758	33,74
533,238	33,2
533,719	33,58
534,2	34,63
534,681	33,75
535,161	34,41
535,642	34,17
536,122	33,85
536,602	34,86
537,082	33,96
537,562	34,65
538,042	34,48
538,522	34,96
539,001	34,69
539,481	34,8
539,96	35,43
540,44	35,15
540,919	34,84
541,398	35,02
541,877	34,89
542,356	35,3
542,835	34,47
543,313	34,88
543,792	35,23
544,27	35,23
544,749	35,05
545,227	35,1
545,705	34,98
546,183	34,82
546,661	34,84
547,139	35,58
547,616	35,18
548,094	34,96
548,571	35,62
549,049	35,52
549,526	35,58
550,003	35,71
550,48	36
550,957	35,15
551,434	35,66
551,911	35,61
552,387	35,49
552,864	35,44
553,34	35,58
553,817	35,95
554,293	35,71
554,769	35,91
555,245	35,7
555,721	35,38
556,197	35,72
556,672	35,81
557,148	35,96
557,623	35,18
558,099	35,96
558,574	35,69
559,049	35,55
559,524	35,26
559,999	35,74
560,474	35,57
560,948	35,21
561,423	35,27
561,897	35,07
562,372	35,21
562,846	35,43
563,32	35,09
563,794	34,92
564,268	35,07
564,742	35,23
565,216	35,28
565,69	34,34
566,163	34,87
566,636	34,61
567,11	34,34
567,583	34,51
568,056	33,78
568,529	33,92
569,002	33,98
569,475	33,93
569,947	33,47
570,42	33,76
570,892	32,98
571,365	32,61
571,837	33,36
572,309	32,09
572,781	32,75
573,253	32,54
573,725	31,96
574,197	32,17
574,668	32,14
575,14	32,08
575,611	32,05
576,082	31,93
576,554	31,54
577,025	31,21
577,496	31,38
577,967	31,04
578,437	31,37
578,908	31,28
579,379	30,98
579,849	30,15
580,319	30,14
580,79	30,53
581,26	30,15
581,73	30,6
582,2	29,97
582,669	30,14
583,139	29,85
583,609	29,54
584,078	29,37
584,548	29,51
585,017	29,26
585,486	29,18
585,955	29,38
586,424	28,98
586,893	29,19
587,362	28,8
587,83	28,91
588,299	28,54
588,767	28,74
589,236	28,37
589,704	28,18
590,172	28,52
590,64	28,31
591,108	28,24
591,576	28,29
592,043	28,01
592,511	27,95
592,978	27,33
593,446	27,79
593,913	27,8
594,38	27,78
594,847	27,54
595,314	27,31
595,781	27,36
596,248	27,25
596,715	27,6
597,181	27,35
597,647	27,17
598,114	27,45
598,58	27,16
599,046	27,01
599,512	26,81
599,978	27,04
600,444	27,19
600,91	26,96
601,375	27,15
601,841	27
602,306	27,08
602,771	26,79
603,236	26,95
603,702	26,9
604,167	26,63
604,631	26,54
605,096	26,53
605,561	26,63
606,025	26,49
606,49	26,55
606,954	26,25
607,418	26,09
607,882	26,04
608,347	25,97
608,81	26,72
609,274	25,6
609,738	25,64
610,202	25,64
610,665	25,6
611,128	25,6
611,592	25,56
612,055	25,26
612,518	25,34
612,981	25,18
613,444	24,91
613,907	25,39
614,369	25,14
614,832	24,53
615,294	24,83
615,757	24,38
616,219	24,3
616,681	24,42
617,143	24,04
617,605	24,43
618,067	24,14
618,529	24,01
618,99	23,89
619,452	23,7
619,913	23,55
620,375	23,54
620,836	23,65
621,297	24,02
621,758	23,05
622,219	23,64
622,68	23,82
623,14	23,38
623,601	23,19
624,061	23,06
624,522	23,15
624,982	23,08
625,442	22,99
625,902	23,03
626,362	23,1
626,822	23,04
627,282	22,93
627,742	23,06
628,201	23,05
628,661	22,86
629,12	22,75
629,579	22,55
630,038	22,6
630,497	22,52
630,956	22,63
631,415	22,48
631,874	22,59
632,332	22,44
632,791	22,4
633,249	22,62
633,708	22,72
634,166	22,1
634,624	22,36
635,082	22,3
635,54	22,09
635,998	21,78
636,455	21,91
636,913	21,94
637,37	21,68
637,828	21,28
638,285	21,27
638,742	21,22
639,199	20,89
639,656	20,87
640,113	20,76
640,57	20,29
641,027	20,31
641,483	20,06
641,94	20,16
642,396	19,9
642,852	19,71
643,309	19,16
643,765	19,31
644,221	19,11
644,676	18,87
645,132	18,52
645,588	18,46
646,043	18,47
646,499	18,43
646,954	17,93
647,409	17,87
647,864	17,61
648,319	17,7
648,774	17,53
649,229	17,09
649,684	17,04
650,139	17,16
650,593	17,01
651,047	16,76
651,502	16,68
651,956	16,72
652,41	16,49
652,864	16,51
653,318	16,52
653,772	16,29
654,225	16,47
654,679	16,33
655,133	16,15
655,586	16,02
656,039	15,93
656,492	15,82
656,946	15,82
657,399	15,86
657,851	15,51
658,304	15,69
658,757	15,49
659,209	15,36
659,662	15,1
660,114	15,13
660,567	14,81
661,019	14,75
661,471	14,5
661,923	14,48
662,375	14,16
662,826	14,03
663,278	14,14
663,73	13,81
664,181	13,77
664,632	13,57
665,084	13,5
665,535	13,32
665,986	13,01
666,437	13,11
666,888	13,02
667,338	12,97
667,789	12,77
668,24	12,77
668,69	12,59
669,14	12,63
669,591	12,48
670,041	12,64
670,491	12,48
670,941	12,43
671,391	12,5
671,84	12,45
672,29	12,36
672,74	12,63
673,189	12,47
673,638	12,55
674,088	12,67
674,537	12,73
674,986	12,72
675,435	12,82
675,883	12,78
676,332	12,75
676,781	13,05
677,229	13,03
677,678	13,11
678,126	13,32
678,574	13,43
679,022	13,64
679,47	13,78
679,918	14
680,366	14,15
680,814	14,09
681,261	14,35
681,709	14,58
682,156	14,75
682,604	15,02
683,051	15,26
683,498	15,41
683,945	15,62
684,392	15,83
684,839	16,22
685,286	16,55
685,732	17,06
686,179	17,21
686,625	17,49
687,071	17,85
687,518	18,34
687,964	18,72
688,41	19,53
688,856	19,75
689,301	20,08
689,747	20,38
690,193	21,07
690,638	21,66
691,084	21,99
691,529	22,62
691,974	23,13
692,419	23,66
692,864	24,37
693,309	24,9
693,754	25,47
694,199	25,95
694,643	26,31
695,088	26,79
695,532	27,53
695,977	27,9
696,421	28,66
696,865	28,85
697,309	29,33
697,753	29,92
698,197	30,39
698,64	30,91
699,084	31,04
699,527	31,4
699,971	31,8
700,414	32,33
700,857	32,72
701,3	33,16
701,743	33,04
702,186	33,32
702,629	33,85
703,072	34,28
703,515	35,01
703,957	34,54
704,399	35,29
704,842	35,26
705,284	35,53
705,726	35,9
706,168	36,27
706,61	36,67
707,052	36,61
707,494	36,92
707,935	37,26
708,377	37,54
708,818	37,25
709,26	37,81
709,701	37,77
710,142	38,34
710,583	38,18
711,024	38,39
711,465	38,71
711,905	38,77
712,346	38,76
712,787	38,95
713,227	39,22
713,667	39,33
714,108	39,71
714,548	39,94
714,988	39,72
715,428	40,2
715,868	39,84
716,307	40,47
716,747	40,26
717,186	40,88
717,626	40,57
718,065	40,88
718,504	40,93
718,944	41
719,383	41,08
719,822	41,05
720,261	41,05
720,699	41,29
721,138	41,41
721,576	41,61
722,015	41,49
722,453	41,73
722,892	41,66
723,33	41,8
723,768	41,81
724,206	41,95
724,644	42,08
725,081	41,86
725,519	42,37
725,957	42,39
726,394	42,46
726,832	42,46
727,269	42,63
727,706	42,18
728,143	42,74
728,58	42,25
729,017	42,49
729,454	42,44
729,89	42,46
730,327	42,76
730,764	42,71
731,2	42,61
731,636	42,95
732,072	42,48
732,509	42,85
732,945	42,82
733,38	42,55
733,816	42,49
734,252	42,47
734,688	42,47
735,123	43,09
735,559	42,91
735,994	42,82
736,429	43,06
736,864	42,79
737,299	42,77
737,734	43,4
738,169	42,88
738,604	42,51
739,038	42,9
739,473	43,26
739,907	42,72
740,342	42,73
740,776	42,84
741,21	42,67
741,644	42,61
742,078	42,59
742,512	42,42
742,946	42,68
743,379	42,67
743,813	42,74
744,246	42,28
744,68	42,72
745,113	42,39
745,546	42,94
745,979	42,56
746,412	42,58
746,845	42,57
747,278	42,45
747,711	42,32
748,143	42,22
748,576	42,27
749,008	42,31
749,441	42,4
749,873	42,02
750,305	42,05
750,737	42,1
751,169	42,03
751,601	42,22
752,032	41,72
752,464	42,04
752,896	41,71
753,327	41,96
753,758	41,94
754,19	41,65
754,621	41,95
755,052	41,4
755,483	41,75
755,914	41,55
756,344	41,88
756,775	41,61
757,206	41,42
757,636	41,5
758,066	41,06
758,497	41,27
758,927	41,44
759,357	41,44
759,787	41,31
760,217	41,31
760,647	41,35
761,076	40,96
761,506	41,17
761,935	41,53
762,365	41,2
762,794	41,1
763,223	41,04
763,653	41,01
764,082	40,87
764,51	40,49
764,939	40,84
765,368	40,72
765,797	41,01
766,225	40,88
766,654	40,95
767,082	40,93
767,51	40,94
767,938	40,44
768,367	40,72
768,795	40,67
769,222	40,65
769,65	40,87
770,078	40,56
770,505	40,42
770,933	40,26
771,36	40,61
771,788	40,68
772,215	40,73
772,642	40,64
773,069	40,36
773,496	40,11
773,923	40,53
774,349	40,23
774,776	40,54
775,203	40,28
775,629	40,27
776,055	40,36
776,482	40,6
776,908	40,58
777,334	40,24
777,76	40,05
778,186	40,37
778,611	40,23
779,037	40,17
779,463	40,19
779,888	39,87
780,314	39,75
780,739	40,01
781,164	40,08
781,589	40,05
782,014	39,93
782,439	40,26
782,864	40,08
783,289	39,94
783,713	39,8
784,138	39,93
784,562	40,16
784,987	39,87
785,411	39,94
785,835	39,73
786,259	39,68
786,683	39,85
787,107	39,81
787,531	39,88
787,954	39,67
788,378	40,16
788,802	39,94
789,225	39,77
789,648	39,83
790,071	39,77
790,495	39,48
790,918	39,65
791,34	39,94
791,763	39,67
792,186	39,76
792,609	39,48
793,031	39,71
793,454	39,89
793,876	40,05
794,298	39,68
794,721	39,51
795,143	39,83
795,565	39,75
795,986	39,53
796,408	39,41
796,83	39,73
797,252	39,64
797,673	39,84
798,094	39,6
798,516	39,74
798,937	39,51
799,358	39,63
799,779	39,55
800,2	39,3
800,621	39,22
801,042	39,58
801,462	39,48
801,883	39,75
802,303	39,41
802,724	39,28
803,144	39,49
803,564	39,15
803,984	39,78
804,404	39,39
804,824	39,43
805,244	39,5
805,664	39,32
806,084	39,4
806,503	39,88
806,923	39,36
807,342	39,34
807,761	39,53
808,18	39,34
808,599	39,53
809,018	39,3
809,437	39,26
809,856	39,49
810,275	39,63
810,693	39,06
811,112	39,05
811,53	39
811,949	39,52
812,367	39,59
812,785	39,14
813,203	39,26
813,621	39,2
814,039	39,27
814,457	39,23
814,874	38,94
815,292	39,51
815,709	39,44
816,127	39,27
816,544	39,2
816,961	39,28
817,378	39,49
817,795	39,5
818,212	39,12
818,629	39,59
819,046	39,66
819,462	39,51
819,879	39,23
820,295	39,22
820,712	38,97
821,128	39,02
821,544	39,12
821,96	39,01
822,376	39,41
822,792	39,33
823,208	38,99
823,624	39,15
824,039	38,79
824,455	39,12
824,87	38,95
825,286	39,28
825,701	39,39
826,116	38,88
826,531	39,21
826,946	39,13
827,361	39,35
827,776	39,21
828,19	38,99
828,605	38,72
829,02	39,11
829,434	38,97
829,848	38,94
830,263	39,22
830,677	39,06
831,091	38,87
831,505	39,14
831,919	39,04
832,332	39,02
832,746	39,03
833,16	38,9
833,573	38,55
833,987	38,94
834,4	39,03
834,813	38,77
