Data from C4___Relative__0__00020.txt Node

Date: Thu Feb 01 16:17:13 CET 2024
User: diatiterra
Spectrometer: HDX00911
Trigger mode: 0
Integration Time (sec): 6,000000E-3
Scans to average: 2
Nonlinearity correction enabled: false
Boxcar width: 0
Storing dark spectrum: false
XAxis mode: Wavelengths
Number of Pixels in Spectrum: 2068
>>>>>Begin Spectral Data<<<<<
194,468	126,15
195,025	97,22
195,581	87,88
196,138	97,06
196,694	106,59
197,251	92,86
197,807	64,53
198,363	65,68
198,919	65,22
199,474	66,88
200,03	76,7
200,586	68,99
201,141	67,53
201,696	65,32
202,251	63,54
202,806	70,69
203,361	65,57
203,916	72,97
204,471	69,57
205,025	72,43
205,58	60,69
206,134	65,96
206,688	63,87
207,242	70,35
207,796	52,02
208,35	70,35
208,904	71,19
209,457	60
210,011	77,91
210,564	68,82
211,117	81,7
211,67	79,21
212,223	73,2
212,776	65,78
213,329	70,59
213,881	61,14
214,434	66
214,986	78,92
215,538	67,39
216,09	59,9
216,642	77,71
217,194	77,06
217,746	74,86
218,297	67,22
218,849	73,84
219,4	61,67
219,951	75,43
220,502	68,05
221,053	70,24
221,604	74,56
222,155	66,84
222,705	63,74
223,256	71,91
223,806	64,57
224,356	67,01
224,906	66,06
225,456	66,84
226,006	60,11
226,556	64,86
227,106	63,41
227,655	62,83
228,204	61,02
228,754	77,59
229,303	65,88
229,852	80
230,401	59,88
230,949	72,32
231,498	64,89
232,047	67,78
232,595	60,92
233,143	67,37
233,691	67,03
234,239	68,31
234,787	60,47
235,335	71,51
235,883	62,63
236,43	73,55
236,978	75
237,525	57,29
238,072	68,89
238,619	73,78
239,166	67,65
239,713	62,01
240,26	73,1
240,806	68,71
241,353	60,47
241,899	61,54
242,445	60,95
242,991	56,76
243,537	73,2
244,083	66,48
244,629	68,5
245,174	70,11
245,72	53,07
246,265	63,87
246,81	70,45
247,355	57,14
247,9	69,41
248,445	77,07
248,99	65
249,534	61,8
250,079	61,45
250,623	59,78
251,168	64,37
251,712	65,88
252,256	70,81
252,8	59,89
253,343	73,08
253,887	57,38
254,43	63,07
254,974	65,92
255,517	63,84
256,06	67,61
256,603	69,1
257,146	55,25
257,689	62,43
258,232	58,2
258,774	60,71
259,317	56,04
259,859	58,12
260,401	57,3
260,943	70,06
261,485	61,62
262,027	65,61
262,569	66,89
263,11	53,67
263,652	63,74
264,193	64,2
264,734	50,88
265,275	60,42
265,816	54,05
266,357	57,14
266,898	51,52
267,438	61,39
267,979	51,14
268,519	55,36
269,059	70,48
269,6	58,47
270,14	58,16
270,68	69,86
271,219	54,6
271,759	77,56
272,298	70,81
272,838	46,78
273,377	63,69
273,916	73,15
274,455	66,67
274,994	65,56
275,533	76,65
276,072	61,68
276,61	71,6
277,149	63,53
277,687	65,06
278,225	58,82
278,763	69,36
279,301	56,38
279,839	57,98
280,377	55,28
280,914	56,19
281,452	62,01
281,989	56,47
282,526	62,66
283,064	62,5
283,601	56,74
284,137	58,28
284,674	61,8
285,211	67,2
285,747	61,81
286,284	55,88
286,82	55,73
287,356	52,58
287,892	59,67
288,428	58,62
288,964	53,76
289,5	62,43
290,035	60,8
290,571	68,25
291,106	55,06
291,641	69,19
292,176	67,74
292,711	53,49
293,246	54,35
293,781	62,43
294,315	58,16
294,85	57,42
295,384	63,01
295,918	57,45
296,453	55,68
296,987	51,91
297,52	63,59
298,054	65,52
298,588	68,9
299,121	57,54
299,655	62,94
300,188	75,33
300,721	62,11
301,254	58,2
301,787	60,22
302,32	60,1
302,853	64,25
303,385	60,87
303,918	65,14
304,45	54,59
304,982	61,02
305,514	53,72
306,046	57,61
306,578	60,43
307,11	59,67
307,641	59,89
308,173	63,48
308,704	71,59
309,236	61,42
309,767	61,58
310,298	67,92
310,829	58,5
311,359	56,52
311,89	70,18
312,421	63,24
312,951	61,71
313,481	60,59
314,012	57,29
314,542	63,83
315,072	55,25
315,601	57,14
316,131	57,45
316,661	65,34
317,19	63,01
317,72	69,28
318,249	60
318,778	64,63
319,307	62,5
319,836	70,62
320,365	54,5
320,893	73,06
321,422	73,81
321,95	57,81
322,479	73,33
323,007	66,29
323,535	61,85
324,063	59,89
324,591	53,97
325,118	56,99
325,646	58,51
326,173	63,93
326,701	65,13
327,228	62,83
327,755	65,48
328,282	69,27
328,809	75,88
329,336	49,25
329,862	65,14
330,389	57,22
330,915	60,1
331,441	63,16
331,968	67,42
332,494	59,69
333,02	61,45
333,545	58,2
334,071	49,23
334,597	55,62
335,122	61,17
335,648	54,81
336,173	67,57
336,698	61,7
337,223	59,36
337,748	51,24
338,272	59,04
338,797	64,48
339,322	65,95
339,846	61,83
340,37	57,92
340,894	54,73
341,419	63,79
341,942	50,79
342,466	61,66
342,99	60,21
343,514	56,37
344,037	60,11
344,56	52,63
345,084	56,22
345,607	57,77
346,13	58,69
346,653	64,49
347,175	51,2
347,698	57,29
348,221	62,44
348,743	46,64
349,265	63,05
349,787	56,1
350,309	51,01
350,831	60,67
351,353	54,98
351,875	53,44
352,397	51,29
352,918	59,17
353,439	62,45
353,961	51,97
354,482	55,74
355,003	54,73
355,524	51,03
356,044	60,58
356,565	51,22
357,086	53,93
357,606	50,21
358,126	51,34
358,646	57,62
359,167	53,91
359,687	60,59
360,206	55,93
360,726	57,98
361,246	58,49
361,765	53,62
362,285	60,22
362,804	58,27
363,323	53,55
363,842	52,82
364,361	50
364,88	54,69
365,398	60
365,917	50
366,435	48,33
366,954	54,4
367,472	48,42
367,99	52,27
368,508	55
369,026	53,85
369,544	53,14
370,061	54,9
370,579	51,85
371,096	44,9
371,613	52,71
372,131	50,14
372,648	58,12
373,165	56,16
373,681	51,51
374,198	56,45
374,715	54,13
375,231	50,63
375,747	49,21
376,264	55,61
376,78	48,22
377,296	50,24
377,812	54,94
378,327	52,88
378,843	58,31
379,359	48,82
379,874	57,07
380,389	47,18
380,905	53,12
381,42	49,56
381,935	48,61
382,449	50,41
382,964	39,92
383,479	51,23
383,993	50,1
384,508	51,88
385,022	47,2
385,536	46,73
386,05	48,59
386,564	48,13
387,078	47,31
387,592	44,86
388,105	44,46
388,619	43,04
389,132	43,91
389,645	40,16
390,158	45,18
390,671	43,75
391,184	43,06
391,697	44,38
392,21	42,45
392,722	41,57
393,235	39,89
393,747	40,92
394,259	44,51
394,771	42,43
395,283	42,22
395,795	39,18
396,307	38,82
396,818	42,67
397,33	42,08
397,841	36,74
398,353	37,21
398,864	37,26
399,375	34,08
399,886	36,89
400,397	36,82
400,907	33,79
401,418	34,98
401,928	31,24
402,439	30,2
402,949	32,44
403,459	34,2
403,969	32,24
404,479	29,84
404,989	29,43
405,498	29,05
406,008	26,72
406,517	28,42
407,027	25,49
407,536	26,49
408,045	23,59
408,554	24,78
409,063	25,48
409,572	22,01
410,08	24,28
410,589	22,04
411,097	21,09
411,606	21,59
412,114	19,78
412,622	18,12
413,13	19,31
413,638	17,94
414,145	18,48
414,653	16,62
415,16	16,56
415,668	16,67
416,175	16,47
416,682	16,9
417,189	15,42
417,696	15,42
418,203	14,95
418,71	14,19
419,216	13,79
419,723	14,43
420,229	14,98
420,735	14,86
421,242	13,62
421,748	13,43
422,254	13,67
422,759	13,27
423,265	14,05
423,771	13,77
424,276	13,86
424,781	13,57
425,287	13,21
425,792	14,25
426,297	12,88
426,802	13,54
427,306	13,2
427,811	12,67
428,316	12,85
428,82	12,85
429,324	12,16
429,829	12,67
430,333	13,32
430,837	12,45
431,34	13,12
431,844	12,49
432,348	12,3
432,851	12,25
433,355	12,44
433,858	12,57
434,361	12,02
434,864	12,37
435,367	12,36
435,87	11,94
436,373	11,63
436,876	11,64
437,378	12,32
437,88	11,74
438,383	11,85
438,885	12,18
439,387	11,46
439,889	11,83
440,391	11,69
440,892	11,98
441,394	11,94
441,896	12,22
442,397	12,08
442,898	12,48
443,399	11,99
443,9	11,79
444,401	12,01
444,902	13,06
445,403	11,5
445,903	12,05
446,404	11,85
446,904	11,98
447,405	12,34
447,905	12,07
448,405	12,16
448,905	12,86
449,404	11,43
449,904	11,87
450,404	12,3
450,903	12,17
451,403	12,43
451,902	12,62
452,401	12,55
452,9	12,26
453,399	12,71
453,898	12,28
454,396	12,04
454,895	11,85
455,393	12,14
455,892	12,16
456,39	12,7
456,888	11,78
457,386	12,83
457,884	12,51
458,382	12,46
458,879	12,54
459,377	12,47
459,874	12,49
460,372	12,36
460,869	12,89
461,366	12,24
461,863	12,74
462,36	12,91
462,857	12,44
463,353	12,35
463,85	12,78
464,346	12,91
464,843	12,77
465,339	12,22
465,835	12,97
466,331	12,46
466,827	12,88
467,323	11,81
467,818	12,47
468,314	12,45
468,809	12,52
469,305	12,19
469,8	12,84
470,295	12,36
470,79	12,55
471,285	12,37
471,78	12,46
472,274	12,77
472,769	12,49
473,263	12,65
473,758	12,45
474,252	13,01
474,746	12,78
475,24	12,76
475,734	12,96
476,228	12,63
476,721	12,36
477,215	12,31
477,708	12,86
478,202	13,12
478,695	12,9
479,188	12,59
479,681	12,67
480,174	12,77
480,667	12,85
481,159	12,32
481,652	12,86
482,144	13,02
482,637	12,94
483,129	12,64
483,621	12,83
484,113	13,07
484,605	13,15
485,097	12,74
485,588	12,9
486,08	12,96
486,571	12,87
487,063	12,95
487,554	13,23
488,045	13
488,536	12,78
489,027	13,04
489,518	13,32
490,008	12,82
490,499	13,04
490,989	13,28
491,48	13,53
491,97	13,54
492,46	13,43
492,95	13,57
493,44	13,75
493,93	13,55
494,419	13,75
494,909	13,63
495,398	14,01
495,888	13,95
496,377	13,81
496,866	14,09
497,355	14,22
497,844	14,37
498,333	14,28
498,821	14,1
499,31	14,66
499,798	14,49
500,287	14,47
500,775	14,78
501,263	15,03
501,751	14,9
502,239	15,32
502,727	15,48
503,215	15,57
503,702	15,72
504,19	15,61
504,677	16,25
505,164	16,21
505,651	15,91
506,139	16,73
506,625	17,18
507,112	17,29
507,599	17,35
508,086	17,3
508,572	17,81
509,058	17,77
509,545	18,08
510,031	18,54
510,517	18,61
511,003	18,76
511,489	18,86
511,974	19,62
512,46	20,12
512,946	20,39
513,431	20,42
513,916	21,32
514,401	20,41
514,887	21,34
515,371	21,67
515,856	21,99
516,341	22,27
516,826	22,73
517,31	22,96
517,795	23,66
518,279	23,51
518,763	23,85
519,247	24,38
519,731	25,01
520,215	25,08
520,699	25,36
521,182	26,03
521,666	26,02
522,149	26,23
522,633	26,45
523,116	27,03
523,599	27,38
524,082	27,8
524,565	28,32
525,048	28,4
525,53	28,98
526,013	29
526,495	29,7
526,978	29,9
527,46	29,89
527,942	30,91
528,424	30,6
528,906	30,67
529,388	31,03
529,87	31,61
530,351	31,86
530,833	31,8
531,314	31,82
531,795	32,4
532,277	32,23
532,758	32,46
533,238	32,06
533,719	32,4
534,2	32,54
534,681	32,45
535,161	32,45
535,642	33,11
536,122	33,49
536,602	33,31
537,082	33,44
537,562	33,76
538,042	33,77
538,522	33,67
539,001	33,96
539,481	33,45
539,96	34,81
540,44	33,95
540,919	34,06
541,398	34,34
541,877	34,14
542,356	33,82
542,835	33,84
543,313	33,79
543,792	34,13
544,27	34,33
544,749	34,24
545,227	34,8
545,705	34,37
546,183	34,45
546,661	34,47
547,139	34,65
547,616	34,66
548,094	34,76
548,571	34,76
549,049	34,83
549,526	34,81
550,003	34,22
550,48	35,05
550,957	34,74
551,434	34,66
551,911	34,76
552,387	34,7
552,864	35,3
553,34	35,25
553,817	35,05
554,293	34,66
554,769	34,84
555,245	34,98
555,721	35
556,197	35,11
556,672	35,11
557,148	35,37
557,623	34,63
558,099	34,8
558,574	35,26
559,049	34,53
559,524	34,65
559,999	34,6
560,474	34,95
560,948	34,1
561,423	34,31
561,897	33,99
562,372	34,03
562,846	34
563,32	33,61
563,794	34,04
564,268	33,91
564,742	33,55
565,216	33,63
565,69	34,12
566,163	33,53
566,636	33,28
567,11	33,04
567,583	32,74
568,056	32,74
568,529	32,41
569,002	32,33
569,475	32,27
569,947	31,5
570,42	31,59
570,892	31,38
571,365	31,11
571,837	31,27
572,309	30,45
572,781	30,77
573,253	30,28
573,725	30,39
574,197	30,19
574,668	29,86
575,14	29,72
575,611	29,55
576,082	29,63
576,554	29,3
577,025	28,82
577,496	28,56
577,967	29,14
578,437	28,51
578,908	28,47
579,379	28,3
579,849	27,94
580,319	27,93
580,79	27,61
581,26	27,54
581,73	27,56
582,2	27,15
582,669	27,1
583,139	27,26
583,609	26,89
584,078	26,43
584,548	26,76
585,017	26,13
585,486	26,32
585,955	26,42
586,424	26,29
586,893	26,25
587,362	25,94
587,83	25,67
588,299	25,45
588,767	25,81
589,236	25,66
589,704	25,18
590,172	25,42
590,64	25,02
591,108	24,98
591,576	24,87
592,043	24,9
592,511	25,16
592,978	24,71
593,446	24,45
593,913	24,82
594,38	24,89
594,847	24,55
595,314	24,74
595,781	24,32
596,248	24,41
596,715	24,15
597,181	24,31
597,647	24,67
598,114	24,11
598,58	24,05
599,046	24,12
599,512	23,91
599,978	24,12
600,444	23,85
600,91	23,91
601,375	24,18
601,841	23,85
602,306	23,55
602,771	23,48
603,236	23,95
603,702	23,59
604,167	23,42
604,631	23,31
605,096	23,48
605,561	23,41
606,025	23,13
606,49	23,15
606,954	23,15
607,418	22,98
607,882	22,95
608,347	23,02
608,81	23,17
609,274	22,88
609,738	22,27
610,202	22,37
610,665	22,43
611,128	22,26
611,592	21,86
612,055	21,96
612,518	21,86
612,981	21,97
613,444	21,58
613,907	21,87
614,369	21,49
614,832	21,48
615,294	21,1
615,757	21,07
616,219	20,71
616,681	21,25
617,143	20,64
617,605	20,76
618,067	20,78
618,529	20,68
618,99	20,46
619,452	20,51
619,913	20,39
620,375	19,96
620,836	20,13
621,297	20,04
621,758	20,08
622,219	20,1
622,68	20,24
623,14	19,95
623,601	19,87
624,061	19,64
624,522	19,6
624,982	19,82
625,442	19,34
625,902	19,56
626,362	19,46
626,822	19,7
627,282	19,66
627,742	19,4
628,201	19,49
628,661	19,67
629,12	19,52
629,579	19,28
630,038	19,47
630,497	19,21
630,956	19,38
631,415	19,13
631,874	19,24
632,332	19,05
632,791	19,03
633,249	19,06
633,708	19,09
634,166	18,93
634,624	18,97
635,082	18,98
635,54	18,8
635,998	18,53
636,455	18,55
636,913	18,43
637,37	18,17
637,828	18,16
638,285	18,15
638,742	17,87
639,199	17,74
639,656	17,95
640,113	17,48
640,57	17,45
641,027	17,46
641,483	17,17
641,94	17,24
642,396	16,95
642,852	16,9
643,309	16,62
643,765	16,35
644,221	16,5
644,676	16,23
645,132	16,21
645,588	16,05
646,043	15,84
646,499	15,61
646,954	15,64
647,409	15,47
647,864	15,51
648,319	15,61
648,774	15,33
649,229	14,93
649,684	15,19
650,139	14,91
650,593	14,8
651,047	14,57
651,502	14,62
651,956	14,9
652,41	14,5
652,864	14,74
653,318	14,45
653,772	14,52
654,225	14,49
654,679	14,47
655,133	14,38
655,586	14,19
656,039	14,15
656,492	14,13
656,946	14,12
657,399	14,1
657,851	14,16
658,304	13,96
658,757	13,7
659,209	13,62
659,662	13,63
660,114	13,46
660,567	13,28
661,019	13,34
661,471	13,21
661,923	13,14
662,375	13,15
662,826	13,2
663,278	13,01
663,73	12,65
664,181	12,96
664,632	12,75
665,084	12,73
665,535	12,77
665,986	12,67
666,437	12,82
666,888	12,69
667,338	12,71
667,789	12,71
668,24	12,58
668,69	12,74
669,14	12,44
669,591	12,62
670,041	12,59
670,491	12,54
670,941	12,83
671,391	12,85
671,84	12,8
672,29	12,95
672,74	12,95
673,189	12,96
673,638	13,06
674,088	13,01
674,537	13,15
674,986	13,33
675,435	13,33
675,883	13,42
676,332	13,36
676,781	13,44
677,229	13,37
677,678	13,68
678,126	13,87
678,574	13,97
679,022	14,04
679,47	14,34
679,918	14,35
680,366	14,57
680,814	14,49
681,261	14,68
681,709	14,79
682,156	14,95
682,604	15
683,051	15,14
683,498	15,39
683,945	15,65
684,392	15,73
684,839	15,99
685,286	15,9
685,732	15,96
686,179	16,2
686,625	16,34
687,071	16,76
687,518	16,66
687,964	17,07
688,41	17,14
688,856	17,43
689,301	17,71
689,747	18,06
690,193	18,62
690,638	18,96
691,084	19,25
691,529	19,66
691,974	20,05
692,419	20,65
692,864	21,26
693,309	21,84
693,754	22,18
694,199	22,77
694,643	23,52
695,088	23,9
695,532	24,35
695,977	25,15
696,421	25,68
696,865	26,13
697,309	26,81
697,753	27,41
698,197	27,78
698,64	28,47
699,084	29,17
699,527	29,44
699,971	30,27
700,414	30,95
700,857	31,44
701,3	31,79
701,743	32,32
702,186	32,81
702,629	33,37
703,072	34,01
703,515	34,85
703,957	34,77
704,399	35,19
704,842	35,95
705,284	36,24
705,726	36,97
706,168	37
706,61	37,78
707,052	37,84
707,494	38,56
707,935	39,19
708,377	39,35
708,818	40,07
709,26	40,21
709,701	40,22
710,142	40,88
710,583	41
711,024	41,59
711,465	41,86
711,905	42,16
712,346	42,67
712,787	42,52
713,227	43,27
713,667	43,82
714,108	43,84
714,548	44,59
714,988	44,4
715,428	44,89
715,868	45,26
716,307	45,54
716,747	45,69
717,186	46,12
717,626	46,61
718,065	46,52
718,504	46,59
718,944	47,23
719,383	47,4
719,822	47,34
720,261	47,64
720,699	48,07
721,138	47,98
721,576	48,6
722,015	48,49
722,453	48,83
722,892	49,09
723,33	49,28
723,768	49,42
724,206	49,54
724,644	50,05
725,081	49,96
725,519	49,92
725,957	50,33
726,394	50,48
726,832	50,58
727,269	50,57
727,706	50,54
728,143	50,92
728,58	50,89
729,017	51,29
729,454	51,26
729,89	51,26
730,327	51,63
730,764	51,45
731,2	51,69
731,636	51,74
732,072	51,78
732,509	52,29
732,945	51,96
733,38	51,91
733,816	51,88
734,252	52,25
734,688	51,95
735,123	52,45
735,559	52,16
735,994	52,43
736,429	52,01
736,864	52,61
737,299	52,13
737,734	53,02
738,169	52,84
738,604	52,42
739,038	52,5
739,473	52,81
739,907	52,46
740,342	52,77
740,776	52,84
741,21	52,49
741,644	52,56
742,078	52,63
742,512	52,51
742,946	52,52
743,379	52,9
743,813	52,49
744,246	52,23
744,68	52,72
745,113	52,37
745,546	52,98
745,979	52,42
746,412	52,58
746,845	52,37
747,278	52,79
747,711	52,66
748,143	52,4
748,576	52,27
749,008	52,23
749,441	52,76
749,873	51,92
750,305	52,52
750,737	52,29
751,169	51,97
751,601	52,34
752,032	52,14
752,464	51,89
752,896	51,56
753,327	51,87
753,758	51,69
754,19	52,22
754,621	52,06
755,052	51,54
755,483	51,8
755,914	51,78
756,344	51,52
756,775	51,96
757,206	51,32
757,636	51,67
758,066	51,46
758,497	51,46
758,927	51,61
759,357	51,13
759,787	51,14
760,217	51,27
760,647	51,39
761,076	50,76
761,506	50,76
761,935	51,38
762,365	51,26
762,794	50,85
763,223	51
763,653	50,75
764,082	50,77
764,51	51
764,939	50,63
765,368	50,86
765,797	50,81
766,225	50,68
766,654	50,69
767,082	51
767,51	50,64
767,938	50,02
768,367	50,58
768,795	50,62
769,222	50,29
769,65	50,5
770,078	50,34
770,505	50,33
770,933	50,15
771,36	50,37
771,788	50,55
772,215	50,01
772,642	50,06
773,069	49,82
773,496	49,71
773,923	49,74
774,349	50,06
774,776	50,01
775,203	49,63
775,629	50,49
776,055	50,07
776,482	49,68
776,908	49,61
777,334	49,9
777,76	49,97
778,186	50,1
778,611	49,7
779,037	49,76
779,463	49,46
779,888	49,57
780,314	49,2
780,739	49,2
781,164	49,87
781,589	49,5
782,014	49,34
782,439	49,66
782,864	49,55
783,289	49,14
783,713	49,57
784,138	49,44
784,562	49,69
784,987	49,66
785,411	49,49
785,835	49,51
786,259	49,54
786,683	49,33
787,107	49,3
787,531	49,37
787,954	49,29
788,378	49,15
788,802	49,71
789,225	49,01
789,648	49,05
790,071	49,1
790,495	48,96
790,918	49,32
791,34	49,19
791,763	49,16
792,186	49,4
792,609	49,01
793,031	49,2
793,454	49,04
793,876	49,04
794,298	49,01
794,721	49,32
795,143	49,15
795,565	49,25
795,986	49,12
796,408	48,66
796,83	49,6
797,252	48,7
797,673	48,91
798,094	48,6
798,516	49,29
798,937	48,97
799,358	49,15
799,779	48,81
800,2	48,73
800,621	48,38
801,042	49,39
801,462	48,5
801,883	48,88
802,303	49,01
802,724	48,7
803,144	48,81
803,564	49,01
803,984	48,89
804,404	48,74
804,824	48,9
805,244	48,86
805,664	48,67
806,084	48,68
806,503	48,64
806,923	48,83
807,342	48,72
807,761	48,54
808,18	48,38
808,599	48,62
809,018	48,76
809,437	48,35
809,856	48,69
810,275	48,64
810,693	48,6
811,112	48,6
811,53	48,84
811,949	48,31
812,367	48,74
812,785	48,7
813,203	48,67
813,621	48,43
814,039	48,48
814,457	48,25
814,874	48,49
815,292	48,73
815,709	48,47
816,127	48,37
816,544	48,5
816,961	48,4
817,378	48,92
817,795	48,7
818,212	48,4
818,629	48,74
819,046	49,01
819,462	48,61
819,879	48,58
820,295	48,54
820,712	48,29
821,128	48,35
821,544	48,27
821,96	48,4
822,376	48,46
822,792	48,24
823,208	48,2
823,624	48,64
824,039	48,06
824,455	48,31
824,87	48,63
825,286	48,29
825,701	48,36
826,116	47,98
826,531	48,36
826,946	48,25
827,361	48,17
827,776	48,41
828,19	48,21
828,605	48,06
829,02	48,16
829,434	48,37
829,848	47,72
830,263	48,29
830,677	48,28
831,091	48,44
831,505	48,4
831,919	48,02
832,332	47,98
832,746	47,59
833,16	47,95
833,573	48,06
833,987	48,24
834,4	47,93
