Data from D3__Relative__2__00038.txt Node

Date: Thu Feb 01 16:19:13 CET 2024
User: diatiterra
Spectrometer: HDX00911
Trigger mode: 0
Integration Time (sec): 6,000000E-3
Scans to average: 2
Nonlinearity correction enabled: false
Boxcar width: 0
Storing dark spectrum: false
XAxis mode: Wavelengths
Number of Pixels in Spectrum: 2068
>>>>>Begin Spectral Data<<<<<
194,468	156,92
195,025	91,67
195,581	93,94
196,138	86,76
196,694	89,01
197,251	92,06
197,807	59,3
198,363	57,99
198,919	59,24
199,474	65,61
200,03	68,75
200,586	70,25
201,141	56,19
201,696	58,38
202,251	58,56
202,806	62,64
203,361	57,92
203,916	64,86
204,471	66,3
205,025	65,41
205,58	63,01
206,134	71,28
206,688	60,21
207,242	58,72
207,796	47,98
208,35	65,7
208,904	68,93
209,457	62,94
210,011	65,64
210,564	68,28
211,117	64,05
211,67	70,22
212,223	68,04
212,776	57,22
213,329	65,78
213,881	63,73
214,434	57
214,986	65,06
215,538	61,41
216,09	67,19
216,642	59,64
217,194	75,29
217,746	66,29
218,297	57,22
218,849	68,02
219,4	55
219,951	68,57
220,502	59,17
221,053	66,07
221,604	62,72
222,155	57,22
222,705	53,8
223,256	64,04
223,806	62,29
224,356	47,42
224,906	64,85
225,456	54,55
226,006	47,54
226,556	58,38
227,106	60,37
227,655	51,83
228,204	71,75
228,754	68,97
229,303	61,76
229,852	67,22
230,401	62,35
230,949	58,19
231,498	69,68
232,047	53,33
232,595	64,37
233,143	61,05
233,691	57,69
234,239	62,84
234,787	63,37
235,335	66,86
235,883	57,37
236,43	60
236,978	65,43
237,525	55,78
238,072	47,22
238,619	62,8
239,166	62,25
239,713	57,54
240,26	59,06
240,806	59,51
241,353	65,12
241,899	58,79
242,445	55,62
242,991	60,54
243,537	66,67
244,083	62,09
244,629	54
245,174	59,77
245,72	65,36
246,265	48,17
246,81	60,23
247,355	55,49
247,9	59,41
248,445	55,41
248,99	64,44
249,534	57,87
250,079	54,82
250,623	50,54
251,168	67,24
251,712	58,82
252,256	63,35
252,8	52,54
253,343	70,33
253,887	59,02
254,43	52,84
254,974	58,66
255,517	54,24
256,06	68,18
256,603	72,47
257,146	64,64
257,689	59,79
258,232	56,08
258,774	63,1
259,317	52,2
259,859	56,54
260,401	51,69
260,943	59,24
261,485	54,59
262,027	49,21
262,569	70,2
263,11	44,63
263,652	64,84
264,193	61,36
264,734	54,97
265,275	58,33
265,816	62,7
266,357	64,02
266,898	42,42
267,438	63,92
267,979	54,55
268,519	60,12
269,059	65,66
269,6	61,75
270,14	59,18
270,68	71,23
271,219	56,32
271,759	72,44
272,298	69,73
272,838	59,06
273,377	48,04
273,916	69,13
274,455	72,82
274,994	63,33
275,533	65,27
276,072	61,08
276,61	65,68
277,149	65,29
277,687	68,67
278,225	68,82
278,763	63,01
279,301	63,3
279,839	64,89
280,377	58,39
280,914	61,34
281,452	64,8
281,989	59,41
282,526	68,35
283,064	60,62
283,601	65,17
284,137	65,64
284,674	67,42
285,211	61,83
285,747	64,82
286,284	64,71
286,82	68,75
287,356	69,07
287,892	68,51
288,428	50
288,964	69,89
289,5	68,21
290,035	75
290,571	52,38
291,106	65,73
291,641	66,86
292,176	63,44
292,711	63,37
293,246	59,24
293,781	69,61
294,315	60,2
294,85	69,03
295,384	72,83
295,918	63,3
296,453	56,76
296,987	53,55
297,52	58,15
298,054	64,37
298,588	76,22
299,121	55,87
299,655	64,12
300,188	74,67
300,721	69,57
301,254	68,25
301,787	63,98
302,32	60,1
302,853	72,07
303,385	61,96
303,918	70,29
304,45	61,22
304,982	63,28
305,514	57,98
306,046	67,39
306,578	63,1
307,11	65,75
307,641	66,48
308,173	70,22
308,704	69,89
309,236	57,87
309,767	63,16
310,298	62,26
310,829	62
311,359	63,29
311,89	66,67
312,421	55,68
312,951	62,29
313,481	61,18
314,012	62,5
314,542	60,11
315,072	67,4
315,601	70,13
316,131	51,6
316,661	64,2
317,19	56,07
317,72	59,04
318,249	52,78
318,778	70,07
319,307	58,85
319,836	58,19
320,365	61,9
320,893	59,07
321,422	67,26
321,95	70,83
322,479	75,15
323,007	62,36
323,535	67,63
324,063	47,46
324,591	65,08
325,118	60,22
325,646	70,74
326,173	67,21
326,701	53,85
327,228	56,02
327,755	63,45
328,282	54,19
328,809	66,47
329,336	58,21
329,862	62,29
330,389	51,03
330,915	62,18
331,441	61,4
331,968	68,54
332,494	59,18
333,02	56,42
333,545	60,85
334,071	50,26
334,597	63,48
335,122	59,04
335,648	50
336,173	62,16
336,698	61,17
337,223	56,68
337,748	53,23
338,272	54,79
338,797	58,47
339,322	48,65
339,846	55,38
340,37	51,91
340,894	48,76
341,419	65,52
341,942	52,91
342,466	56,48
342,99	64,92
343,514	44,12
344,037	48,94
344,56	53,59
345,084	53,23
345,607	47,09
346,13	42,25
346,653	52,8
347,175	59,81
347,698	54,27
348,221	51,64
348,743	46,64
349,265	47,78
349,787	43,41
350,309	44,13
350,831	56,49
351,353	47,39
351,875	51,42
352,397	44,4
352,918	53,75
353,439	46,41
353,961	44,49
354,482	53,62
355,003	44,44
355,524	47,33
356,044	46,06
356,565	38,62
357,086	44,57
357,606	36,6
358,126	46,36
358,646	44,98
359,167	43,04
359,687	43,49
360,206	48,15
360,726	47,08
361,246	38,11
361,765	42,39
362,285	44,98
362,804	41,01
363,323	42,2
363,842	37,32
364,361	39,78
364,88	35,92
365,398	42,81
365,917	39,51
366,435	37,33
366,954	42,67
367,472	39,56
367,99	36,04
368,508	38,33
369,026	45,51
369,544	33,65
370,061	40,95
370,579	41,36
371,096	35,54
371,613	37,89
372,131	40,29
372,648	41,03
373,165	35,89
373,681	35,84
374,198	39,26
374,715	40,46
375,231	43,29
375,747	37,3
376,264	40,21
376,78	32,99
377,296	31,73
377,812	36,2
378,327	33,83
378,843	32,23
379,359	28,54
379,874	34,99
380,389	31,15
380,905	30,54
381,42	33,11
381,935	32,2
382,449	30,17
382,964	32,02
383,479	31,48
383,993	35,61
384,508	30,64
385,022	30,17
385,536	26,37
386,05	33,33
386,564	33,39
387,078	29,03
387,592	28,77
388,105	22,31
388,619	23,2
389,132	24,53
389,645	23,36
390,158	27,78
390,671	25,15
391,184	24,12
391,697	25,42
392,21	22,39
392,722	25,1
393,235	22,59
393,747	22,35
394,259	26,48
394,771	24,01
395,283	25,46
395,795	23,07
396,307	20,48
396,818	20,05
397,33	21,49
397,841	21,78
398,353	19,64
398,864	20,51
399,375	19,71
399,886	20,02
400,397	18,83
400,907	18,03
401,418	19,2
401,928	17,95
402,439	17,03
402,949	16,45
403,459	17,42
403,969	16,3
404,479	15,64
404,989	16,87
405,498	15,68
406,008	13,56
406,517	13,37
407,027	15,12
407,536	13,82
408,045	14,9
408,554	12,52
409,063	11,71
409,572	12,77
410,08	12,6
410,589	12,54
411,097	10,41
411,606	10,03
412,114	10,66
412,622	9,6
413,13	10,48
413,638	8,43
414,145	8,55
414,653	9,19
415,16	8,84
415,668	8,55
416,175	8,5
416,682	7,96
417,189	7,46
417,696	7,73
418,203	7,12
418,71	7,53
419,216	7,18
419,723	6,77
420,229	6,73
420,735	7,65
421,242	5,92
421,748	6,68
422,254	6,38
422,759	5,9
423,265	6,3
423,771	6,6
424,276	5,63
424,781	6,02
425,287	5,56
425,792	6,34
426,297	5,81
426,802	5,84
427,306	5,7
427,811	5,87
428,316	5,58
428,82	5,63
429,324	5,67
429,829	5,45
430,333	5,83
430,837	5,57
431,34	5,38
431,844	5,31
432,348	5,34
432,851	4,94
433,355	5,06
433,858	5,32
434,361	5,3
434,864	5,61
435,367	5,18
435,87	4,71
436,373	5,21
436,876	5,6
437,378	4,83
437,88	5,02
438,383	5,21
438,885	5
439,387	5,07
439,889	4,68
440,391	4,83
440,892	5,15
441,394	5,09
441,896	4,94
442,397	5,13
442,898	4,89
443,399	5,16
443,9	5,17
444,401	4,99
444,902	5,21
445,403	5,32
445,903	5,02
446,404	4,91
446,904	5,05
447,405	5,06
447,905	5,22
448,405	5,24
448,905	4,93
449,404	5,01
449,904	5,02
450,404	4,96
450,903	4,83
451,403	5,22
451,902	5,49
452,401	4,78
452,9	5,54
453,399	5,16
453,898	5,19
454,396	5,16
454,895	5,14
455,393	5,01
455,892	5,15
456,39	5,08
456,888	4,94
457,386	5,52
457,884	5,24
458,382	4,98
458,879	5,12
459,377	5,66
459,874	5,41
460,372	5,23
460,869	5,19
461,366	5,1
461,863	5,19
462,36	5,13
462,857	5,55
463,353	5,37
463,85	4,93
464,346	5,07
464,843	5,48
465,339	4,8
465,835	5,49
466,331	5,25
466,827	5,17
467,323	5,24
467,818	4,92
468,314	5,46
468,809	5,23
469,305	5,3
469,8	5,18
470,295	5,24
470,79	5,2
471,285	5,37
471,78	5,12
472,274	5,17
472,769	5,38
473,263	5,23
473,758	4,9
474,252	5,14
474,746	5,1
475,24	5,01
475,734	5,1
476,228	5,07
476,721	5,1
477,215	5,05
477,708	5,04
478,202	5,28
478,695	5,34
479,188	5,41
479,681	5,47
480,174	5,18
480,667	5,11
481,159	5,17
481,652	5,05
482,144	5,3
482,637	5,3
483,129	5,37
483,621	5,52
484,113	5,35
484,605	5,76
485,097	5,69
485,588	5,32
486,08	5,29
486,571	5,59
487,063	5,26
487,554	5,4
488,045	5,77
488,536	5,55
489,027	5,38
489,518	5,3
490,008	5,61
490,499	5,58
490,989	5,84
491,48	5,81
491,97	5,87
492,46	5,74
492,95	5,97
493,44	6,09
493,93	5,96
494,419	5,94
494,909	6,12
495,398	6,06
495,888	6,01
496,377	6,23
496,866	6,39
497,355	6,53
497,844	6,65
498,333	6,73
498,821	6,62
499,31	6,79
499,798	7,05
500,287	7,1
500,775	7,05
501,263	7,24
501,751	7,21
502,239	7,9
502,727	7,49
503,215	7,85
503,702	8,11
504,19	8,13
504,677	8,46
505,164	8,44
505,651	8,4
506,139	8,73
506,625	9
507,112	8,7
507,599	9,57
508,086	9,46
508,572	9,65
509,058	10,06
509,545	9,8
510,031	10,63
510,517	10,62
511,003	10,96
511,489	11,3
511,974	11,43
512,46	11,76
512,946	11,78
513,431	12,32
513,916	12,56
514,401	12,6
514,887	13,32
515,371	13,3
515,856	13,53
516,341	13,68
516,826	14,25
517,31	14,83
517,795	14,75
518,279	15,4
518,763	15,55
519,247	15,84
519,731	16,24
520,215	16,71
520,699	17,17
521,182	17,49
521,666	17,53
522,149	18,4
522,633	18,23
523,116	18,84
523,599	18,8
524,082	19,4
524,565	19,73
525,048	20,11
525,53	20,32
526,013	20,46
526,495	20,79
526,978	20,84
527,46	21,11
527,942	21,53
528,424	21,71
528,906	21,89
529,388	22,48
529,87	22,56
530,351	23
530,833	23,16
531,314	22,68
531,795	23,88
532,277	23,7
532,758	23,84
533,238	23,58
533,719	24,22
534,2	24,06
534,681	23,84
535,161	24,18
535,642	24,47
536,122	24,4
536,602	24,6
537,082	24,62
537,562	24,56
538,042	24,84
538,522	25,25
539,001	24,98
539,481	24,63
539,96	25,32
540,44	25,43
540,919	24,94
541,398	25,37
541,877	25,76
542,356	25,27
542,835	25,48
543,313	25,83
543,792	25,77
544,27	26,05
544,749	25,49
545,227	25,75
545,705	25,66
546,183	25,79
546,661	25,82
547,139	25,99
547,616	26,04
548,094	25,97
548,571	26,14
549,049	26,2
549,526	26,41
550,003	25,87
550,48	26,51
550,957	26,14
551,434	26,03
551,911	26,11
552,387	26,4
552,864	26,56
553,34	26,73
553,817	26,66
554,293	26,07
554,769	26,41
555,245	26,22
555,721	25,99
556,197	26,12
556,672	26,43
557,148	26,09
557,623	26,04
558,099	26,15
558,574	26,16
559,049	25,89
559,524	26,13
559,999	26,1
560,474	25,78
560,948	25,38
561,423	25,76
561,897	25,88
562,372	25,65
562,846	25,66
563,32	25,41
563,794	25,45
564,268	24,94
564,742	25,07
565,216	24,92
565,69	25
566,163	24,65
566,636	24,97
567,11	24,43
567,583	24,16
568,056	24,3
568,529	23,85
569,002	23,99
569,475	23,78
569,947	23,34
570,42	23,43
570,892	22,79
571,365	22,94
571,837	22,38
572,309	21,89
572,781	22,53
573,253	22,16
573,725	21,66
574,197	21,75
574,668	21,49
575,14	21,73
575,611	21,12
576,082	21,32
576,554	21,09
577,025	20,63
577,496	20,62
577,967	20,62
578,437	20,15
578,908	20,57
579,379	20,33
579,849	19,8
580,319	19,61
580,79	19,47
581,26	19,36
581,73	19,19
582,2	19,46
582,669	19,17
583,139	19,17
583,609	19,11
584,078	18,73
584,548	18,43
585,017	18,51
585,486	18,45
585,955	18,53
586,424	18,19
586,893	18,29
587,362	17,89
587,83	18,11
588,299	17,75
588,767	17,55
589,236	17,69
589,704	17,59
590,172	17,71
590,64	17,29
591,108	17,52
591,576	17,37
592,043	17,02
592,511	16,82
592,978	17,22
593,446	16,64
593,913	16,81
594,38	16,8
594,847	16,88
595,314	16,96
595,781	16,81
596,248	16,92
596,715	16,66
597,181	16,65
597,647	16,61
598,114	16,5
598,58	16,47
599,046	16,45
599,512	16,39
599,978	16,3
600,444	16,49
600,91	16,51
601,375	16,4
601,841	16,24
602,306	16,22
602,771	16,22
603,236	16,16
603,702	16,17
604,167	15,83
604,631	15,83
605,096	15,77
605,561	16,15
606,025	15,57
606,49	15,69
606,954	15,75
607,418	15,45
607,882	15,4
608,347	15,12
608,81	15,63
609,274	15,22
609,738	15,14
610,202	15,23
610,665	15,01
611,128	14,69
611,592	14,82
612,055	14,47
612,518	14,66
612,981	14,45
613,444	14,29
613,907	14,27
614,369	14,11
614,832	14,2
615,294	14,07
615,757	13,79
616,219	13,72
616,681	13,99
617,143	13,51
617,605	13,68
618,067	13,41
618,529	13,39
618,99	13,28
619,452	13,34
619,913	13,18
620,375	13,46
620,836	13,01
621,297	13,22
621,758	13,02
622,219	12,76
622,68	13
623,14	12,94
623,601	12,72
624,061	12,85
624,522	12,75
624,982	12,79
625,442	12,6
625,902	12,67
626,362	12,65
626,822	12,43
627,282	12,64
627,742	12,27
628,201	12,63
628,661	12,63
629,12	12,59
629,579	12,31
630,038	12,24
630,497	12,12
630,956	12,36
631,415	12,26
631,874	12,2
632,332	12,3
632,791	11,89
633,249	12,13
633,708	12,12
634,166	11,83
634,624	11,89
635,082	11,91
635,54	11,76
635,998	11,68
636,455	11,69
636,913	11,58
637,37	11,28
637,828	11,21
638,285	11,3
638,742	11,04
639,199	10,81
639,656	10,69
640,113	10,61
640,57	10,37
641,027	10,43
641,483	10,26
641,94	10,1
642,396	9,97
642,852	10
643,309	9,81
643,765	9,48
644,221	9,54
644,676	9,45
645,132	9,24
645,588	9,19
646,043	9,19
646,499	8,77
646,954	8,88
647,409	8,71
647,864	8,66
648,319	8,5
648,774	8,34
649,229	8,28
649,684	8,21
650,139	8,12
650,593	8,11
651,047	7,97
651,502	7,87
651,956	7,85
652,41	7,93
652,864	7,91
653,318	7,75
653,772	7,72
654,225	7,64
654,679	7,63
655,133	7,6
655,586	7,58
656,039	7,61
656,492	7,57
656,946	7,35
657,399	7,4
657,851	7,36
658,304	7,3
658,757	7,18
659,209	7,12
659,662	6,99
660,114	6,86
660,567	6,92
661,019	6,79
661,471	6,72
661,923	6,58
662,375	6,61
662,826	6,57
663,278	6,31
663,73	6,44
664,181	6,39
664,632	6,24
665,084	6,17
665,535	6,19
665,986	6,08
666,437	6,09
666,888	5,99
667,338	6,16
667,789	6,12
668,24	5,99
668,69	6,01
669,14	6,07
669,591	6,09
670,041	6,05
670,491	6,1
670,941	6,15
671,391	6,07
671,84	6,11
672,29	6,18
672,74	6,19
673,189	6,37
673,638	6,33
674,088	6,36
674,537	6,58
674,986	6,65
675,435	6,67
675,883	6,74
676,332	6,8
676,781	6,89
677,229	7,05
677,678	7,16
678,126	7,33
678,574	7,21
679,022	7,61
679,47	7,73
679,918	7,72
680,366	7,93
680,814	7,88
681,261	8,14
681,709	8,23
682,156	8,33
682,604	8,52
683,051	8,67
683,498	8,77
683,945	9,1
684,392	9,11
684,839	9,16
685,286	9,29
685,732	9,53
686,179	9,63
686,625	9,86
687,071	9,99
687,518	10,14
687,964	10,41
688,41	10,87
688,856	10,94
689,301	11,3
689,747	11,49
690,193	11,95
690,638	12,39
691,084	12,74
691,529	13,22
691,974	13,61
692,419	13,98
692,864	14,42
693,309	15,02
693,754	15,67
694,199	15,95
694,643	16,59
695,088	16,95
695,532	17,45
695,977	18,28
696,421	18,76
696,865	19,24
697,309	19,82
697,753	20,47
698,197	20,86
698,64	21,72
699,084	22,57
699,527	22,76
699,971	23,27
700,414	24,21
700,857	24,6
701,3	24,96
701,743	25,57
702,186	25,83
702,629	26,46
703,072	27,15
703,515	27,64
703,957	28,18
704,399	28,57
704,842	29,05
705,284	29,39
705,726	29,73
706,168	30,11
706,61	30,68
707,052	31,13
707,494	31,72
707,935	31,97
708,377	32,48
708,818	32,55
709,26	32,97
709,701	33,82
710,142	34,26
710,583	34,34
711,024	34,54
711,465	34,96
711,905	35,41
712,346	36
712,787	35,99
713,227	36,79
713,667	36,59
714,108	37,14
714,548	37,71
714,988	37,83
715,428	37,95
715,868	38,84
716,307	38,57
716,747	38,86
717,186	39,21
717,626	39,93
718,065	40,19
718,504	40,01
718,944	40,65
719,383	40,98
719,822	40,59
720,261	41,26
720,699	41,26
721,138	41,88
721,576	41,7
722,015	42,08
722,453	42,48
722,892	42,6
723,33	42,41
723,768	42,81
724,206	42,94
724,644	43,33
725,081	43,17
725,519	43,66
725,957	44,17
726,394	44,04
726,832	44,2
727,269	44,53
727,706	44,1
728,143	44,78
728,58	44,46
729,017	45,12
729,454	44,86
729,89	45,3
730,327	44,98
730,764	45,16
731,2	45,51
731,636	45,42
732,072	45,42
732,509	45,75
732,945	45,9
733,38	45,99
733,816	46,08
734,252	46,08
734,688	46,28
735,123	45,98
735,559	46,19
735,994	46,3
736,429	46,14
736,864	46,34
737,299	46,28
737,734	46,77
738,169	46,5
738,604	46,29
739,038	46,82
739,473	46,7
739,907	46,58
740,342	46,79
740,776	46,87
741,21	46,37
741,644	46,32
742,078	46,73
742,512	46,53
742,946	46,51
743,379	46,59
743,813	46,65
744,246	46,36
744,68	46,54
745,113	46,29
745,546	46,72
745,979	46,6
746,412	46,93
746,845	46,55
747,278	46,72
747,711	46,6
748,143	46,37
748,576	46,33
749,008	46,35
749,441	46,32
749,873	46,23
750,305	46,39
750,737	45,91
751,169	45,9
751,601	46,48
752,032	46,22
752,464	45,75
752,896	45,97
753,327	46,34
753,758	46
754,19	46,04
754,621	46,04
755,052	45,61
755,483	45,66
755,914	45,54
756,344	45,98
756,775	45,66
757,206	45,63
757,636	45,46
758,066	45,56
758,497	45,52
758,927	45,4
759,357	45,7
759,787	45,37
760,217	45,33
760,647	45,52
761,076	45,14
761,506	45,33
761,935	45,32
762,365	45,41
762,794	44,93
763,223	45,54
763,653	45,05
764,082	45,16
764,51	44,94
764,939	44,93
765,368	44,74
765,797	44,76
766,225	44,96
766,654	44,6
767,082	45,13
767,51	44,67
767,938	44,23
768,367	44,88
768,795	44,41
769,222	44,81
769,65	44,56
770,078	44,29
770,505	44,33
770,933	44,48
771,36	44,45
771,788	44,24
772,215	44,12
772,642	44,3
773,069	44,3
773,496	43,87
773,923	44,41
774,349	44,43
774,776	44,31
775,203	44,23
775,629	44,53
776,055	44,13
776,482	44,27
776,908	44,3
777,334	44,11
777,76	44,12
778,186	44,3
778,611	44,06
779,037	44,28
779,463	44,06
779,888	44,16
780,314	43,93
780,739	44,21
781,164	44,14
781,589	43,82
782,014	43,66
782,439	43,96
782,864	43,77
783,289	43,74
783,713	44,21
784,138	43,38
784,562	44,13
784,987	43,89
785,411	43,86
785,835	43,6
786,259	43,55
786,683	43,6
787,107	43,96
787,531	44,17
787,954	43,57
788,378	43,57
788,802	43,69
789,225	43,51
789,648	43,52
790,071	43,74
790,495	43,23
790,918	43,44
791,34	44,11
791,763	43,87
792,186	43,89
792,609	43,35
793,031	43,52
793,454	43,71
793,876	43,59
794,298	43,83
794,721	43,23
795,143	43,44
795,565	43,5
795,986	43,89
796,408	43,47
796,83	43,36
797,252	43,39
797,673	43,43
798,094	43,35
798,516	43,67
798,937	43,44
799,358	43,34
799,779	43,79
800,2	43,19
800,621	43,62
801,042	43,33
801,462	43,26
801,883	43,53
802,303	43,23
802,724	43,34
803,144	43,1
803,564	43,27
803,984	43,51
804,404	43,31
804,824	43,77
805,244	43,15
805,664	43,31
806,084	43,43
806,503	43,41
806,923	43,43
807,342	43,2
807,761	43,39
808,18	43,59
808,599	43,23
809,018	43,34
809,437	43,04
809,856	43,43
810,275	43,27
810,693	43,15
811,112	43,2
811,53	43,1
811,949	43,12
812,367	43,56
812,785	43,17
813,203	43,05
813,621	43,07
814,039	43,14
814,457	43,06
814,874	43,27
815,292	43,04
815,709	43,3
816,127	43,1
816,544	43,18
816,961	42,68
817,378	43,32
817,795	43,39
818,212	42,93
818,629	42,89
819,046	43,37
819,462	43,18
819,879	43,16
820,295	43,08
820,712	43,12
821,128	43,04
821,544	42,82
821,96	42,91
822,376	43,26
822,792	43,33
823,208	43,27
823,624	43,06
824,039	42,44
824,455	43,31
824,87	43,17
825,286	42,93
825,701	43,19
826,116	42,86
826,531	43,09
826,946	43,33
827,361	42,94
827,776	43,07
828,19	42,79
828,605	42,87
829,02	43,13
829,434	42,97
829,848	42,89
830,263	42,92
830,677	43,1
831,091	43,18
831,505	43,11
831,919	43,07
832,332	42,79
832,746	42,95
833,16	43
833,573	42,68
833,987	43,27
834,4	42,75
834,813	42,91
835,226	43,12
835,639	43,05
836,052	42,99
836,465	42,7
836,878	42,81
837,29	43,07
837,703	42,54
838,116	42,59
838,528	42,84
838,94	42,69
839,352	43,01
839,765	42,58
840,177	42,85
840,589	42,51
841	42,54
841,412	42,68
841,824	42,81
842,235	43,22
842,647	43,09
