Data from D3__Relative__4__00040.txt Node

Date: Thu Feb 01 16:19:29 CET 2024
User: diatiterra
Spectrometer: HDX00911
Trigger mode: 0
Integration Time (sec): 6,000000E-3
Scans to average: 2
Nonlinearity correction enabled: false
Boxcar width: 0
Storing dark spectrum: false
XAxis mode: Wavelengths
Number of Pixels in Spectrum: 2068
>>>>>Begin Spectral Data<<<<<
194,468	164,62
195,025	87,5
195,581	124,24
196,138	108,82
196,694	125,27
197,251	101,59
197,807	70,93
198,363	85,21
198,919	74,46
199,474	79,62
200,03	85,8
200,586	81,01
201,141	68,04
201,696	80,35
202,251	75,14
202,806	82,18
203,361	80,33
203,916	81,08
204,471	67,39
205,025	76,76
205,58	79,77
206,134	69,68
206,688	68,06
207,242	85,47
207,796	69,19
208,35	81,98
208,904	81,36
209,457	85,88
210,011	89,57
210,564	74,19
211,117	96,73
211,67	82,58
212,223	91,75
212,776	67,91
213,329	88,24
213,881	70,47
214,434	79
214,986	90,36
215,538	76,63
216,09	82,29
216,642	84,34
217,194	78,24
217,746	77,14
218,297	89,44
218,849	83,72
219,4	72,22
219,951	82,29
220,502	84,02
221,053	80,95
221,604	87,57
222,155	81,82
222,705	84,21
223,256	83,15
223,806	69,71
224,356	69,59
224,906	75,15
225,456	71,66
226,006	77,05
226,556	83,78
227,106	76,22
227,655	87,43
228,204	72,88
228,754	93,68
229,303	76,47
229,852	78,89
230,401	80,25
230,949	79,1
231,498	78,19
232,047	76,67
232,595	82,76
233,143	73,68
233,691	81,32
234,239	73,22
234,787	83,14
235,335	87,21
235,883	65,26
236,43	81,29
236,978	78,72
237,525	65,83
238,072	83,33
238,619	82,93
239,166	77,45
239,713	72,63
240,26	80,12
240,806	85,28
241,353	72,09
241,899	76,37
242,445	82,25
242,991	75,68
243,537	78,43
244,083	74,73
244,629	77
245,174	74,71
245,72	72,63
246,265	67,02
246,81	88,64
247,355	77,47
247,9	82,94
248,445	91,72
248,99	67,22
249,534	79,78
250,079	74,1
250,623	77,17
251,168	77,59
251,712	72,94
252,256	87,58
252,8	71,19
253,343	85,71
253,887	71,58
254,43	72,16
254,974	65,92
255,517	77,4
256,06	88,64
256,603	78,65
257,146	76,24
257,689	82,54
258,232	70,37
258,774	83,93
259,317	77,47
259,859	76,96
260,401	69,1
260,943	77,71
261,485	86,49
262,027	79,89
262,569	84,11
263,11	73,45
263,652	79,67
264,193	78,98
264,734	73,68
265,275	71,88
265,816	75,68
266,357	72,49
266,898	65,66
267,438	81,65
267,979	69,89
268,519	80,36
269,059	88,55
269,6	84,15
270,14	65,31
270,68	89,04
271,219	87,36
271,759	92,95
272,298	82,7
272,838	74,27
273,377	91,06
273,916	81,88
274,455	80
274,994	80
275,533	84,43
276,072	84,43
276,61	73,37
277,149	82,94
277,687	75,9
278,225	78,24
278,763	68,79
279,301	70,21
279,839	77,13
280,377	83,23
280,914	78,87
281,452	85,47
281,989	85,29
282,526	84,81
283,064	74,38
283,601	80,34
284,137	80,37
284,674	79,78
285,211	72,58
285,747	73,37
286,284	81,18
286,82	61,98
287,356	67,53
287,892	79,01
288,428	74,14
288,964	70,97
289,5	83,24
290,035	80,11
290,571	71,43
291,106	76,97
291,641	81,98
292,176	72,04
292,711	73,26
293,246	70,65
293,781	74,59
294,315	63,78
294,85	74,84
295,384	78,03
295,918	73,94
296,453	62,7
296,987	72,68
297,52	76,63
298,054	79,89
298,588	72,56
299,121	73,18
299,655	81,76
300,188	81,33
300,721	85,09
301,254	71,96
301,787	64,52
302,32	73,06
302,853	88,83
303,385	75
303,918	73,14
304,45	68,37
304,982	72,32
305,514	64,36
306,046	67,93
306,578	78,07
307,11	68,51
307,641	76,92
308,173	76,4
308,704	72,73
309,236	68,53
309,767	76,32
310,298	83,02
310,829	70
311,359	71,5
311,89	73,68
312,421	70,81
312,951	85,14
313,481	71,76
314,012	75,52
314,542	71,81
315,072	81,22
315,601	88,31
316,131	82,45
316,661	85,23
317,19	68,79
317,72	78,92
318,249	76,11
318,778	78,23
319,307	73,96
319,836	72,32
320,365	77,25
320,893	80,83
321,422	85,71
321,95	72,4
322,479	87,88
323,007	79,21
323,535	81,5
324,063	65,54
324,591	73,54
325,118	80,65
325,646	69,15
326,173	85,25
326,701	64,62
327,228	70,68
327,755	69,54
328,282	71,51
328,809	84,12
329,336	69,15
329,862	75,43
330,389	73,71
330,915	70,47
331,441	78,36
331,968	80,34
332,494	79,08
333,02	69,27
333,545	63,49
334,071	68,21
334,597	76,97
335,122	70,74
335,648	73,08
336,173	75,68
336,698	74,47
337,223	75,4
337,748	63,18
338,272	64,89
338,797	69,4
339,322	62,16
339,846	65,05
340,37	68,85
340,894	59,7
341,419	66,09
341,942	66,14
342,466	74,09
342,99	69,11
343,514	63,73
344,037	68,09
344,56	59,81
345,084	65,67
345,607	60,68
346,13	71,83
346,653	66,36
347,175	71,77
347,698	68,84
348,221	66,2
348,743	59,24
349,265	55,17
349,787	49,27
350,309	53,04
350,831	59
351,353	64,93
351,875	59,11
352,397	54,31
352,918	59,17
353,439	54,01
353,961	50
354,482	57,45
355,003	48,56
355,524	55,97
356,044	55,19
356,565	51,22
357,086	47,19
357,606	44,26
358,126	47,13
358,646	55,02
359,167	46,96
359,687	52,79
360,206	52,59
360,726	48,64
361,246	52,08
361,765	46,38
362,285	54,28
362,804	55,4
363,323	46,45
363,842	48,24
364,361	42,7
364,88	44,34
365,398	44,21
365,917	45,37
366,435	41,33
366,954	46,25
367,472	47,78
367,99	45,45
368,508	47,67
369,026	51,28
369,544	41,19
370,061	41,54
370,579	40,74
371,096	39,94
371,613	47,86
372,131	38,55
372,648	43,59
373,165	40,82
373,681	38,86
374,198	42,98
374,715	44,73
375,231	44,56
375,747	41,53
376,264	39,43
376,78	40,61
377,296	35,82
377,812	38,23
378,327	37,84
378,843	37,85
379,359	35,14
379,874	38,71
380,389	39,73
380,905	33,55
381,42	34
381,935	33,9
382,449	35,33
382,964	36,8
383,479	30,66
383,993	31,68
384,508	30,45
385,022	33,66
385,536	30,62
386,05	28,63
386,564	34,81
387,078	31,36
387,592	27,57
388,105	27,6
388,619	26,88
389,132	27,81
389,645	28,96
390,158	28,36
390,671	31,55
391,184	26,37
391,697	25,98
392,21	23,9
392,722	25,9
393,235	24,57
393,747	24,18
394,259	24,79
394,771	28,79
395,283	22,03
395,795	22,68
396,307	24,12
396,818	23,52
397,33	24,07
397,841	22,75
398,353	21,09
398,864	26,58
399,375	19,38
399,886	21
400,397	21,44
400,907	22,36
401,418	18,25
401,928	19,47
402,439	18,69
402,949	17,92
403,459	18,91
403,969	17,18
404,479	16,91
404,989	17,04
405,498	16,43
406,008	16,3
406,517	15,81
407,027	15,7
407,536	13,1
408,045	14,28
408,554	13,25
409,063	13,77
409,572	11,22
410,08	12,9
410,589	11,78
411,097	10,52
411,606	11,51
412,114	10,3
412,622	10,69
413,13	10,86
413,638	9,42
414,145	9,04
414,653	9,15
415,16	9,25
415,668	8,23
416,175	8,42
416,682	8,47
417,189	7,46
417,696	7,87
418,203	7,47
418,71	6,94
419,216	7,66
419,723	6,51
420,229	7
420,735	8,07
421,242	6,73
421,748	6,96
422,254	7,11
422,759	6,81
423,265	6,41
423,771	7
424,276	6,52
424,781	6,78
425,287	5,7
425,792	6,71
426,297	6,32
426,802	6,24
427,306	5,98
427,811	5,45
428,316	5,97
428,82	5,51
429,324	6,1
429,829	5,69
430,333	6,12
430,837	5,77
431,34	5,82
431,844	5,81
432,348	5,66
432,851	5,77
433,355	5,43
433,858	5,34
434,361	5,91
434,864	5,43
435,367	4,97
435,87	5,73
436,373	5,35
436,876	5,44
437,378	5,13
437,88	5,3
438,383	4,74
438,885	5,14
439,387	5,36
439,889	5,1
440,391	5,03
440,892	5,22
441,394	5,35
441,896	5,09
442,397	5,62
442,898	5,35
443,399	5,16
443,9	5,21
444,401	5,27
444,902	5,46
445,403	5,22
445,903	5,31
446,404	5,33
446,904	5,37
447,405	4,83
447,905	5,06
448,405	5,03
448,905	5,01
449,404	4,82
449,904	5,41
450,404	5,17
450,903	5,17
451,403	5,51
451,902	5,78
452,401	5,06
452,9	5,85
453,399	5,61
453,898	5,22
454,396	5,69
454,895	5,4
455,393	5,71
455,892	5,46
456,39	4,98
456,888	5,08
457,386	5,82
457,884	5,16
458,382	5,24
458,879	5,37
459,377	5,59
459,874	5,67
460,372	5,34
460,869	5,19
461,366	5,44
461,863	5,29
462,36	5,31
462,857	5,58
463,353	5,52
463,85	5,24
464,346	5,28
464,843	5,53
465,339	5,05
465,835	5,24
466,331	5,51
466,827	5,58
467,323	5,2
467,818	5,14
468,314	5,67
468,809	5,34
469,305	5,47
469,8	5,29
470,295	5,28
470,79	5,04
471,285	5,23
471,78	5,29
472,274	5,42
472,769	5,37
473,263	5,34
473,758	5,49
474,252	5,49
474,746	5,26
475,24	5,39
475,734	5,25
476,228	5,44
476,721	5,29
477,215	5,41
477,708	5,13
478,202	5,38
478,695	5,58
479,188	5,37
479,681	5,48
480,174	5,34
480,667	5,25
481,159	5,36
481,652	5,06
482,144	5,48
482,637	5,43
483,129	5,13
483,621	5,59
484,113	5,41
484,605	5,64
485,097	5,64
485,588	5,4
486,08	5,76
486,571	5,35
487,063	5,56
487,554	5,59
488,045	5,7
488,536	5,69
489,027	5,53
489,518	5,46
490,008	5,63
490,499	5,59
490,989	5,73
491,48	5,62
491,97	5,83
492,46	5,96
492,95	6,03
493,44	6,06
493,93	6,01
494,419	6,39
494,909	6,11
495,398	6,01
495,888	6,08
496,377	6,57
496,866	6,13
497,355	6,55
497,844	6,49
498,333	6,68
498,821	6,43
499,31	6,49
499,798	7,1
500,287	6,95
500,775	7,11
501,263	7,26
501,751	7,29
502,239	7,43
502,727	7,8
503,215	7,63
503,702	7,84
504,19	7,99
504,677	8,02
505,164	8,4
505,651	8,53
506,139	8,69
506,625	9,03
507,112	8,72
507,599	8,94
508,086	9,34
508,572	9,54
509,058	9,55
509,545	10,16
510,031	9,96
510,517	10,4
511,003	10,6
511,489	10,83
511,974	10,72
512,46	11,33
512,946	11,78
513,431	11,66
513,916	12,54
514,401	12,39
514,887	12,61
515,371	13,07
515,856	13,11
516,341	13,39
516,826	13,99
517,31	13,93
517,795	14,35
518,279	15,21
518,763	15,43
519,247	15,94
519,731	16,25
520,215	16,2
520,699	16,31
521,182	16,56
521,666	16,92
522,149	17,03
522,633	17,66
523,116	17,98
523,599	18,56
524,082	18,89
524,565	19,13
525,048	19,98
525,53	20,14
526,013	20,18
526,495	20,82
526,978	20,5
527,46	20,78
527,942	21,88
528,424	21,96
528,906	21,97
529,388	22,28
529,87	22,51
530,351	23,06
530,833	22,9
531,314	23,13
531,795	23,48
532,277	23,12
532,758	23,86
533,238	23,95
533,719	24,27
534,2	23,98
534,681	24,5
535,161	24,79
535,642	24,96
536,122	24,58
536,602	24,93
537,082	25,39
537,562	24,57
538,042	25,35
538,522	25,49
539,001	25,51
539,481	25,56
539,96	25,11
540,44	25,84
540,919	25,31
541,398	25,84
541,877	26,06
542,356	25,91
542,835	26,03
543,313	26,07
543,792	25,81
544,27	26,33
544,749	26,11
545,227	26,31
545,705	26,36
546,183	26,08
546,661	26,55
547,139	26,21
547,616	26,79
548,094	26,69
548,571	26,49
549,049	26,59
549,526	26,38
550,003	26,91
550,48	26,71
550,957	26,33
551,434	26,73
551,911	26,97
552,387	26,89
552,864	26,75
553,34	27,32
553,817	27,1
554,293	27,15
554,769	27,09
555,245	26,97
555,721	27,06
556,197	26,69
556,672	26,75
557,148	26,95
557,623	26,98
558,099	26,76
558,574	26,59
559,049	26,5
559,524	26,08
559,999	26,65
560,474	26,32
560,948	26,04
561,423	25,66
561,897	26,09
562,372	26,06
562,846	26,11
563,32	25,55
563,794	25,86
564,268	25,66
564,742	25,02
565,216	25,53
565,69	25,53
566,163	25,04
566,636	25,11
567,11	24,74
567,583	24,51
568,056	24,51
568,529	24,29
569,002	24,26
569,475	23,89
569,947	23,61
570,42	23,56
570,892	22,9
571,365	22,97
571,837	22,82
572,309	22,16
572,781	22,43
573,253	22,49
573,725	22,07
574,197	21,72
574,668	21,33
575,14	21,54
575,611	21,46
576,082	21,07
576,554	20,64
577,025	20,43
577,496	20,31
577,967	20,46
578,437	20,2
578,908	20,6
579,379	19,74
579,849	19,54
580,319	19,72
580,79	19,57
581,26	19,32
581,73	19,11
582,2	19,01
582,669	18,87
583,139	18,93
583,609	18,64
584,078	18,67
584,548	18,45
585,017	18,34
585,486	18,31
585,955	18,27
586,424	18,19
586,893	17,98
587,362	17,72
587,83	17,94
588,299	17,89
588,767	17,56
589,236	17,62
589,704	17,25
590,172	17,37
590,64	17,54
591,108	17,17
591,576	16,95
592,043	17,08
592,511	16,82
592,978	16,75
593,446	16,48
593,913	16,54
594,38	16,46
594,847	16,69
595,314	16,93
595,781	16,47
596,248	16,47
596,715	16,3
597,181	16,68
597,647	16,28
598,114	16,66
598,58	16,3
599,046	16,14
599,512	16,07
599,978	16,18
600,444	16,19
600,91	16,23
601,375	16,22
601,841	15,92
602,306	15,86
602,771	15,69
603,236	16,13
603,702	15,8
604,167	15,76
604,631	15,48
605,096	15,56
605,561	15,68
606,025	15,41
606,49	15,31
606,954	15,28
607,418	15,41
607,882	15,01
608,347	14,96
608,81	15,25
609,274	14,83
609,738	14,82
610,202	14,84
610,665	14,75
611,128	14,52
611,592	14,54
612,055	14,53
612,518	14,48
612,981	14,26
613,444	14,07
613,907	14,1
614,369	13,98
614,832	13,88
615,294	13,99
615,757	13,48
616,219	13,71
616,681	13,42
617,143	13,2
617,605	13,41
618,067	13,28
618,529	13,26
618,99	12,93
619,452	12,86
619,913	12,86
620,375	13,06
620,836	12,77
621,297	12,85
621,758	12,73
622,219	12,74
622,68	12,58
623,14	12,55
623,601	12,62
624,061	12,29
624,522	12,56
624,982	12,58
625,442	12,57
625,902	12,34
626,362	12,52
626,822	12,19
627,282	12,35
627,742	12,14
628,201	12,24
628,661	12,44
629,12	12,12
629,579	12,21
630,038	12,01
630,497	12,05
630,956	12,13
631,415	11,97
631,874	12,06
632,332	12,04
632,791	12,07
633,249	11,96
633,708	12,09
634,166	11,66
634,624	11,8
635,082	11,51
635,54	11,3
635,998	11,47
636,455	11,18
636,913	11,41
637,37	11,21
637,828	10,79
638,285	10,9
638,742	10,87
639,199	10,7
639,656	10,58
640,113	10,4
640,57	10,1
641,027	10,1
641,483	9,9
641,94	9,9
642,396	9,78
642,852	9,72
643,309	9,4
643,765	9,42
644,221	9,15
644,676	9,23
645,132	9,1
645,588	8,91
646,043	8,68
646,499	8,58
646,954	8,59
647,409	8,32
647,864	8,48
648,319	8,36
648,774	8,15
649,229	8,13
649,684	7,96
650,139	7,91
650,593	8
651,047	7,79
651,502	7,69
651,956	7,55
652,41	7,73
652,864	7,72
653,318	7,65
653,772	7,63
654,225	7,56
654,679	7,43
655,133	7,47
655,586	7,39
656,039	7,31
656,492	7,37
656,946	7,27
657,399	7,28
657,851	7,22
658,304	7,24
658,757	7,19
659,209	7,08
659,662	6,79
660,114	6,98
660,567	6,66
661,019	6,64
661,471	6,66
661,923	6,61
662,375	6,49
662,826	6,58
663,278	6,39
663,73	6,36
664,181	6,28
664,632	6,15
665,084	6,1
665,535	5,98
665,986	6,05
666,437	5,99
666,888	5,86
667,338	5,89
667,789	5,89
668,24	5,81
668,69	5,88
669,14	5,8
669,591	5,79
670,041	5,86
670,491	5,9
670,941	5,77
671,391	6,06
671,84	5,92
672,29	5,95
672,74	6,06
673,189	6,04
673,638	6,14
674,088	6,17
674,537	6,33
674,986	6,4
675,435	6,43
675,883	6,43
676,332	6,62
676,781	6,56
677,229	6,63
677,678	6,84
678,126	6,93
678,574	6,91
679,022	7,14
679,47	7,26
679,918	7,35
680,366	7,5
680,814	7,46
681,261	7,84
681,709	7,82
682,156	7,82
682,604	8,01
683,051	8,23
683,498	8,17
683,945	8,44
684,392	8,59
684,839	8,8
685,286	8,84
685,732	9,03
686,179	9,39
686,625	9,48
687,071	9,51
687,518	9,85
687,964	9,94
688,41	10,34
688,856	10,61
689,301	10,92
689,747	11,08
690,193	11,8
690,638	11,96
691,084	12,09
691,529	12,79
691,974	13,31
692,419	13,45
692,864	14,02
693,309	14,58
693,754	15,13
694,199	15,71
694,643	16,3
695,088	17,06
695,532	17,58
695,977	18,01
696,421	18,58
696,865	19,28
697,309	20,12
697,753	20,57
698,197	21,02
698,64	22,06
699,084	22,36
699,527	23,04
699,971	23,52
700,414	24,61
700,857	25,27
701,3	25,62
701,743	26,21
702,186	27
702,629	27,49
703,072	28,04
703,515	29,3
703,957	29,55
704,399	30,13
704,842	30,88
705,284	31,69
705,726	32,17
706,168	32,3
706,61	33,26
707,052	33,81
707,494	34,32
707,935	35,38
708,377	35,85
708,818	36,28
709,26	36,74
709,701	37,39
710,142	38,01
710,583	38,15
711,024	39,03
711,465	39,5
711,905	40,07
712,346	40,62
712,787	41,19
713,227	41,56
713,667	42,62
714,108	43,28
714,548	43,6
714,988	44,01
715,428	44,44
715,868	45,19
716,307	45,55
716,747	46,36
717,186	46,72
717,626	47,49
718,065	48,11
718,504	48,4
718,944	49,12
719,383	49,26
719,822	49,19
720,261	50,09
720,699	50,78
721,138	51,46
721,576	51,39
722,015	52,01
722,453	52,43
722,892	52,92
723,33	53,42
723,768	53,79
724,206	54,07
724,644	54,49
725,081	55
725,519	55,43
725,957	55,65
726,394	55,99
726,832	56,38
727,269	56,87
727,706	57
728,143	57,29
728,58	57,41
729,017	58,36
729,454	58,18
729,89	58,42
730,327	59,03
730,764	59,18
731,2	59,31
731,636	59,6
732,072	59,69
732,509	60,3
732,945	60,6
733,38	60,17
733,816	60,86
734,252	60,69
734,688	60,97
735,123	61,34
735,559	61,51
735,994	61,61
736,429	61,84
736,864	61,42
737,299	61,68
737,734	63,05
738,169	62,6
738,604	62,58
739,038	62,85
739,473	62,43
739,907	62,92
740,342	63,04
740,776	63,19
741,21	63,09
741,644	63,45
742,078	63,64
742,512	63,19
742,946	63,18
743,379	63,5
743,813	63,42
744,246	62,83
744,68	63,61
745,113	63,5
745,546	63,89
745,979	63,25
746,412	63,53
746,845	63,64
747,278	64,04
747,711	63,62
748,143	63,77
748,576	63,47
749,008	63,53
749,441	64,1
749,873	63,54
750,305	63,61
750,737	63,53
751,169	63,17
751,601	63,64
752,032	63,42
752,464	63,4
752,896	63,18
753,327	63,33
753,758	63,38
754,19	63,34
754,621	63,71
755,052	63,59
755,483	63,59
755,914	62,9
756,344	63,64
756,775	63,58
757,206	63,2
757,636	63,19
758,066	62,82
758,497	62,88
758,927	62,91
759,357	63,22
759,787	63,26
760,217	62,76
760,647	62,98
761,076	62,81
761,506	62,82
761,935	63,1
762,365	62,87
762,794	63,02
763,223	62,77
763,653	62,44
764,082	62,69
764,51	62,48
764,939	62,29
765,368	62,79
765,797	62,33
766,225	62,5
766,654	62,35
767,082	62,5
767,51	62,32
767,938	61,83
768,367	62,25
768,795	62,15
769,222	62,01
769,65	62,07
770,078	61,64
770,505	61,91
770,933	61,8
771,36	62,44
771,788	61,91
772,215	61,83
772,642	61,73
773,069	61,75
773,496	61,45
773,923	61,78
774,349	61,66
774,776	62,29
775,203	61,77
775,629	62,19
776,055	62,11
776,482	61,6
776,908	61,74
777,334	61,55
777,76	61,61
778,186	61,47
778,611	61,66
779,037	61,55
779,463	61,43
779,888	61,5
780,314	60,95
780,739	61,29
781,164	61,25
781,589	61,33
782,014	61,22
782,439	61,69
782,864	61,94
783,289	61,18
783,713	61,2
784,138	61,38
784,562	61,66
784,987	61,24
785,411	61,29
785,835	61,09
786,259	61,01
786,683	61,39
787,107	61,07
787,531	61,12
787,954	61
788,378	61,21
788,802	61,21
789,225	61,15
789,648	61,22
790,071	61,25
790,495	60,75
790,918	60,99
791,34	61,18
791,763	60,97
792,186	61,33
792,609	60,43
793,031	60,95
793,454	61,11
793,876	61,19
794,298	61,31
794,721	60,86
795,143	60,73
795,565	60,68
795,986	61,19
796,408	61,21
796,83	60,8
797,252	60,91
797,673	61,03
798,094	60,73
798,516	61,06
798,937	60,83
799,358	61,12
799,779	60,85
800,2	60,81
800,621	60,71
801,042	60,97
801,462	60,57
801,883	60,76
802,303	60,68
802,724	60,67
803,144	61,18
803,564	60,52
803,984	60,94
804,404	60,58
804,824	61,16
805,244	60,75
805,664	60,34
806,084	60,35
806,503	60,77
806,923	60,85
807,342	60,62
807,761	60,67
808,18	60,91
808,599	60,47
809,018	60,92
809,437	60,94
809,856	60,54
810,275	60,87
810,693	60,72
811,112	60,49
811,53	60,73
811,949	60,56
812,367	60,64
812,785	60,38
813,203	60,56
813,621	60,52
814,039	60,4
814,457	60,5
814,874	60,3
815,292	60,66
815,709	60,6
816,127	60,68
816,544	60,7
816,961	60,04
817,378	61,02
817,795	60,74
818,212	60,02
818,629	60,64
819,046	61,04
819,462	60,38
819,879	60,9
820,295	60,45
820,712	60,28
821,128	60,22
821,544	60,54
821,96	60,24
822,376	60,62
822,792	60,45
823,208	60,59
823,624	60,22
824,039	59,91
824,455	60,92
824,87	60,86
825,286	60,16
825,701	60,84
826,116	59,83
826,531	60,58
826,946	60,24
827,361	60,32
827,776	60,28
828,19	60,12
828,605	60,12
829,02	60,38
829,434	60,04
829,848	60,04
830,263	60,41
830,677	60,34
831,091	60,44
831,505	60,61
831,919	59,83
832,332	60,17
832,746	59,96
833,16	59,74
833,573	60,31
833,987	60,39
834,4	59,98
834,813	60,1
835,226	60,1
835,639	60,3
836,052	60,23
836,465	59,81
836,878	59,74
837,29	60,36
837,703	59,8
838,116	59,72
838,528	59,98
838,94	59,67
839,352	60,05
839,765	60,3
840,177	59,87
840,589	59,83
841	59,59
841,412	59,95
841,824	60,41
842,235	60,3
