Data from E4__Relative__1__00058.txt Node

Date: Thu Feb 01 16:20:57 CET 2024
User: diatiterra
Spectrometer: HDX00911
Trigger mode: 0
Integration Time (sec): 6,000000E-3
Scans to average: 2
Nonlinearity correction enabled: false
Boxcar width: 0
Storing dark spectrum: false
XAxis mode: Wavelengths
Number of Pixels in Spectrum: 2068
>>>>>Begin Spectral Data<<<<<
194,468	156,92
195,025	81,94
195,581	101,52
196,138	104,41
196,694	92,31
197,251	82,54
197,807	56,98
198,363	61,54
198,919	60,33
199,474	59,24
200,03	67,61
200,586	68,99
201,141	50,52
201,696	64,74
202,251	57,46
202,806	61,49
203,361	56,83
203,916	65,95
204,471	55,98
205,025	65,41
205,58	60,12
206,134	63,3
206,688	56,54
207,242	55,81
207,796	55,56
208,35	60,47
208,904	50,28
209,457	58,24
210,011	64,42
210,564	67,74
211,117	68,63
211,67	66,29
212,223	63,92
212,776	52,94
213,329	58,82
213,881	50,78
214,434	65
214,986	59,64
215,538	63,59
216,09	59,38
216,642	58,43
217,194	62,94
217,746	65,71
218,297	55
218,849	63,37
219,4	48,89
219,951	65,14
220,502	72,19
221,053	55,95
221,604	60,36
222,155	56,68
222,705	58,48
223,256	53,93
223,806	48
224,356	49,48
224,906	66,67
225,456	48,13
226,006	56,83
226,556	59,46
227,106	60,37
227,655	56,02
228,204	54,24
228,754	58,05
229,303	60
229,852	58,33
230,401	55,56
230,949	60,45
231,498	52,66
232,047	61,11
232,595	57,47
233,143	57,89
233,691	56,04
234,239	53,01
234,787	55,81
235,335	67,44
235,883	51,05
236,43	67,74
236,978	59,57
237,525	51,76
238,072	47,78
238,619	68,9
239,166	62,25
239,713	51,4
240,26	67,25
240,806	52,76
241,353	55,23
241,899	55,49
242,445	52,66
242,991	60,54
243,537	67,32
244,083	63,19
244,629	58
245,174	62,64
245,72	59,22
246,265	49,21
246,81	52,27
247,355	68,68
247,9	45,88
248,445	58,6
248,99	56,67
249,534	61,24
250,079	59,04
250,623	61,96
251,168	61,49
251,712	64,71
252,256	62,11
252,8	54,8
253,343	65,38
253,887	56,28
254,43	55,68
254,974	64,8
255,517	49,15
256,06	59,66
256,603	66,85
257,146	57,46
257,689	54,5
258,232	56,08
258,774	63,1
259,317	51,65
259,859	53,93
260,401	51,12
260,943	56,05
261,485	54,05
262,027	57,67
262,569	73,51
263,11	54,24
263,652	64,84
264,193	55,68
264,734	56,14
265,275	45,31
265,816	57,84
266,357	52,91
266,898	52,02
267,438	62,03
267,979	53,98
268,519	49,4
269,059	60,24
269,6	60,66
270,14	47,45
270,68	58,9
271,219	62,07
271,759	69,87
272,298	64,86
272,838	59,65
273,377	50,84
273,916	71,14
274,455	64,62
274,994	52,22
275,533	71,26
276,072	67,07
276,61	60,36
277,149	64,12
277,687	64,46
278,225	60
278,763	58,96
279,301	51,6
279,839	55,85
280,377	58,39
280,914	58,76
281,452	66,48
281,989	55,29
282,526	72,15
283,064	61,25
283,601	66,29
284,137	69,94
284,674	67,98
285,211	66,13
285,747	61,31
286,284	57,06
286,82	55,73
287,356	53,61
287,892	62,43
288,428	56,9
288,964	63,98
289,5	60,69
290,035	59,66
290,571	52,91
291,106	58,43
291,641	62,79
292,176	54,3
292,711	59,3
293,246	48,91
293,781	61,33
294,315	46,43
294,85	59,35
295,384	65,9
295,918	57,98
296,453	46,49
296,987	48,63
297,52	54,35
298,054	68,97
298,588	59,76
299,121	54,19
299,655	51,76
300,188	62,67
300,721	64,6
301,254	51,85
301,787	62,37
302,32	46,63
302,853	65,92
303,385	57,07
303,918	57,71
304,45	60,71
304,982	58,19
305,514	52,66
306,046	51,63
306,578	59,36
307,11	58,56
307,641	55,49
308,173	55,06
308,704	58,52
309,236	59,9
309,767	58,42
310,298	56,6
310,829	59
311,359	62,32
311,89	64,91
312,421	54,05
312,951	57,14
313,481	52,35
314,012	57,29
314,542	46,28
315,072	61,33
315,601	59,74
316,131	54,26
316,661	63,07
317,19	45,66
317,72	51,2
318,249	52,22
318,778	64,63
319,307	56,77
319,836	69,49
320,365	64,02
320,893	62,69
321,422	72,62
321,95	60,94
322,479	67,88
323,007	58,99
323,535	62,43
324,063	59,32
324,591	55,03
325,118	63,44
325,646	59,04
326,173	58,47
326,701	45,13
327,228	60,73
327,755	50,25
328,282	60,89
328,809	64,12
329,336	49,75
329,862	54,29
330,389	53,61
330,915	63,21
331,441	54,97
331,968	64,04
332,494	56,63
333,02	47,49
333,545	55,56
334,071	47,18
334,597	59,55
335,122	48,94
335,648	49,04
336,173	54,59
336,698	51,6
337,223	58,29
337,748	49,25
338,272	47,34
338,797	52,46
339,322	48,11
339,846	59,68
340,37	45,36
340,894	43,78
341,419	64,37
341,942	50,26
342,466	49,22
342,99	58,12
343,514	45,1
344,037	57,98
344,56	40,19
345,084	43,28
345,607	48,54
346,13	49,77
346,653	50,93
347,175	54,55
347,698	50,25
348,221	48,83
348,743	43,28
349,265	51,23
349,787	36,1
350,309	40,49
350,831	41,42
351,353	39,34
351,875	42,51
352,397	40,52
352,918	45,42
353,439	45,57
353,961	42,91
354,482	39,57
355,003	48,15
355,524	41,15
356,044	43,57
356,565	37,4
357,086	38,2
357,606	34,47
358,126	44,44
358,646	42,75
359,167	38,7
359,687	42,01
360,206	38,15
360,726	42,02
361,246	39,62
361,765	40,94
362,285	40,89
362,804	41,01
363,323	35,82
363,842	36,97
364,361	40,15
364,88	39,48
365,398	36,84
365,917	38,89
366,435	31,67
366,954	35,83
367,472	37,97
367,99	37,66
368,508	32
369,026	38,14
369,544	32,7
370,061	32,94
370,579	41,05
371,096	31,68
371,613	35,04
372,131	33,62
372,648	35,33
373,165	33,97
373,681	37,05
374,198	35,24
374,715	33,62
375,231	35,19
375,747	31,75
376,264	34,99
376,78	29,7
377,296	25
377,812	33,42
378,327	32,33
378,843	34,78
379,359	33,49
379,874	33,5
380,389	31,15
380,905	29,03
381,42	29,33
381,935	31,77
382,449	27,89
382,964	25,78
383,479	25,51
383,993	28,57
384,508	26,69
385,022	26,5
385,536	24,6
386,05	25,61
386,564	26,82
387,078	25,09
387,592	26,03
388,105	22,48
388,619	22,88
389,132	23,28
389,645	21,6
390,158	23,25
390,671	25,15
391,184	22,44
391,697	23,74
392,21	20,74
392,722	21,38
393,235	20,87
393,747	23,01
394,259	23,66
394,771	22,37
395,283	20,32
395,795	19,97
396,307	20,85
396,818	20,95
397,33	19,43
397,841	21,78
398,353	20,24
398,864	17,84
399,375	19,04
399,886	17,95
400,397	16,21
400,907	18,62
401,418	17,97
401,928	17,47
402,439	16,02
402,949	15,35
403,459	16,77
403,969	17,27
404,479	13,69
404,989	13,97
405,498	13,36
406,008	13,79
406,517	13,29
407,027	13,81
407,536	12,53
408,045	12,69
408,554	12,19
409,063	11,71
409,572	11,53
410,08	10,77
410,589	9,85
411,097	9,65
411,606	9,77
412,114	9,17
412,622	8,27
413,13	8,16
413,638	8,39
414,145	8,33
414,653	7,82
415,16	7,3
415,668	7,47
416,175	7,19
416,682	7,01
417,189	7,89
417,696	6,53
418,203	6,73
418,71	6,28
419,216	6,5
419,723	6,28
420,229	6,14
420,735	6,25
421,242	6,08
421,748	5,86
422,254	6,16
422,759	5,76
423,265	5,71
423,771	6,1
424,276	5,07
424,781	6,18
425,287	4,83
425,792	5,71
426,297	5,33
426,802	5,24
427,306	5,14
427,811	5,22
428,316	5,26
428,82	4,89
429,324	5,34
429,829	5,03
430,333	5,06
430,837	4,94
431,34	5,26
431,844	4,8
432,348	4,83
432,851	4,43
433,355	5,19
433,858	4,75
434,361	5,26
434,864	5,24
435,367	4,71
435,87	4,71
436,373	4,41
436,876	4,89
437,378	4,45
437,88	4,3
438,383	4,56
438,885	4,65
439,387	4,74
439,889	4,12
440,391	4,42
440,892	4,61
441,394	4,57
441,896	4,52
442,397	4,38
442,898	4,6
443,399	4,27
443,9	4,33
444,401	4,82
444,902	4,66
445,403	4,49
445,903	4,6
446,404	4,65
446,904	4,57
447,405	4,43
447,905	4,72
448,405	4,03
448,905	4,02
449,404	4,53
449,904	4,69
450,404	4,39
450,903	4,6
451,403	4,45
451,902	4,47
452,401	4,54
452,9	4,72
453,399	4,56
453,898	4,36
454,396	4,2
454,895	4,5
455,393	4,41
455,892	4,74
456,39	4,63
456,888	4,5
457,386	4,62
457,884	4,24
458,382	4,43
458,879	4,63
459,377	4,83
459,874	4,63
460,372	4,48
460,869	4,76
461,366	4,55
461,863	4,83
462,36	4,75
462,857	4,49
463,353	4,56
463,85	4,36
464,346	4,6
464,843	4,26
465,339	4,24
465,835	4,74
466,331	4,64
466,827	4,66
467,323	4,32
467,818	4,44
468,314	4,59
468,809	4,19
469,305	4,12
469,8	4,58
470,295	4,74
470,79	4,46
471,285	4,57
471,78	4,53
472,274	4,2
472,769	4,52
473,263	4,65
473,758	4,67
474,252	4,62
474,746	4,5
475,24	4,56
475,734	4,61
476,228	4,63
476,721	4,69
477,215	4,72
477,708	4,63
478,202	4,59
478,695	4,85
479,188	4,54
479,681	4,64
480,174	4,54
480,667	4,23
481,159	4,59
481,652	4,44
482,144	4,68
482,637	4,67
483,129	4,49
483,621	4,66
484,113	4,62
484,605	4,77
485,097	4,76
485,588	4,96
486,08	4,75
486,571	4,57
487,063	4,58
487,554	4,61
488,045	4,81
488,536	4,65
489,027	4,66
489,518	4,69
490,008	4,71
490,499	4,78
490,989	4,75
491,48	5,01
491,97	4,61
492,46	5,02
492,95	4,98
493,44	5,06
493,93	5,1
494,419	5,15
494,909	5,07
495,398	5,2
495,888	5,19
496,377	5,33
496,866	5,13
497,355	5,49
497,844	5,26
498,333	5,41
498,821	5,53
499,31	5,68
499,798	5,49
500,287	5,79
500,775	5,64
501,263	5,56
501,751	6,03
502,239	6,11
502,727	6,36
503,215	6,15
503,702	6,42
504,19	6,45
504,677	6,35
505,164	6,66
505,651	6,59
506,139	6,87
506,625	7,15
507,112	6,76
507,599	6,9
508,086	7,06
508,572	7,89
509,058	7,56
509,545	7,72
510,031	7,96
510,517	7,93
511,003	8,17
511,489	8,55
511,974	8,57
512,46	8,71
512,946	8,99
513,431	9,07
513,916	9,47
514,401	9,17
514,887	9,8
515,371	10,02
515,856	9,96
516,341	10,29
516,826	10,54
517,31	10,47
517,795	10,93
518,279	10,98
518,763	11,36
519,247	11,68
519,731	11,9
520,215	11,95
520,699	12,35
521,182	12,86
521,666	12,81
522,149	12,81
522,633	13,2
523,116	13,45
523,599	14,03
524,082	13,84
524,565	14,72
525,048	14,63
525,53	14,92
526,013	14,82
526,495	15,29
526,978	14,93
527,46	15,69
527,942	16,13
528,424	15,9
528,906	15,89
529,388	16,3
529,87	16,33
530,351	16,62
530,833	16,49
531,314	16,76
531,795	17,05
532,277	17,25
532,758	17,47
533,238	17,63
533,719	17,13
534,2	17,68
534,681	17,39
535,161	17,39
535,642	17,52
536,122	18,24
536,602	18,13
537,082	17,71
537,562	17,92
538,042	18,09
538,522	18,21
539,001	18,02
539,481	17,9
539,96	18,4
540,44	17,98
540,919	18,24
541,398	18,59
541,877	18,35
542,356	18,56
542,835	18,62
543,313	18,75
543,792	18,47
544,27	18,54
544,749	18,51
545,227	18,65
545,705	18,76
546,183	19,28
546,661	18,77
547,139	18,98
547,616	18,87
548,094	18,95
548,571	19,05
549,049	19,26
549,526	18,63
550,003	19,11
550,48	19,11
550,957	18,96
551,434	18,99
551,911	18,91
552,387	19,17
552,864	19,2
553,34	19,21
553,817	19,23
554,293	19,12
554,769	19,15
555,245	19,19
555,721	19,03
556,197	18,95
556,672	18,98
557,148	19,09
557,623	19,02
558,099	18,97
558,574	18,8
559,049	18,62
559,524	18,56
559,999	18,95
560,474	18,62
560,948	18,87
561,423	18,29
561,897	18,48
562,372	18,62
562,846	18,37
563,32	18,51
563,794	17,95
564,268	18,21
564,742	17,84
565,216	18,03
565,69	17,86
566,163	17,7
566,636	17,78
567,11	17,22
567,583	17,56
568,056	17,03
568,529	16,97
569,002	17,15
569,475	17,05
569,947	16,6
570,42	16,53
570,892	16,44
571,365	16,21
571,837	16,33
572,309	16,06
572,781	15,9
573,253	15,85
573,725	15,49
574,197	15,48
574,668	15,26
575,14	15,46
575,611	14,89
576,082	14,84
576,554	14,83
577,025	14,72
577,496	14,52
577,967	14,7
578,437	14,4
578,908	14,41
579,379	14,58
579,849	14,04
580,319	13,62
580,79	14,08
581,26	13,77
581,73	13,81
582,2	13,69
582,669	13,83
583,139	13,82
583,609	13,63
584,078	13,28
584,548	13,35
585,017	13,11
585,486	13,04
585,955	12,92
586,424	13,05
586,893	12,79
587,362	12,69
587,83	12,85
588,299	12,88
588,767	12,57
589,236	12,55
589,704	12,49
590,172	12,77
590,64	12,43
591,108	12,35
591,576	12,38
592,043	12,1
592,511	12,25
592,978	12,12
593,446	12,1
593,913	12,3
594,38	12,28
594,847	11,94
595,314	12,01
595,781	11,89
596,248	12
596,715	11,92
597,181	11,95
597,647	11,84
598,114	11,75
598,58	11,77
599,046	11,73
599,512	11,85
599,978	11,61
600,444	11,81
600,91	11,69
601,375	11,53
601,841	11,56
602,306	11,38
602,771	11,43
603,236	11,6
603,702	11,5
604,167	11,33
604,631	11,28
605,096	11,43
605,561	11,38
606,025	11,08
606,49	11
606,954	11,26
607,418	11,23
607,882	11,04
608,347	10,84
608,81	11,07
609,274	10,77
609,738	10,48
610,202	10,74
610,665	10,71
611,128	10,51
611,592	10,47
612,055	10,42
612,518	10,37
612,981	10,28
613,444	10,33
613,907	10,26
614,369	10,21
614,832	10,22
615,294	10,19
615,757	9,89
616,219	10,06
616,681	9,83
617,143	9,69
617,605	9,82
618,067	9,82
618,529	9,61
618,99	9,45
619,452	9,62
619,913	9,42
620,375	9,46
620,836	9,36
621,297	9,4
621,758	9,13
622,219	9,3
622,68	9,43
623,14	9,3
623,601	9,24
624,061	9,21
624,522	9,14
624,982	9,11
625,442	9,01
625,902	8,99
626,362	9,16
626,822	9,01
627,282	8,96
627,742	9,22
628,201	9
628,661	9,12
629,12	8,97
629,579	8,97
630,038	8,72
630,497	8,9
630,956	9
631,415	8,81
631,874	8,82
632,332	8,73
632,791	8,53
633,249	8,7
633,708	8,68
634,166	8,73
634,624	8,56
635,082	8,65
635,54	8,68
635,998	8,49
636,455	8,43
636,913	8,48
637,37	8,21
637,828	8,13
638,285	8,13
638,742	8,09
639,199	8,04
639,656	7,86
640,113	7,94
640,57	7,65
641,027	7,82
641,483	7,5
641,94	7,51
642,396	7,47
642,852	7,27
643,309	7,16
643,765	7,22
644,221	7,13
644,676	7,04
645,132	6,79
645,588	6,85
646,043	6,78
646,499	6,71
646,954	6,64
647,409	6,58
647,864	6,48
648,319	6,46
648,774	6,34
649,229	6,29
649,684	6,22
650,139	6,31
650,593	6,3
651,047	6,1
651,502	6,08
651,956	6,04
652,41	5,92
652,864	6,02
653,318	5,89
653,772	5,97
654,225	5,89
654,679	5,97
655,133	5,81
655,586	5,88
656,039	5,83
656,492	5,67
656,946	5,83
657,399	5,58
657,851	5,73
658,304	5,72
658,757	5,53
659,209	5,63
659,662	5,51
660,114	5,45
660,567	5,32
661,019	5,37
661,471	5,34
661,923	5,23
662,375	5,35
662,826	5,17
663,278	5,11
663,73	4,97
664,181	5,07
664,632	5,18
665,084	5,06
665,535	5,11
665,986	4,92
666,437	4,97
666,888	4,92
667,338	5,08
667,789	4,94
668,24	5,05
668,69	5,09
669,14	5,03
669,591	5
670,041	5,07
670,491	5,21
670,941	5,09
671,391	5,08
671,84	5,16
672,29	5,31
672,74	5,3
673,189	5,3
673,638	5,29
674,088	5,48
674,537	5,54
674,986	5,59
675,435	5,68
675,883	5,65
676,332	5,58
676,781	5,79
677,229	5,83
677,678	5,89
678,126	6,07
678,574	6,05
679,022	6,17
679,47	6,29
679,918	6,32
680,366	6,62
680,814	6,57
681,261	6,63
681,709	6,77
682,156	6,93
682,604	6,99
683,051	7,13
683,498	7,16
683,945	7,22
684,392	7,24
684,839	7,5
685,286	7,57
685,732	7,63
686,179	7,72
686,625	7,93
687,071	7,92
687,518	8,03
687,964	8,26
688,41	8,27
688,856	8,5
689,301	8,7
689,747	8,83
690,193	9,15
690,638	9,38
691,084	9,52
691,529	9,9
691,974	10,11
692,419	10,39
692,864	10,69
693,309	11,2
693,754	11,51
694,199	11,76
694,643	12,18
695,088	12,74
695,532	13
695,977	13,47
696,421	13,86
696,865	14,15
697,309	14,83
697,753	15,04
698,197	15,57
698,64	16,16
699,084	16,58
699,527	16,68
699,971	17,22
700,414	17,72
700,857	18,38
701,3	18,56
701,743	18,99
702,186	19,19
702,629	19,68
703,072	20,07
703,515	20,84
703,957	20,79
704,399	21,18
704,842	21,79
705,284	22,03
705,726	22,41
706,168	22,69
706,61	23,36
707,052	23,47
707,494	24,15
707,935	24,68
708,377	24,6
708,818	25,02
709,26	25,47
709,701	25,85
710,142	26,04
710,583	26,29
711,024	26,71
711,465	26,99
711,905	27,31
712,346	27,8
712,787	27,82
713,227	28,28
713,667	28,85
714,108	28,73
714,548	29,27
714,988	29,68
715,428	29,95
715,868	30
716,307	30,13
716,747	30,41
717,186	30,91
717,626	31,22
718,065	31,49
718,504	31,57
718,944	32,08
719,383	32,31
719,822	32,36
720,261	32,49
720,699	32,89
721,138	33,16
721,576	33,32
722,015	33,37
722,453	33,95
722,892	33,91
723,33	33,82
723,768	34,3
724,206	34,22
724,644	34,67
725,081	34,55
725,519	34,87
725,957	35,2
726,394	35,64
726,832	35,46
727,269	35,8
727,706	35,81
728,143	35,88
728,58	35,89
729,017	36,44
729,454	36,37
729,89	36,04
730,327	36,48
730,764	36,56
731,2	36,78
731,636	37,1
732,072	37,26
732,509	37,16
732,945	37,16
733,38	37,23
733,816	37,35
734,252	37,25
734,688	37,59
735,123	37,5
735,559	37,57
735,994	37,76
736,429	37,58
736,864	37,86
737,299	37,73
737,734	37,93
738,169	37,97
738,604	37,73
739,038	38,2
739,473	38,05
739,907	38,03
740,342	38,35
740,776	38,5
741,21	37,97
741,644	38,05
742,078	37,96
742,512	38,07
742,946	38,25
743,379	38,18
743,813	37,98
744,246	38,05
744,68	38,24
745,113	38,05
745,546	38,27
745,979	38,05
746,412	38,44
746,845	38,13
747,278	38,4
747,711	38,05
748,143	37,95
748,576	38,07
749,008	37,73
749,441	38,06
749,873	37,85
750,305	38,17
750,737	37,68
751,169	37,83
751,601	38,25
752,032	37,87
752,464	37,58
752,896	37,59
753,327	38,1
753,758	37,82
754,19	37,62
754,621	37,83
755,052	37,47
755,483	37,68
755,914	37,54
756,344	37,66
756,775	37,72
757,206	37,36
757,636	37,51
758,066	37,36
758,497	37,46
758,927	37,49
759,357	37,24
759,787	37,32
760,217	37,21
760,647	37,28
761,076	37,02
761,506	37,05
761,935	37,23
762,365	37,51
762,794	37,53
763,223	37,32
763,653	36,88
764,082	36,98
764,51	36,93
764,939	37,07
765,368	37,22
765,797	36,94
766,225	37,13
766,654	36,89
767,082	36,96
767,51	36,56
767,938	36,6
768,367	36,67
768,795	36,64
769,222	36,77
769,65	36,83
770,078	36,62
770,505	36,57
770,933	36,68
771,36	36,65
771,788	36,98
772,215	36,61
772,642	36,53
773,069	36,34
773,496	36,13
773,923	36,59
774,349	36,54
774,776	36,36
775,203	36,36
775,629	36,33
776,055	36,37
776,482	36,35
776,908	36,35
777,334	36,48
777,76	36,36
778,186	36,4
778,611	36,04
779,037	36,4
779,463	36,26
779,888	36,16
780,314	36,28
780,739	35,94
781,164	36,32
781,589	36,05
782,014	35,87
782,439	36,09
782,864	36,25
783,289	35,94
783,713	36,41
784,138	36,03
784,562	36,5
784,987	36,31
785,411	36,24
785,835	35,99
786,259	35,96
786,683	36,37
787,107	36,05
787,531	36,08
787,954	36,12
788,378	35,92
788,802	35,91
789,225	35,93
789,648	35,85
790,071	36,25
790,495	35,76
790,918	35,8
791,34	36,19
791,763	36,15
792,186	35,55
792,609	35,38
793,031	35,61
793,454	35,78
793,876	36
794,298	35,93
794,721	35,95
795,143	35,41
795,565	35,69
795,986	35,62
796,408	35,47
796,83	35,86
797,252	35,66
797,673	35,7
798,094	35,6
798,516	36,2
798,937	35,85
799,358	35,56
799,779	35,53
800,2	35,7
800,621	35,61
801,042	35,71
801,462	35,4
801,883	35,66
802,303	35,59
802,724	35,74
803,144	35,77
803,564	35,76
803,984	35,97
804,404	35,61
804,824	35,72
805,244	35,61
805,664	35,4
806,084	35,84
806,503	35,62
806,923	35,72
807,342	35,75
807,761	35,77
808,18	35,68
808,599	36,01
809,018	35,75
809,437	35,7
809,856	35,42
810,275	35,85
810,693	35,63
811,112	35,33
811,53	35,11
811,949	35,63
812,367	35,8
812,785	35,42
813,203	35,53
813,621	35,39
814,039	35,42
814,457	35,49
814,874	35,48
815,292	35,65
815,709	35,77
816,127	35,67
816,544	35,44
816,961	35,27
817,378	35,85
817,795	35,42
818,212	35,23
818,629	35,31
819,046	35,57
819,462	35,55
819,879	35,17
820,295	35,34
820,712	35,49
821,128	35,34
821,544	35,44
821,96	35,56
822,376	35,05
822,792	35,28
823,208	35,38
823,624	35,07
824,039	34,9
824,455	35,16
824,87	35,41
825,286	35,49
825,701	35,65
826,116	35,14
826,531	35,67
826,946	35,19
827,361	35,08
827,776	35,4
828,19	34,99
828,605	35,36
829,02	35,43
829,434	35,41
829,848	35,11
830,263	34,85
830,677	35,51
831,091	35,5
831,505	35,56
831,919	35,31
832,332	35,14
832,746	35,2
833,16	35,17
833,573	34,97
833,987	35,42
834,4	34,85
834,813	35,33
835,226	35,37
835,639	35,22
836,052	35
836,465	35,18
836,878	35,46
837,29	35,24
837,703	34,91
838,116	34,84
838,528	35,23
838,94	34,68
839,352	35,06
839,765	35,22
840,177	35,15
840,589	34,96
841	34,76
841,412	34,91
841,824	35,08
842,235	35,13
842,647	35,28
843,058	35,18
843,47	35,1
843,881	35,07
844,292	35,17
844,703	35,15
