Data from E4__Relative__4__00061.txt Node

Date: Thu Feb 01 16:21:14 CET 2024
User: diatiterra
Spectrometer: HDX00911
Trigger mode: 0
Integration Time (sec): 6,000000E-3
Scans to average: 2
Nonlinearity correction enabled: false
Boxcar width: 0
Storing dark spectrum: false
XAxis mode: Wavelengths
Number of Pixels in Spectrum: 2068
>>>>>Begin Spectral Data<<<<<
194,468	153,85
195,025	102,78
195,581	96,97
196,138	108,82
196,694	85,71
197,251	88,1
197,807	72,67
198,363	57,99
198,919	65,22
199,474	64,97
200,03	69,32
200,586	69,62
201,141	59,28
201,696	60,12
202,251	59,12
202,806	60,92
203,361	70,49
203,916	61,62
204,471	61,96
205,025	55,14
205,58	56,65
206,134	59,57
206,688	56,54
207,242	59,3
207,796	58,59
208,35	56,4
208,904	58,76
209,457	59,41
210,011	63,8
210,564	61,29
211,117	65,36
211,67	64,04
212,223	62,37
212,776	55,61
213,329	63,64
213,881	55,96
214,434	63
214,986	69,28
215,538	55,43
216,09	59,9
216,642	61,45
217,194	68,24
217,746	68
218,297	61,11
218,849	66,86
219,4	55,56
219,951	62,29
220,502	65,09
221,053	64,29
221,604	72,19
222,155	65,78
222,705	59,65
223,256	60,11
223,806	62,86
224,356	53,61
224,906	71,52
225,456	62,57
226,006	57,92
226,556	59,46
227,106	63,41
227,655	58,64
228,204	56,5
228,754	71,26
229,303	60,59
229,852	60
230,401	70,37
230,949	64,97
231,498	64,36
232,047	57,22
232,595	62,07
233,143	61,58
233,691	61,54
234,239	55,19
234,787	56,98
235,335	66,86
235,883	53,68
236,43	71,61
236,978	63,83
237,525	49,75
238,072	52,78
238,619	62,8
239,166	54,41
239,713	64,25
240,26	67,25
240,806	67,48
241,353	60,47
241,899	57,69
242,445	55,62
242,991	59,46
243,537	64,05
244,083	60,44
244,629	63,5
245,174	59,77
245,72	60,34
246,265	57,07
246,81	53,41
247,355	59,34
247,9	60
248,445	63,69
248,99	71,67
249,534	69,1
250,079	67,47
250,623	62,5
251,168	64,94
251,712	68,82
252,256	68,32
252,8	65,54
253,343	63,74
253,887	59,56
254,43	53,98
254,974	59,78
255,517	71,75
256,06	57,39
256,603	61,8
257,146	58,56
257,689	52,38
258,232	55,03
258,774	63,69
259,317	53,85
259,859	54,45
260,401	52,25
260,943	64,97
261,485	69,73
262,027	53,44
262,569	66,89
263,11	62,71
263,652	60,99
264,193	54,55
264,734	50,88
265,275	53,65
265,816	63,78
266,357	55,56
266,898	52,53
267,438	68,35
267,979	63,64
268,519	56,55
269,059	57,23
269,6	61,2
270,14	52,55
270,68	65,75
271,219	62,64
271,759	75,64
272,298	67,03
272,838	58,48
273,377	64,8
273,916	71,81
274,455	58,46
274,994	53,89
275,533	71,26
276,072	65,87
276,61	62,13
277,149	67,06
277,687	57,83
278,225	68,24
278,763	64,74
279,301	63,83
279,839	66,49
280,377	65,22
280,914	60,82
281,452	67,04
281,989	62,94
282,526	72,15
283,064	65
283,601	61,8
284,137	63,19
284,674	71,35
285,211	62,9
285,747	59,3
286,284	57,06
286,82	58,33
287,356	55,15
287,892	61,33
288,428	59,77
288,964	62,37
289,5	55,49
290,035	66,48
290,571	58,2
291,106	53,37
291,641	62,79
292,176	61,83
292,711	58,72
293,246	61,41
293,781	64,09
294,315	54,59
294,85	60
295,384	59,54
295,918	57,45
296,453	58,92
296,987	49,18
297,52	61,41
298,054	66,67
298,588	67,07
299,121	60,34
299,655	57,06
300,188	60,67
300,721	68,32
301,254	58,73
301,787	61,29
302,32	50,78
302,853	67,6
303,385	62,5
303,918	67,43
304,45	66,33
304,982	63,84
305,514	60,11
306,046	64,67
306,578	70,59
307,11	58,56
307,641	73,63
308,173	66,29
308,704	68,18
309,236	57,36
309,767	62,63
310,298	64,15
310,829	63
311,359	55,07
311,89	62,57
312,421	58,92
312,951	64,57
313,481	54,12
314,012	64,06
314,542	57,98
315,072	69,06
315,601	67,53
316,131	52,66
316,661	65,91
317,19	54,34
317,72	67,47
318,249	68,89
318,778	58,5
319,307	64,58
319,836	65,54
320,365	65,08
320,893	68,39
321,422	70,24
321,95	61,98
322,479	64,24
323,007	67,98
323,535	63,01
324,063	64,41
324,591	56,08
325,118	61,29
325,646	54,26
326,173	61,75
326,701	55,38
327,228	67,02
327,755	56,35
328,282	60,34
328,809	62,94
329,336	59,2
329,862	73,14
330,389	56,19
330,915	61,14
331,441	74,85
331,968	74,16
332,494	58,67
333,02	59,22
333,545	55,03
334,071	54,36
334,597	60,11
335,122	65,43
335,648	51,44
336,173	64,32
336,698	53,72
337,223	57,22
337,748	49,75
338,272	47,34
338,797	61,75
339,322	57,3
339,846	64,52
340,37	50,27
340,894	48,26
341,419	71,84
341,942	59,79
342,466	62,18
342,99	63,87
343,514	48,53
344,037	57,45
344,56	49,76
345,084	60,2
345,607	54,37
346,13	52,11
346,653	60,75
347,175	58,85
347,698	51,26
348,221	60,56
348,743	52,94
349,265	53,69
349,787	52,68
350,309	49,39
350,831	47,7
351,353	50,71
351,875	55,06
352,397	51,29
352,918	55,42
353,439	45,99
353,961	48,43
354,482	53,62
355,003	47,74
355,524	43,21
356,044	53,11
356,565	39,84
357,086	46,82
357,606	36,17
358,126	41
358,646	47,58
359,167	43,91
359,687	52,79
360,206	45,93
360,726	45,91
361,246	41,13
361,765	40,58
362,285	46,1
362,804	38,13
363,323	39,01
363,842	37,68
364,361	35,4
364,88	39,16
365,398	40,35
365,917	36,73
366,435	41,33
366,954	34,53
367,472	39,87
367,99	35,39
368,508	37,33
369,026	38,78
369,544	34,59
370,061	36,5
370,579	34,88
371,096	35,81
371,613	37,32
372,131	33,62
372,648	35,9
373,165	35,34
373,681	33,73
374,198	34,38
374,715	37,89
375,231	37,22
375,747	29,63
376,264	36,55
376,78	34,52
377,296	27,88
377,812	30,38
378,327	30,58
378,843	34,02
379,359	30,9
379,874	34,99
380,389	25,73
380,905	24,73
381,42	28,67
381,935	27,29
382,449	24,38
382,964	26,61
383,479	27,16
383,993	26,92
384,508	27,44
385,022	28,82
385,536	25,13
386,05	28,25
386,564	25,93
387,078	27,6
387,592	22,26
388,105	23,14
388,619	22,72
389,132	22,34
389,645	23,04
390,158	23,83
390,671	22,1
391,184	21,6
391,697	20,79
392,21	18,96
392,722	21,25
393,235	20,74
393,747	20,78
394,259	21,97
394,771	22,65
395,283	19,66
395,795	18,94
396,307	20,1
396,818	18,64
397,33	20,21
397,841	18,86
398,353	18,18
398,864	21,12
399,375	15,7
399,886	15,78
400,397	18,31
400,907	14,29
401,418	15,78
401,928	15,1
402,439	15,01
402,949	13,69
403,459	15,85
403,969	14,17
404,479	14,12
404,989	14,3
405,498	11,87
406,008	12,62
406,517	11,84
407,027	12,71
407,536	11,1
408,045	11,24
408,554	11,2
409,063	10,32
409,572	9,24
410,08	10,35
410,589	8,4
411,097	8,45
411,606	9,35
412,114	8,2
412,622	8,66
413,13	7,97
413,638	6,95
414,145	6,6
414,653	6,83
415,16	7,47
415,668	6,55
416,175	6,91
416,682	6,46
417,189	6,38
417,696	6,78
418,203	6,62
418,71	5,55
419,216	5,04
419,723	5,82
420,229	6,34
420,735	6,19
421,242	5,51
421,748	5,58
422,254	5,74
422,759	4,9
423,265	5,07
423,771	5,31
424,276	5,3
424,781	5,04
425,287	4,61
425,792	5,52
426,297	5,01
426,802	4,44
427,306	4,63
427,811	4,77
428,316	4,77
428,82	4,15
429,324	4,67
429,829	4,26
430,333	4,6
430,837	4,2
431,34	4,35
431,844	4,09
432,348	3,94
432,851	4,06
433,355	4,03
433,858	4,08
434,361	4,4
434,864	4,32
435,367	4,02
435,87	4,12
436,373	4,18
436,876	4,41
437,378	3,78
437,88	4,2
438,383	3,81
438,885	4,11
439,387	4,08
439,889	3,74
440,391	3,62
440,892	4,02
441,394	4,29
441,896	3,98
442,397	3,91
442,898	3,75
443,399	3,49
443,9	3,71
444,401	3,8
444,902	3,71
445,403	3,94
445,903	3,45
446,404	3,79
446,904	3,75
447,405	3,49
447,905	3,79
448,405	3,38
448,905	3,73
449,404	3,85
449,904	3,67
450,404	3,79
450,903	3,67
451,403	3,66
451,902	3,76
452,401	3,64
452,9	3,59
453,399	3,84
453,898	3,53
454,396	3,83
454,895	3,69
455,393	3,96
455,892	3,53
456,39	3,73
456,888	3,54
457,386	4,02
457,884	3,57
458,382	3,3
458,879	3,7
459,377	3,53
459,874	3,93
460,372	3,52
460,869	3,41
461,366	3,41
461,863	3,8
462,36	3,91
462,857	3,71
463,353	3,56
463,85	3,31
464,346	3,09
464,843	3,58
465,339	3,4
465,835	3,61
466,331	3,67
466,827	3,7
467,323	3,57
467,818	3,45
468,314	3,73
468,809	3,3
469,305	3,27
469,8	3,39
470,295	3,71
470,79	3,35
471,285	3,47
471,78	3,29
472,274	3,82
472,769	3,41
473,263	3,52
473,758	3,51
474,252	3,58
474,746	3,5
475,24	3,72
475,734	3,35
476,228	3,38
476,721	3,25
477,215	3,54
477,708	3,67
478,202	3,72
478,695	3,54
479,188	3,56
479,681	3,69
480,174	3,55
480,667	3,33
481,159	3,56
481,652	3,36
482,144	3,62
482,637	3,54
483,129	3,36
483,621	3,49
484,113	3,36
484,605	3,58
485,097	3,59
485,588	3,5
486,08	3,71
486,571	3,56
487,063	3,51
487,554	3,47
488,045	3,8
488,536	3,38
489,027	3,62
489,518	3,53
490,008	3,59
490,499	3,5
490,989	3,66
491,48	3,69
491,97	3,45
492,46	3,79
492,95	3,77
493,44	3,85
493,93	3,7
494,419	3,62
494,909	3,95
495,398	3,89
495,888	3,81
496,377	3,81
496,866	3,81
497,355	4,03
497,844	3,75
498,333	4,16
498,821	4,2
499,31	3,98
499,798	4,17
500,287	4,24
500,775	4,37
501,263	4,45
501,751	4,48
502,239	4,92
502,727	4,66
503,215	4,79
503,702	4,82
504,19	4,97
504,677	5,1
505,164	5,18
505,651	5,04
506,139	5,21
506,625	5,45
507,112	5,35
507,599	5,58
508,086	5,82
508,572	5,9
509,058	6,02
509,545	6,17
510,031	6,46
510,517	6,64
511,003	6,78
511,489	6,79
511,974	6,89
512,46	6,94
512,946	7,43
513,431	7,42
513,916	7,68
514,401	7,76
514,887	8,04
515,371	8,35
515,856	8,3
516,341	8,74
516,826	8,97
517,31	9,01
517,795	9,08
518,279	9,78
518,763	9,98
519,247	10,08
519,731	10,38
520,215	10,82
520,699	10,53
521,182	10,86
521,666	11,49
522,149	11,47
522,633	12,14
523,116	12,12
523,599	12,06
524,082	12,56
524,565	13,22
525,048	12,82
525,53	13,53
526,013	13,66
526,495	13,76
526,978	13,72
527,46	13,84
527,942	14,19
528,424	14,56
528,906	14,61
529,388	14,84
529,87	15,3
530,351	15,36
530,833	15,47
531,314	15,79
531,795	15,66
532,277	16
532,758	16
533,238	16,08
533,719	16,19
534,2	16,37
534,681	16,57
535,161	16,52
535,642	16,87
536,122	16,69
536,602	16,8
537,082	16,83
537,562	17,04
538,042	16,93
538,522	17,2
539,001	17,29
539,481	17,03
539,96	17,05
540,44	17,72
540,919	17,34
541,398	17,49
541,877	17,34
542,356	17,23
542,835	17,43
543,313	17,47
543,792	17,38
544,27	17,61
544,749	17,45
545,227	17,76
545,705	18,11
546,183	17,58
546,661	17,63
547,139	18,05
547,616	17,85
548,094	18,03
548,571	17,8
549,049	18,26
549,526	17,81
550,003	18,01
550,48	17,98
550,957	17,38
551,434	18,46
551,911	18,01
552,387	17,97
552,864	18,21
553,34	17,91
553,817	17,89
554,293	17,85
554,769	18,34
555,245	18,58
555,721	18,14
556,197	17,88
556,672	17,74
557,148	18,11
557,623	17,85
558,099	17,93
558,574	18
559,049	17,74
559,524	17,72
559,999	18,08
560,474	18,37
560,948	17,67
561,423	17,58
561,897	17,34
562,372	17,35
562,846	17,36
563,32	17,45
563,794	17,2
564,268	17,33
564,742	17,19
565,216	17,06
565,69	17,13
566,163	16,68
566,636	17,01
567,11	16,22
567,583	16,43
568,056	16,28
568,529	15,83
569,002	16,08
569,475	15,67
569,947	15,7
570,42	15,62
570,892	15,56
571,365	15,24
571,837	14,86
572,309	14,95
572,781	14,76
573,253	14,57
573,725	14,39
574,197	14,56
574,668	14,28
575,14	14,3
575,611	14,12
576,082	14,24
576,554	13,56
577,025	13,52
577,496	13,45
577,967	13,44
578,437	13,13
578,908	13,52
579,379	13,06
579,849	13,01
580,319	12,74
580,79	12,86
581,26	12,46
581,73	12,6
582,2	12,42
582,669	12,51
583,139	12,27
583,609	12,17
584,078	11,97
584,548	11,9
585,017	11,83
585,486	11,66
585,955	11,73
586,424	11,79
586,893	11,93
587,362	11,46
587,83	11,52
588,299	11,42
588,767	11,54
589,236	11,28
589,704	11,09
590,172	11,25
590,64	11,2
591,108	11,25
591,576	11,07
592,043	10,86
592,511	10,99
592,978	10,88
593,446	10,99
593,913	10,63
594,38	10,75
594,847	10,85
595,314	10,67
595,781	10,45
596,248	10,68
596,715	10,63
597,181	10,64
597,647	10,3
598,114	10,62
598,58	10,34
599,046	10,24
599,512	10,29
599,978	10,23
600,444	10,48
600,91	10,34
601,375	10,18
601,841	10,16
602,306	10,34
602,771	10,24
603,236	10,04
603,702	10,04
604,167	9,92
604,631	10,2
605,096	9,93
605,561	10,09
606,025	9,86
606,49	10,07
606,954	9,81
607,418	9,68
607,882	9,69
608,347	9,62
608,81	9,54
609,274	9,38
609,738	9,49
610,202	9,41
610,665	9,37
611,128	9,19
611,592	9,31
612,055	9,11
612,518	9,21
612,981	9,09
613,444	9,01
613,907	8,99
614,369	8,75
614,832	8,7
615,294	8,79
615,757	8,38
616,219	8,66
616,681	8,62
617,143	8,52
617,605	8,23
618,067	8,42
618,529	8,4
618,99	8,43
619,452	8,26
619,913	8,27
620,375	8,04
620,836	7,94
621,297	8,1
621,758	7,82
622,219	7,87
622,68	7,97
623,14	7,98
623,601	7,9
624,061	7,66
624,522	7,91
624,982	7,66
625,442	7,76
625,902	7,85
626,362	7,65
626,822	7,89
627,282	7,76
627,742	7,61
628,201	7,73
628,661	7,74
629,12	7,89
629,579	7,66
630,038	7,52
630,497	7,59
630,956	7,57
631,415	7,5
631,874	7,56
632,332	7,54
632,791	7,36
633,249	7,4
633,708	7,61
634,166	7,18
634,624	7,41
635,082	7,35
635,54	7,22
635,998	7,13
636,455	7,04
636,913	7,02
637,37	6,9
637,828	6,81
638,285	6,62
638,742	6,62
639,199	6,59
639,656	6,35
640,113	6,34
640,57	6,21
641,027	6,2
641,483	6,07
641,94	6,07
642,396	5,89
642,852	5,77
643,309	5,64
643,765	5,51
644,221	5,43
644,676	5,54
645,132	5,36
645,588	5,3
646,043	5,19
646,499	5,2
646,954	5,1
647,409	4,92
647,864	4,98
648,319	4,72
648,774	4,8
649,229	4,74
649,684	4,77
650,139	4,64
650,593	4,67
651,047	4,61
651,502	4,54
651,956	4,63
652,41	4,47
652,864	4,42
653,318	4,54
653,772	4,47
654,225	4,42
654,679	4,41
655,133	4,48
655,586	4,49
656,039	4,43
656,492	4,38
656,946	4,3
657,399	4,2
657,851	4,34
658,304	4,2
658,757	4,15
659,209	4,11
659,662	4,18
660,114	4,1
660,567	4,02
661,019	3,88
661,471	3,87
661,923	3,93
662,375	3,98
662,826	3,91
663,278	3,77
663,73	3,62
664,181	3,84
664,632	3,78
665,084	3,78
665,535	3,6
665,986	3,69
666,437	3,7
666,888	3,64
667,338	3,64
667,789	3,68
668,24	3,7
668,69	3,7
669,14	3,71
669,591	3,73
670,041	3,68
670,491	3,79
670,941	3,79
671,391	3,67
671,84	3,81
672,29	3,89
672,74	3,86
673,189	4
673,638	3,94
674,088	4,09
674,537	4,03
674,986	4,17
675,435	4,22
675,883	4,25
676,332	4,31
676,781	4,32
677,229	4,56
677,678	4,63
678,126	4,61
678,574	4,7
679,022	4,76
679,47	4,86
679,918	4,94
680,366	5,05
680,814	5,21
681,261	5,32
681,709	5,28
682,156	5,35
682,604	5,55
683,051	5,44
683,498	5,58
683,945	5,8
684,392	5,69
684,839	5,78
685,286	5,93
685,732	6
686,179	6,1
686,625	6,14
687,071	6,36
687,518	6,33
687,964	6,5
688,41	6,65
688,856	6,92
689,301	7,12
689,747	7,19
690,193	7,51
690,638	7,98
691,084	8,07
691,529	8,35
691,974	8,78
692,419	9,09
692,864	9,39
693,309	9,86
693,754	10,19
694,199	10,4
694,643	10,97
695,088	11,45
695,532	11,81
695,977	12,28
696,421	12,69
696,865	13,26
697,309	13,62
697,753	13,97
698,197	14,52
698,64	15,26
699,084	15,3
699,527	16,05
699,971	16,36
700,414	16,86
700,857	17,22
701,3	17,52
701,743	18,19
702,186	18,57
702,629	18,93
703,072	19,51
703,515	19,98
703,957	20,34
704,399	20,67
704,842	20,9
705,284	21,62
705,726	21,81
706,168	22,19
706,61	22,73
707,052	23,1
707,494	23,59
707,935	23,98
708,377	24,25
708,818	24,64
709,26	25,16
709,701	25,22
710,142	25,77
710,583	26
711,024	26,08
711,465	26,7
711,905	26,96
712,346	27,36
712,787	27,45
713,227	28,16
713,667	28,37
714,108	28,57
714,548	29,17
714,988	29,3
715,428	29,64
715,868	29,82
716,307	30,09
716,747	30,34
717,186	30,94
717,626	31,32
718,065	31,29
718,504	31,61
718,944	32,11
719,383	32,07
719,822	32,26
720,261	32,42
720,699	32,54
721,138	33,11
721,576	33,38
722,015	33,49
722,453	33,51
722,892	34,12
723,33	34,03
723,768	34,51
724,206	34,42
724,644	34,77
725,081	35
725,519	35,01
725,957	35,49
726,394	35,18
726,832	35,5
727,269	35,97
727,706	35,92
728,143	36,21
728,58	36,11
729,017	36,41
729,454	36,45
729,89	36,54
730,327	36,77
730,764	36,58
731,2	36,85
731,636	37,12
732,072	36,87
732,509	37,35
732,945	36,91
733,38	37,28
733,816	37,54
734,252	37,27
734,688	37,67
735,123	37,85
735,559	37,78
735,994	37,9
736,429	37,87
736,864	38,06
737,299	37,72
737,734	38,14
738,169	38,31
738,604	38,27
739,038	38,21
739,473	38,06
739,907	37,95
740,342	38,14
740,776	38,42
741,21	38,25
741,644	38,4
742,078	38,53
742,512	37,9
742,946	38,16
743,379	38,6
743,813	38,29
744,246	38,44
744,68	38,6
745,113	38,33
745,546	38,4
745,979	38,4
746,412	38,44
746,845	38,28
747,278	38,7
747,711	38,27
748,143	38,59
748,576	38,42
749,008	38,55
749,441	37,98
749,873	37,99
750,305	38,31
750,737	38,08
751,169	38,35
751,601	38,07
752,032	38,03
752,464	38,18
752,896	38,28
753,327	38,24
753,758	37,88
754,19	38,09
754,621	38,32
755,052	37,67
755,483	37,77
755,914	37,69
756,344	38,01
756,775	37,73
757,206	37,84
757,636	37,83
758,066	37,47
758,497	37,64
758,927	37,56
759,357	37,39
759,787	37,75
760,217	37,63
760,647	37,62
761,076	37,24
761,506	37,69
761,935	37,67
762,365	37,59
762,794	37,53
763,223	37,5
763,653	37,25
764,082	37,43
764,51	37,31
764,939	37,33
765,368	37,38
765,797	37,06
766,225	37,2
766,654	36,97
767,082	37,23
767,51	36,98
767,938	36,96
768,367	37,13
768,795	36,9
769,222	37
769,65	36,9
770,078	36,97
770,505	36,54
770,933	37,04
771,36	37,06
771,788	36,73
772,215	36,88
772,642	37,16
773,069	36,81
773,496	36,43
773,923	36,99
774,349	36,73
774,776	36,55
775,203	36,62
775,629	36,59
776,055	36,79
776,482	36,41
776,908	36,54
777,334	36,74
777,76	36,66
778,186	36,53
778,611	36,73
779,037	36,7
779,463	36,6
779,888	36,34
780,314	36,26
780,739	36,32
781,164	36,61
781,589	36,54
782,014	36,34
782,439	36,57
782,864	36,48
783,289	36,39
783,713	36,31
784,138	36,59
784,562	36,41
784,987	36,3
785,411	36,59
785,835	36,35
786,259	36,26
786,683	36,39
787,107	36,38
787,531	35,92
787,954	36,23
788,378	36,42
788,802	36,53
789,225	36,27
789,648	36,18
790,071	36,57
790,495	36,14
790,918	36,15
791,34	36,33
791,763	36,39
792,186	36,27
792,609	36,42
793,031	36,21
793,454	36,34
793,876	36,11
794,298	35,93
794,721	35,93
795,143	36
795,565	36,23
795,986	36,11
796,408	35,74
796,83	35,78
797,252	35,96
797,673	35,98
798,094	36,36
798,516	36,26
798,937	36,2
799,358	36,02
799,779	35,8
800,2	36,07
800,621	35,92
801,042	35,84
801,462	36,19
801,883	35,91
802,303	35,5
802,724	35,98
803,144	35,77
803,564	35,74
803,984	36,03
804,404	36,09
804,824	36,28
805,244	36,03
805,664	35,86
806,084	36,05
806,503	36,02
806,923	36,25
807,342	35,97
807,761	36,02
808,18	36,03
808,599	35,67
809,018	35,98
809,437	35,6
809,856	35,77
810,275	35,92
810,693	36,1
811,112	35,96
811,53	36
811,949	36,05
812,367	36,12
812,785	35,74
813,203	35,76
813,621	35,71
814,039	35,97
814,457	35,73
814,874	36
815,292	35,95
815,709	35,68
816,127	35,86
816,544	35,91
816,961	35,67
817,378	36,03
817,795	35,74
818,212	35,82
818,629	35,68
819,046	36,25
819,462	35,7
819,879	35,72
820,295	35,88
820,712	35,61
821,128	35,37
821,544	35,8
821,96	35,63
822,376	35,8
822,792	35,77
823,208	35,96
823,624	35,7
824,039	35,66
824,455	35,93
824,87	35,52
825,286	35,64
825,701	35,78
826,116	35,55
826,531	35,61
826,946	35,67
827,361	35,72
827,776	35,63
828,19	35,42
828,605	35,61
829,02	35,62
829,434	35,48
829,848	35,63
830,263	35,57
830,677	35,71
831,091	36,16
831,505	35,86
831,919	35,56
832,332	35,66
832,746	35,61
833,16	35,36
833,573	35,51
833,987	35,79
834,4	35,5
834,813	35,7
835,226	35,53
835,639	35,54
836,052	35,51
836,465	35,48
836,878	35,3
837,29	35,9
837,703	35,5
838,116	35,23
838,528	35,85
838,94	34,99
839,352	35,57
839,765	35,36
840,177	35,5
840,589	35,36
841	35,5
841,412	35,51
841,824	35,38
842,235	35,48
842,647	35,6
843,058	35,31
843,47	35,31
843,881	35,45
844,292	36,08
844,703	35,78
845,114	35,38
845,525	35,48
845,935	35,17
846,346	35,32
