Data from E4__Relative__6__00063.txt Node

Date: Thu Feb 01 16:21:29 CET 2024
User: diatiterra
Spectrometer: HDX00911
Trigger mode: 0
Integration Time (sec): 6,000000E-3
Scans to average: 2
Nonlinearity correction enabled: false
Boxcar width: 0
Storing dark spectrum: false
XAxis mode: Wavelengths
Number of Pixels in Spectrum: 2068
>>>>>Begin Spectral Data<<<<<
194,468	153,85
195,025	93,06
195,581	110,61
196,138	113,24
196,694	101,1
197,251	84,13
197,807	66,28
198,363	65,09
198,919	59,78
199,474	63,69
200,03	69,89
200,586	76,58
201,141	61,34
201,696	75,14
202,251	62,43
202,806	72,41
203,361	73,22
203,916	62,16
204,471	73,37
205,025	71,35
205,58	68,21
206,134	75
206,688	65,97
207,242	68,6
207,796	62,12
208,35	76,74
208,904	66,67
209,457	68,82
210,011	80,98
210,564	69,89
211,117	90,2
211,67	72,47
212,223	71,13
212,776	60,43
213,329	67,38
213,881	67,36
214,434	68
214,986	81,93
215,538	65,76
216,09	69,79
216,642	80,72
217,194	75,29
217,746	76,57
218,297	63,33
218,849	74,42
219,4	68,89
219,951	81,14
220,502	60,36
221,053	79,17
221,604	72,19
222,155	68,98
222,705	70,18
223,256	72,47
223,806	65,14
224,356	62,89
224,906	75,15
225,456	60,96
226,006	64,48
226,556	69,19
227,106	68,9
227,655	62,83
228,204	66,1
228,754	80,46
229,303	69,41
229,852	79,44
230,401	70,37
230,949	60,45
231,498	69,15
232,047	68,33
232,595	71,84
233,143	63,16
233,691	69,23
234,239	69,95
234,787	68,02
235,335	81,98
235,883	58,42
236,43	74,84
236,978	69,68
237,525	56,28
238,072	59,44
238,619	65,24
239,166	59,8
239,713	72,63
240,26	75,44
240,806	63,8
241,353	68,6
241,899	70,33
242,445	60,36
242,991	66,49
243,537	66,67
244,083	62,64
244,629	59
245,174	61,49
245,72	64,25
246,265	53,4
246,81	57,39
247,355	62,64
247,9	70,59
248,445	77,07
248,99	72,78
249,534	70,79
250,079	67,47
250,623	63,04
251,168	71,84
251,712	68,82
252,256	70,19
252,8	66,67
253,343	70,33
253,887	64,48
254,43	73,86
254,974	56,98
255,517	71,75
256,06	68,18
256,603	68,54
257,146	67,96
257,689	59,26
258,232	60,32
258,774	81,55
259,317	60,99
259,859	56,02
260,401	60,11
260,943	68,15
261,485	60,54
262,027	58,73
262,569	62,91
263,11	54,8
263,652	73,63
264,193	70,45
264,734	64,33
265,275	61,46
265,816	60,54
266,357	73,54
266,898	62,63
267,438	68,99
267,979	65,91
268,519	63,1
269,059	67,47
269,6	57,92
270,14	48,98
270,68	68,49
271,219	67,24
271,759	78,21
272,298	74,59
272,838	59,06
273,377	65,92
273,916	75,84
274,455	65,64
274,994	58,33
275,533	62,28
276,072	70,66
276,61	65,68
277,149	72,94
277,687	59,64
278,225	73,53
278,763	69,94
279,301	63,3
279,839	71,28
280,377	62,11
280,914	56,19
281,452	80,45
281,989	67,06
282,526	87,97
283,064	65,62
283,601	69,1
284,137	66,87
284,674	63,48
285,211	66,67
285,747	69,85
286,284	67,65
286,82	56,25
287,356	58,76
287,892	70,17
288,428	56,32
288,964	70,43
289,5	66,47
290,035	70,45
290,571	65,61
291,106	62,92
291,641	66,86
292,176	63,98
292,711	55,23
293,246	57,61
293,781	54,7
294,315	54,08
294,85	54,19
295,384	73,99
295,918	56,91
296,453	64,32
296,987	59,56
297,52	56,52
298,054	77,01
298,588	74,39
299,121	63,69
299,655	64,12
300,188	72
300,721	70,81
301,254	63,49
301,787	73,12
302,32	58,03
302,853	73,18
303,385	72,28
303,918	70,29
304,45	65,82
304,982	71,75
305,514	62,23
306,046	76,09
306,578	69,52
307,11	61,33
307,641	76,92
308,173	70,79
308,704	73,86
309,236	59,9
309,767	72,11
310,298	72,96
310,829	58,5
311,359	62,8
311,89	67,84
312,421	67,03
312,951	62,86
313,481	70
314,012	65,62
314,542	61,17
315,072	68,51
315,601	76,62
316,131	63,3
316,661	74,43
317,19	67,63
317,72	75,3
318,249	75
318,778	66,67
319,307	84,38
319,836	75,14
320,365	62,43
320,893	61,66
321,422	69,05
321,95	74,48
322,479	78,79
323,007	78,09
323,535	73,99
324,063	68,36
324,591	68,25
325,118	65,05
325,646	62,23
326,173	60,11
326,701	58,46
327,228	70,16
327,755	66,5
328,282	78,77
328,809	79,41
329,336	62,69
329,862	68
330,389	55,67
330,915	70,47
331,441	71,93
331,968	82,02
332,494	59,18
333,02	68,72
333,545	55,03
334,071	65,13
334,597	70,22
335,122	69,68
335,648	64,42
336,173	63,78
336,698	67,02
337,223	63,64
337,748	51,74
338,272	53,19
338,797	65,03
339,322	69,19
339,846	60,75
340,37	56,28
340,894	48,26
341,419	67,24
341,942	64,02
342,466	55,44
342,99	62,83
343,514	60,78
344,037	60,11
344,56	55,98
345,084	60,7
345,607	54,37
346,13	59,15
346,653	57,94
347,175	51,2
347,698	61,31
348,221	62,91
348,743	50
349,265	60,59
349,787	45,37
350,309	51,01
350,831	56,07
351,353	47,39
351,875	57,09
352,397	56,47
352,918	48,75
353,439	51,48
353,961	55,91
354,482	55,32
355,003	46,5
355,524	52,26
356,044	52,28
356,565	50
357,086	53,93
357,606	36,6
358,126	52,49
358,646	54,65
359,167	46,96
359,687	51,67
360,206	52,59
360,726	46,3
361,246	43,77
361,765	43,48
362,285	45,35
362,804	50,72
363,323	46,45
363,842	50,35
364,361	43,8
364,88	45,95
365,398	51,93
365,917	44,44
366,435	49,33
366,954	43,32
367,472	45,89
367,99	48,05
368,508	44,33
369,026	48,4
369,544	48,74
370,061	45,1
370,579	49,07
371,096	41,05
371,613	42,74
372,131	41,16
372,648	43,59
373,165	41,92
373,681	40,66
374,198	42,98
374,715	44,16
375,231	45,32
375,747	42,59
376,264	38,64
376,78	40,1
377,296	37,5
377,812	41,27
378,327	43,61
378,843	42,97
379,359	37,97
379,874	41,44
380,389	41,76
380,905	36,34
381,42	37,78
381,935	43,92
382,449	34,92
382,964	35,55
383,479	37,45
383,993	39,34
384,508	36,28
385,022	38,1
385,536	36,28
386,05	36,53
386,564	39,43
387,078	32,97
387,592	31,85
388,105	31,74
388,619	31,36
389,132	32,19
389,645	32
390,158	33,63
390,671	32,16
391,184	30,58
391,697	32,02
392,21	27,75
392,722	31,47
393,235	28,01
393,747	32,16
394,259	30,85
394,771	31,51
395,283	29,42
395,795	26,8
396,307	30,03
396,818	26,22
397,33	29,09
397,841	29,08
398,353	27,76
398,864	28,16
399,375	22,72
399,886	24,92
400,397	26,99
400,907	26,6
401,418	22,05
401,928	23,36
402,439	22,65
402,949	21,42
403,459	21,41
403,969	20,99
404,479	20,54
404,989	19,53
405,498	19
406,008	18,81
406,517	18,87
407,027	18,33
407,536	17,39
408,045	17,31
408,554	16,5
409,063	16,81
409,572	15
410,08	14,3
410,589	15,74
411,097	14,6
411,606	13,62
412,114	12,56
412,622	12,38
413,13	12,71
413,638	11,17
414,145	10,59
414,653	10,57
415,16	10,54
415,668	9,32
416,175	10,48
416,682	10,76
417,189	10,47
417,696	9,5
418,203	9,56
418,71	9,37
419,216	9,43
419,723	9,46
420,229	8,75
420,735	8,93
421,242	8,49
421,748	8,09
422,254	8,23
422,759	8,25
423,265	8,31
423,771	8,01
424,276	7,58
424,781	8,42
425,287	7,46
425,792	7,59
426,297	7,63
426,802	8,22
427,306	7,52
427,811	7,57
428,316	7,59
428,82	7,2
429,324	6,8
429,829	7,27
430,333	7,68
430,837	7,1
431,34	7,25
431,844	6,41
432,348	6,71
432,851	6,7
433,355	6,94
433,858	6,51
434,361	6,4
434,864	6,76
435,367	6,32
435,87	6,71
436,373	6,36
436,876	7,41
437,378	6,6
437,88	6,44
438,383	6,58
438,885	6,47
439,387	6,78
439,889	6,13
440,391	6,36
440,892	6,15
441,394	6,89
441,896	6,73
442,397	6,44
442,898	6,41
443,399	6,03
443,9	5,95
444,401	6,57
444,902	6,72
445,403	6,59
445,903	6,59
446,404	6,56
446,904	6,18
447,405	6,19
447,905	6,85
448,405	6,59
448,905	6,49
449,404	6,53
449,904	6,59
450,404	6,61
450,903	6,66
451,403	7,19
451,902	6,93
452,401	6,96
452,9	6,92
453,399	6,92
453,898	6,47
454,396	6,85
454,895	6,84
455,393	6,72
455,892	7,14
456,39	6,76
456,888	6,89
457,386	7,29
457,884	7,06
458,382	6,72
458,879	7,21
459,377	7,1
459,874	7,12
460,372	6,84
460,869	7,16
461,366	7,44
461,863	7,24
462,36	7,3
462,857	7,15
463,353	6,62
463,85	6,82
464,346	7,1
464,843	6,79
465,339	7,05
465,835	7,1
466,331	7,22
466,827	7,01
467,323	7,12
467,818	7,06
468,314	7,1
468,809	6,68
469,305	7
469,8	6,81
470,295	7
470,79	7,11
471,285	7,12
471,78	6,96
472,274	7,3
472,769	6,61
473,263	6,98
473,758	6,74
474,252	6,85
474,746	6,85
475,24	6,75
475,734	6,94
476,228	6,99
476,721	7,01
477,215	7,07
477,708	7,25
478,202	7,27
478,695	7,12
479,188	7
479,681	6,82
480,174	6,96
480,667	6,88
481,159	7,39
481,652	6,66
482,144	7,07
482,637	7,08
483,129	7,05
483,621	7,38
484,113	7,2
484,605	7,2
485,097	7,63
485,588	7,27
486,08	7,36
486,571	7,39
487,063	7,31
487,554	7,1
488,045	7,47
488,536	7,47
489,027	7,5
489,518	7,51
490,008	7,92
490,499	7,64
490,989	7,75
491,48	7,75
491,97	7,95
492,46	8,06
492,95	7,95
493,44	8,36
493,93	7,89
494,419	8,39
494,909	8,41
495,398	8,56
495,888	8,65
496,377	8,69
496,866	8,97
497,355	9,34
497,844	9,15
498,333	9,23
498,821	9,3
499,31	9,6
499,798	9,76
500,287	9,97
500,775	9,79
501,263	10,37
501,751	10,58
502,239	10,53
502,727	10,59
503,215	11,05
503,702	10,84
504,19	11,04
504,677	11,53
505,164	11,51
505,651	11,95
506,139	12,06
506,625	12,33
507,112	12,58
507,599	12,79
508,086	13,41
508,572	13,42
509,058	13,39
509,545	13,66
510,031	14,12
510,517	14,42
511,003	14,66
511,489	15,04
511,974	15,37
512,46	15,64
512,946	15,85
513,431	16,27
513,916	16,4
514,401	16,68
514,887	17,52
515,371	17,52
515,856	17,7
516,341	18,09
516,826	18,22
517,31	18,8
517,795	19,07
518,279	19,71
518,763	19,77
519,247	20,31
519,731	20,61
520,215	21,26
520,699	21,26
521,182	22,11
521,666	22,65
522,149	22,53
522,633	23,43
523,116	23,1
523,599	23,41
524,082	23,79
524,565	24,32
525,048	24,51
525,53	24,89
526,013	25,2
526,495	25,16
526,978	25,28
527,46	25,98
527,942	26,14
528,424	26,45
528,906	26,12
529,388	26,78
529,87	27,1
530,351	27,45
530,833	27,41
531,314	27,53
531,795	27,99
532,277	28,13
532,758	28,23
533,238	27,73
533,719	28,26
534,2	28,61
534,681	28,97
535,161	28,32
535,642	29,17
536,122	29,09
536,602	28,74
537,082	28,93
537,562	29,05
538,042	29,48
538,522	29,45
539,001	29,11
539,481	29,11
539,96	29,79
540,44	30,04
540,919	29,48
541,398	29,95
541,877	29,94
542,356	29,33
542,835	29,71
543,313	29,61
543,792	30,03
544,27	29,84
544,749	29,52
545,227	29,94
545,705	30,22
546,183	29,86
546,661	29,91
547,139	30,17
547,616	30,17
548,094	30,71
548,571	30,38
549,049	30,43
549,526	30,18
550,003	30,55
550,48	30,39
550,957	30,28
551,434	30,36
551,911	30,52
552,387	30,71
552,864	30,39
553,34	30,99
553,817	30,9
554,293	30,39
554,769	30,58
555,245	30,32
555,721	30,65
556,197	30,83
556,672	30,43
557,148	30,21
557,623	30,23
558,099	30,32
558,574	30,33
559,049	30,02
559,524	30,3
559,999	30,11
560,474	30,37
560,948	29,69
561,423	29,72
561,897	29,49
562,372	29,89
562,846	29,66
563,32	29,94
563,794	29,97
564,268	29,38
564,742	29,72
565,216	29,56
565,69	29,29
566,163	29,01
566,636	29,06
567,11	28,69
567,583	28,65
568,056	28,35
568,529	28,23
569,002	28,58
569,475	28,18
569,947	28,11
570,42	27,89
570,892	27,46
571,365	27,47
571,837	27,14
572,309	26,65
572,781	27,31
573,253	26,5
573,725	26,12
574,197	26,65
574,668	26,2
575,14	25,9
575,611	25,97
576,082	25,56
576,554	25,57
577,025	25,46
577,496	25,14
577,967	25,3
578,437	25,25
578,908	25,08
579,379	24,96
579,849	24,52
580,319	24,22
580,79	24,55
581,26	24,25
581,73	24,07
582,2	23,65
582,669	24,12
583,139	23,78
583,609	23,25
584,078	23,52
584,548	23,79
585,017	23,05
585,486	23
585,955	23,13
586,424	22,99
586,893	22,59
587,362	22,57
587,83	22,65
588,299	22,25
588,767	22,53
589,236	22,35
589,704	22,22
590,172	22,35
590,64	21,97
591,108	22,19
591,576	21,93
592,043	21,8
592,511	21,52
592,978	21,9
593,446	21,59
593,913	21,49
594,38	21,49
594,847	21,28
595,314	21,49
595,781	21,35
596,248	21,26
596,715	21,02
597,181	21,29
597,647	21,29
598,114	21,08
598,58	20,46
599,046	20,77
599,512	20,79
599,978	20,66
600,444	20,77
600,91	20,83
601,375	20,85
601,841	20,53
602,306	20,83
602,771	20,4
603,236	20,61
603,702	20,43
604,167	20,55
604,631	20,39
605,096	20,43
605,561	20,45
606,025	20,09
606,49	20,25
606,954	19,77
607,418	20,03
607,882	19,89
608,347	19,81
608,81	19,96
609,274	19,93
609,738	19,41
610,202	19,64
610,665	19,48
611,128	19,01
611,592	18,99
612,055	18,97
612,518	19,03
612,981	19,08
613,444	18,74
613,907	18,64
614,369	18,58
614,832	18,27
615,294	18,24
615,757	18,43
616,219	18,23
616,681	18,18
617,143	17,89
617,605	18,03
618,067	17,73
618,529	17,84
618,99	17,45
619,452	17,6
619,913	17,56
620,375	17,33
620,836	17,21
621,297	17,42
621,758	17,33
622,219	17,31
622,68	17,3
623,14	17,04
623,601	17,13
624,061	17,02
624,522	16,93
624,982	16,89
625,442	16,8
625,902	16,92
626,362	16,73
626,822	16,7
627,282	16,75
627,742	16,87
628,201	16,6
628,661	16,66
629,12	16,75
629,579	16,6
630,038	16,68
630,497	16,41
630,956	16,54
631,415	16,18
631,874	16,36
632,332	16,41
632,791	15,98
633,249	16,32
633,708	16,22
634,166	16,17
634,624	16,18
635,082	15,92
635,54	15,78
635,998	15,73
636,455	15,58
636,913	15,38
637,37	15,46
637,828	15,13
638,285	15,16
638,742	14,98
639,199	14,69
639,656	14,63
640,113	14,43
640,57	14,01
641,027	14,1
641,483	13,87
641,94	13,85
642,396	13,64
642,852	13,44
643,309	13,1
643,765	13,17
644,221	12,78
644,676	12,61
645,132	12,71
645,588	12,35
646,043	12,33
646,499	11,96
646,954	11,97
647,409	11,67
647,864	11,73
648,319	11,55
648,774	11,26
649,229	11,22
649,684	11,09
650,139	11,26
650,593	11,14
651,047	11,04
651,502	10,88
651,956	11,01
652,41	10,75
652,864	10,63
653,318	10,76
653,772	10,59
654,225	10,43
654,679	10,75
655,133	10,62
655,586	10,48
656,039	10,4
656,492	10,39
656,946	10,23
657,399	10,13
657,851	10,1
658,304	9,88
658,757	9,96
659,209	9,77
659,662	9,69
660,114	9,69
660,567	9,36
661,019	9,41
661,471	9,25
661,923	9,1
662,375	9,14
662,826	8,89
663,278	8,82
663,73	8,77
664,181	8,72
664,632	8,82
665,084	8,53
665,535	8,43
665,986	8,38
666,437	8,32
666,888	8,17
667,338	8,2
667,789	8,02
668,24	8,08
668,69	8,09
669,14	7,88
669,591	7,93
670,041	7,91
670,491	8,09
670,941	7,89
671,391	8,06
671,84	8,02
672,29	8,05
672,74	8,04
673,189	8,02
673,638	8,19
674,088	8,08
674,537	8,35
674,986	8,36
675,435	8,5
675,883	8,37
676,332	8,55
676,781	8,77
677,229	8,86
677,678	8,92
678,126	8,97
678,574	9
679,022	9,2
679,47	9,31
679,918	9,49
680,366	9,65
680,814	9,75
681,261	9,95
681,709	10,21
682,156	10,09
682,604	10,46
683,051	10,53
683,498	10,74
683,945	10,9
684,392	11,11
684,839	11,27
685,286	11,49
685,732	11,74
686,179	12,08
686,625	12,15
687,071	12,69
687,518	13
687,964	13,31
688,41	13,67
688,856	13,93
689,301	14,52
689,747	14,87
690,193	15,28
690,638	15,77
691,084	16,31
691,529	16,82
691,974	17,32
692,419	17,92
692,864	18,37
693,309	19,04
693,754	19,59
694,199	20,15
694,643	20,69
695,088	21,22
695,532	21,75
695,977	22,29
696,421	23,04
696,865	23,79
697,309	24,02
697,753	24,86
698,197	25,32
698,64	25,82
699,084	26,41
699,527	26,75
699,971	27,31
700,414	27,87
700,857	28,39
701,3	29,09
701,743	29,22
702,186	29,87
702,629	30,18
703,072	30,64
703,515	31,24
703,957	31,55
704,399	31,93
704,842	32,07
705,284	32,82
705,726	32,85
706,168	33,24
706,61	33,81
707,052	34,15
707,494	34,54
707,935	35,11
708,377	35,02
708,818	35,27
709,26	35,83
709,701	35,98
710,142	36,56
710,583	36,61
711,024	36,91
711,465	36,86
711,905	37,21
712,346	37,64
712,787	38,1
713,227	38,33
713,667	38,6
714,108	38,99
714,548	38,92
714,988	39,68
715,428	39,6
715,868	39,55
716,307	39,47
716,747	40,08
717,186	40,45
717,626	40,63
718,065	40,57
718,504	40,89
718,944	41,26
719,383	41,34
719,822	41,25
720,261	41,19
720,699	41,74
721,138	41,67
721,576	42
722,015	42,25
722,453	42,79
722,892	42,75
723,33	42,78
723,768	42,71
724,206	42,77
724,644	43,38
725,081	43,17
725,519	43,44
725,957	43,7
726,394	43,48
726,832	43,7
727,269	43,79
727,706	44,05
728,143	44,18
728,58	43,73
729,017	44,31
729,454	44,12
729,89	44,2
730,327	44,44
730,764	44,36
731,2	44,51
731,636	44,21
732,072	44,38
732,509	44,89
732,945	44,57
733,38	44,28
733,816	44,54
734,252	44,97
734,688	44,72
735,123	45,09
735,559	45,04
735,994	44,94
736,429	44,87
736,864	45,01
737,299	44,71
737,734	44,92
738,169	44,92
738,604	45,33
739,038	45,09
739,473	45,18
739,907	45,11
740,342	44,94
740,776	44,9
741,21	45,04
741,644	45,07
742,078	44,93
742,512	44,98
742,946	44,93
743,379	45,02
743,813	45,1
744,246	44,79
744,68	45,36
745,113	44,84
745,546	45,28
745,979	44,86
746,412	45,14
746,845	44,97
747,278	45,08
747,711	44,8
748,143	44,81
748,576	44,84
749,008	44,66
749,441	44,93
749,873	44,34
750,305	44,71
750,737	44,69
751,169	44,25
751,601	44,38
752,032	44,61
752,464	44,52
752,896	43,99
753,327	44,66
753,758	44,22
754,19	44,23
754,621	44,31
755,052	43,91
755,483	44,15
755,914	43,77
756,344	44,41
756,775	43,89
757,206	43,75
757,636	43,97
758,066	43,62
758,497	44,32
758,927	43,98
759,357	43,74
759,787	43,52
760,217	43,55
760,647	43,56
761,076	43,7
761,506	43,7
761,935	44,05
762,365	43,76
762,794	43,62
763,223	43,89
763,653	43,36
764,082	43,54
764,51	43,23
764,939	43,32
765,368	43,5
765,797	43,18
766,225	43,39
766,654	43,29
767,082	43,27
767,51	43,13
767,938	42,92
768,367	43,07
768,795	43,3
769,222	43,31
769,65	42,82
770,078	43,04
770,505	42,79
770,933	42,8
771,36	43,04
771,788	42,86
772,215	42,77
772,642	43,01
773,069	42,4
773,496	42,83
773,923	42,62
774,349	42,53
774,776	42,92
775,203	42,92
775,629	42,83
776,055	42,65
776,482	42,27
776,908	42,59
777,334	42,69
777,76	42,49
778,186	42,83
778,611	42,54
779,037	42,41
779,463	42,24
779,888	42,08
780,314	42,44
780,739	42,47
781,164	42,68
781,589	42,37
782,014	42,21
782,439	42,15
782,864	42,39
783,289	42,29
783,713	42,24
784,138	42,74
784,562	42,75
784,987	42,67
785,411	42,7
785,835	42,05
786,259	42
786,683	42,49
787,107	42,51
787,531	42,61
787,954	42,52
788,378	42,1
788,802	42,56
789,225	42,11
789,648	42,04
790,071	42,38
790,495	42,39
790,918	42,13
791,34	42,44
791,763	42,31
792,186	42,05
792,609	41,79
793,031	42,5
793,454	42,48
793,876	42
794,298	42,3
794,721	41,88
795,143	42,23
795,565	41,92
795,986	41,92
796,408	41,57
796,83	42,09
797,252	42,15
797,673	41,95
798,094	41,76
798,516	42,13
798,937	42,16
799,358	42,08
799,779	41,74
800,2	42,01
800,621	41,97
801,042	41,97
801,462	41,82
801,883	41,89
802,303	42,14
802,724	41,59
803,144	41,97
803,564	41,71
803,984	42,12
804,404	41,95
804,824	42,05
805,244	41,96
805,664	41,65
806,084	41,76
806,503	41,91
806,923	41,8
807,342	41,87
807,761	42,02
808,18	42,22
808,599	42,01
809,018	42,04
809,437	41,76
809,856	41,79
810,275	41,96
810,693	41,97
811,112	41,8
811,53	41,53
811,949	41,91
812,367	42,17
812,785	41,6
813,203	41,75
813,621	41,75
814,039	41,63
814,457	41,69
814,874	42,05
815,292	42,01
815,709	41,98
816,127	41,89
816,544	41,88
816,961	41,56
817,378	41,66
817,795	41,93
818,212	41,48
818,629	41,6
819,046	42,06
819,462	41,24
819,879	41,89
820,295	41,83
820,712	41,82
821,128	41,78
821,544	41,5
821,96	41,48
822,376	41,97
822,792	41,59
823,208	41,65
823,624	41,63
824,039	41,49
824,455	41,62
824,87	41,56
825,286	41,3
825,701	41,59
826,116	41,11
826,531	41,68
826,946	41,55
827,361	41,89
827,776	41,75
828,19	41,58
828,605	41,39
829,02	41,89
829,434	41,51
829,848	41,43
830,263	41,48
830,677	41,76
831,091	41,88
831,505	41,84
831,919	41,61
832,332	41,41
832,746	41,26
833,16	41,24
833,573	41,15
833,987	41,66
834,4	41,81
834,813	41,32
835,226	41,21
835,639	41,34
836,052	41,55
836,465	41,44
836,878	41,85
837,29	41,76
837,703	41,22
838,116	41,22
838,528	41,72
838,94	41,35
839,352	41,4
839,765	41,44
840,177	41,22
