Data from E6__Relative__1__00065.txt Node

Date: Thu Feb 01 16:21:51 CET 2024
User: diatiterra
Spectrometer: HDX00911
Trigger mode: 0
Integration Time (sec): 6,000000E-3
Scans to average: 2
Nonlinearity correction enabled: false
Boxcar width: 0
Storing dark spectrum: false
XAxis mode: Wavelengths
Number of Pixels in Spectrum: 2068
>>>>>Begin Spectral Data<<<<<
194,468	244,62
195,025	156,94
195,581	181,82
196,138	164,71
196,694	172,53
197,251	138,89
197,807	109,3
198,363	118,34
198,919	98,37
199,474	123,57
200,03	116,48
200,586	124,68
201,141	105,67
201,696	109,83
202,251	93,92
202,806	109,2
203,361	103,83
203,916	108,65
204,471	97,28
205,025	117,84
205,58	104,62
206,134	100
206,688	93,19
207,242	115,7
207,796	85,86
208,35	116,28
208,904	104,52
209,457	106,47
210,011	114,72
210,564	100
211,117	121,57
211,67	111,8
212,223	108,25
212,776	98,93
213,329	98,93
213,881	97,93
214,434	103
214,986	109,64
215,538	97,83
216,09	100,52
216,642	107,23
217,194	107,65
217,746	106,86
218,297	105,56
218,849	108,14
219,4	96,11
219,951	119,43
220,502	102,96
221,053	103,57
221,604	108,88
222,155	111,23
222,705	95,32
223,256	98,88
223,806	90,29
224,356	84,54
224,906	111,52
225,456	101,6
226,006	106,01
226,556	96,76
227,106	114,02
227,655	96,34
228,204	98,31
228,754	102,87
229,303	107,65
229,852	107,78
230,401	110,49
230,949	105,08
231,498	89,36
232,047	98,33
232,595	111,49
233,143	104,21
233,691	94,51
234,239	93,99
234,787	103,49
235,335	105,23
235,883	97,37
236,43	116,13
236,978	98,4
237,525	90,95
238,072	97,78
238,619	115,85
239,166	87,75
239,713	94,41
240,26	105,85
240,806	118,4
241,353	91,28
241,899	97,25
242,445	96,45
242,991	92,97
243,537	106,54
244,083	102,2
244,629	94,5
245,174	97,7
245,72	107,26
246,265	85,34
246,81	97,73
247,355	97,25
247,9	99,41
248,445	106,37
248,99	91,11
249,534	106,74
250,079	110,24
250,623	103,26
251,168	100
251,712	111,76
252,256	98,76
252,8	98,87
253,343	108,24
253,887	96,72
254,43	107,39
254,974	96,65
255,517	99,44
256,06	90,91
256,603	100
257,146	92,27
257,689	95,24
258,232	91,53
258,774	110,71
259,317	83,52
259,859	93,19
260,401	86,52
260,943	107,64
261,485	100
262,027	96,3
262,569	116,56
263,11	94,35
263,652	104,4
264,193	100,57
264,734	98,83
265,275	85,94
265,816	86,49
266,357	90,48
266,898	84,85
267,438	98,73
267,979	89,2
268,519	86,9
269,059	101,2
269,6	89,62
270,14	81,12
270,68	102,74
271,219	95,4
271,759	127,56
272,298	97,3
272,838	92,98
273,377	100
273,916	104,7
274,455	103,08
274,994	91,11
275,533	97,6
276,072	104,79
276,61	86,39
277,149	97,65
277,687	95,18
278,225	110
278,763	100
279,301	96,28
279,839	90,96
280,377	101,86
280,914	95,88
281,452	95,53
281,989	97,65
282,526	101,9
283,064	103,12
283,601	102,81
284,137	113,5
284,674	99,44
285,211	94,09
285,747	101,01
286,284	92,35
286,82	90,62
287,356	88,66
287,892	99,45
288,428	94,83
288,964	102,15
289,5	94,8
290,035	99,43
290,571	93,65
291,106	96,07
291,641	97,09
292,176	96,24
292,711	100
293,246	92,39
293,781	101,1
294,315	92,86
294,85	98,06
295,384	112,14
295,918	88,83
296,453	95,68
296,987	99,45
297,52	90,22
298,054	104,02
298,588	112,8
299,121	92,18
299,655	94,12
300,188	114,67
300,721	117,39
301,254	89,95
301,787	87,63
302,32	91,19
302,853	106,15
303,385	98,37
303,918	98,86
304,45	88,78
304,982	103,95
305,514	95,21
306,046	98,37
306,578	90,37
307,11	106,63
307,641	101,1
308,173	99,44
308,704	101,7
309,236	90,86
309,767	100
310,298	99,37
310,829	95,5
311,359	92,27
311,89	102,92
312,421	90,81
312,951	94,29
313,481	106,47
314,012	93,23
314,542	94,15
315,072	96,13
315,601	109,74
316,131	95,21
316,661	104,55
317,19	92,49
317,72	99,4
318,249	96,67
318,778	110,2
319,307	90,1
319,836	105,08
320,365	87,3
320,893	103,63
321,422	95,24
321,95	97,92
322,479	116,36
323,007	105,06
323,535	107,51
324,063	103,39
324,591	86,77
325,118	104,3
325,646	95,21
326,173	81,42
326,701	98,46
327,228	97,91
327,755	94,92
328,282	98,88
328,809	100,59
329,336	92,54
329,862	102,29
330,389	90,72
330,915	94,82
331,441	100
331,968	110,67
332,494	94,9
333,02	83,8
333,545	91,01
334,071	91,79
334,597	92,13
335,122	87,77
335,648	90,38
336,173	99,46
336,698	90,96
337,223	98,4
337,748	85,07
338,272	87,23
338,797	97,27
339,322	82,7
339,846	101,08
340,37	77,05
340,894	77,61
341,419	91,38
341,942	85,19
342,466	90,16
342,99	95,29
343,514	78,43
344,037	86,17
344,56	89
345,084	78,61
345,607	82,04
346,13	79,81
346,653	92,06
347,175	81,82
347,698	82,91
348,221	83,57
348,743	78,57
349,265	77,83
349,787	70,73
350,309	72,06
350,831	74,9
351,353	76,78
351,875	79,76
352,397	69,83
352,918	81,25
353,439	80,17
353,961	76,38
354,482	78,3
355,003	72,02
355,524	74,07
356,044	76,76
356,565	66,26
357,086	68,91
357,606	65,96
358,126	65,9
358,646	61,34
359,167	72,17
359,687	70,26
360,206	66,67
360,726	72,37
361,246	62,64
361,765	64,86
362,285	64,68
362,804	69,42
363,323	60,99
363,842	70,42
364,361	65,69
364,88	58,58
365,398	66,32
365,917	58,02
366,435	63,67
366,954	68,08
367,472	60,44
367,99	57,79
368,508	63,33
369,026	58,97
369,544	58,18
370,061	55,19
370,579	62,96
371,096	49,59
371,613	52,14
372,131	54,78
372,648	56,7
373,165	58,36
373,681	53,92
374,198	54,73
374,715	52,14
375,231	48,86
375,747	54,23
376,264	49,87
376,78	47,97
377,296	45,43
377,812	55,19
378,327	51,63
378,843	53,45
379,359	49,29
379,874	54,84
380,389	48,08
380,905	45,38
381,42	49,78
381,935	46,7
382,449	43,18
382,964	42
383,479	43
383,993	43,69
384,508	43,8
385,022	41,97
385,536	43,54
386,05	45,76
386,564	41,39
387,078	39,61
387,592	36,82
388,105	36,36
388,619	40,64
389,132	39,53
389,645	36
390,158	39,33
390,671	36,74
391,184	34,78
391,697	34,83
392,21	36,68
392,722	34,93
393,235	35,27
393,747	33,99
394,259	35,77
394,771	33,7
395,283	35,62
395,795	32,47
396,307	31,91
396,818	32,01
397,33	32,82
397,841	31,87
398,353	29,09
398,864	30,58
399,375	28,4
399,886	27,31
400,397	28,24
400,907	26,31
401,418	23,48
401,928	27,26
402,439	24,22
402,949	24,72
403,459	24,56
403,969	21,61
404,479	23,16
404,989	24,02
405,498	21,41
406,008	20,61
406,517	19,86
407,027	18,92
407,536	19,76
408,045	19,72
408,554	18,69
409,063	18,2
409,572	16,68
410,08	17,53
410,589	15,28
411,097	15,15
411,606	14,94
412,114	13,22
412,622	13,51
413,13	13,38
413,638	12,24
414,145	11,92
414,653	11,55
415,16	12,61
415,668	12,41
416,175	11,55
416,682	11,03
417,189	11,3
417,696	10,66
418,203	10,49
418,71	10,72
419,216	10,66
419,723	9,46
420,229	9,5
420,735	9,95
421,242	9,49
421,748	8,67
422,254	9,38
422,759	9,1
423,265	9,3
423,771	8,79
424,276	8,7
424,781	8,74
425,287	8,62
425,792	8,15
426,297	8,62
426,802	8,61
427,306	8,52
427,811	7,97
428,316	8,54
428,82	8,06
429,324	7,87
429,829	7,61
430,333	8,11
430,837	7,56
431,34	8,35
431,844	7,67
432,348	7,27
432,851	7,14
433,355	7,73
433,858	7,14
434,361	7,66
434,864	7,44
435,367	7,49
435,87	7,17
436,373	7,34
436,876	7,79
437,378	7,27
437,88	7,01
438,383	6,44
438,885	7,2
439,387	7,03
439,889	6,93
440,391	6,9
440,892	7,17
441,394	7,09
441,896	6,95
442,397	7,09
442,898	7,12
443,399	7,38
443,9	6,37
444,401	7,05
444,902	7,52
445,403	6,88
445,903	6,97
446,404	7,2
446,904	6,98
447,405	7,13
447,905	7,39
448,405	7,22
448,905	7,14
449,404	7,42
449,904	7,07
450,404	7,61
450,903	6,89
451,403	6,91
451,902	7,22
452,401	7,49
452,9	7,09
453,399	7,6
453,898	7,25
454,396	7,29
454,895	7,12
455,393	7,07
455,892	7,77
456,39	7,39
456,888	7,33
457,386	7,81
457,884	7,52
458,382	7,57
458,879	7,53
459,377	7,73
459,874	7,4
460,372	7,84
460,869	7,27
461,366	7,36
461,863	7,27
462,36	7,58
462,857	7,57
463,353	7,21
463,85	7,1
464,346	7,22
464,843	7,51
465,339	7,08
465,835	7,52
466,331	7,69
466,827	7,33
467,323	7,31
467,818	7,45
468,314	7,39
468,809	7,36
469,305	7,08
469,8	7,26
470,295	7,45
470,79	7,39
471,285	7,3
471,78	7,57
472,274	7,51
472,769	7,02
473,263	7,43
473,758	7,3
474,252	7,09
474,746	7,51
475,24	7,74
475,734	7,35
476,228	7,59
476,721	7,08
477,215	7,57
477,708	7,17
478,202	7,26
478,695	7,15
479,188	7,27
479,681	7,64
480,174	7,4
480,667	7,11
481,159	7,41
481,652	7,15
482,144	7,46
482,637	7,23
483,129	7,39
483,621	7,63
484,113	7,25
484,605	7,31
485,097	7,67
485,588	7,35
486,08	7,55
486,571	7,62
487,063	7,7
487,554	7,68
488,045	7,95
488,536	7,29
489,027	7,67
489,518	7,64
490,008	7,45
490,499	7,61
490,989	7,7
491,48	7,66
491,97	7,83
492,46	8,11
492,95	8,01
493,44	8,51
493,93	7,98
494,419	8,34
494,909	8,2
495,398	8,69
495,888	8,9
496,377	8,71
496,866	8,6
497,355	9,08
497,844	8,63
498,333	9,24
498,821	9,18
499,31	9,47
499,798	9,29
500,287	9,37
500,775	9,91
501,263	9,42
501,751	9,93
502,239	10,16
502,727	10,11
503,215	10,33
503,702	10,95
504,19	10,88
504,677	10,83
505,164	11,1
505,651	10,97
506,139	11,36
506,625	11,9
507,112	12,07
507,599	12,39
508,086	12,43
508,572	12,57
509,058	13,03
509,545	13,25
510,031	13,5
510,517	14,14
511,003	13,79
511,489	14,32
511,974	14,85
512,46	14,97
512,946	15,7
513,431	15,92
513,916	16,49
514,401	15,94
514,887	17,13
515,371	17,18
515,856	17,72
516,341	18,09
516,826	18,19
517,31	18,57
517,795	19,1
518,279	19,78
518,763	20,32
519,247	20,67
519,731	20,38
520,215	21,42
520,699	21,77
521,182	22,55
521,666	22,9
522,149	23,56
522,633	24,08
523,116	24,1
523,599	24,22
524,082	24,98
524,565	25,83
525,048	25,93
525,53	26,42
526,013	26,75
526,495	26,95
526,978	26,95
527,46	28,25
527,942	28,51
528,424	28,99
528,906	28,69
529,388	29,32
529,87	29,33
530,351	30,46
530,833	30,36
531,314	30,7
531,795	31,06
532,277	31,01
532,758	31,37
533,238	30,74
533,719	31,99
534,2	32,13
534,681	31,89
535,161	32,12
535,642	32,34
536,122	32,96
536,602	32,9
537,082	32,88
537,562	33,03
538,042	33,15
538,522	34,08
539,001	33,58
539,481	33,25
539,96	33,83
540,44	33,84
540,919	33,53
541,398	33,89
541,877	33,98
542,356	33,99
542,835	33,87
543,313	34,2
543,792	34,19
544,27	34,46
544,749	34,02
545,227	34,78
545,705	34,65
546,183	34,85
546,661	34,28
547,139	34,82
547,616	34,57
548,094	35,19
548,571	35,02
549,049	34,55
549,526	35,48
550,003	35,38
550,48	35,62
550,957	35,21
551,434	35,3
551,911	35,34
552,387	35,31
552,864	35,51
553,34	36,09
553,817	35,17
554,293	35,46
554,769	35,37
555,245	35,66
555,721	35,09
556,197	35,47
556,672	35,42
557,148	35,76
557,623	35,37
558,099	35,14
558,574	35,17
559,049	34,56
559,524	35,24
559,999	34,79
560,474	34,99
560,948	34,22
561,423	34,24
561,897	34,26
562,372	34,03
562,846	33,9
563,32	34,18
563,794	33,99
564,268	33,98
564,742	33,69
565,216	33,62
565,69	33,77
566,163	33,07
566,636	32,71
567,11	32,39
567,583	32,65
568,056	32,08
568,529	31,48
569,002	31,5
569,475	31,19
569,947	30,68
570,42	31
570,892	30,84
571,365	29,86
571,837	29,89
572,309	28,89
572,781	29,56
573,253	28,91
573,725	28,62
574,197	28,74
574,668	28,39
575,14	27,79
575,611	28,04
576,082	27,84
576,554	27,96
577,025	26,95
577,496	27,09
577,967	26,6
578,437	26,45
578,908	26,56
579,379	26,45
579,849	25,82
580,319	25,71
580,79	25,69
581,26	25,32
581,73	25,21
582,2	25,15
582,669	25,37
583,139	24,74
583,609	24,77
584,078	24,52
584,548	24,49
585,017	24,26
585,486	24,24
585,955	24,3
586,424	23,94
586,893	23,7
587,362	23,25
587,83	23,54
588,299	23,3
588,767	23,17
589,236	23,45
589,704	22,85
590,172	22,65
590,64	23,07
591,108	22,65
591,576	22,33
592,043	22,15
592,511	22,24
592,978	22,22
593,446	22,03
593,913	22,34
594,38	22,07
594,847	22,01
595,314	21,96
595,781	21,75
596,248	21,69
596,715	21,6
597,181	21,73
597,647	21,69
598,114	21,57
598,58	21,56
599,046	21,56
599,512	21,31
599,978	21,23
600,444	21,32
600,91	21,49
601,375	21,16
601,841	20,9
602,306	21,14
602,771	21,07
603,236	21,05
603,702	20,76
604,167	20,66
604,631	20,55
605,096	20,93
605,561	20,73
606,025	20,52
606,49	20,14
606,954	20,25
607,418	20,12
607,882	19,87
608,347	20,18
608,81	19,76
609,274	19,68
609,738	19,66
610,202	19,74
610,665	19,17
611,128	19,21
611,592	19,19
612,055	18,8
612,518	18,7
612,981	18,89
613,444	18,58
613,907	18,72
614,369	18,28
614,832	18,3
615,294	18,17
615,757	18,1
616,219	17,83
616,681	17,88
617,143	17,79
617,605	17,55
618,067	17,47
618,529	17,32
618,99	17,3
619,452	17,17
619,913	16,81
620,375	17,02
620,836	16,81
621,297	16,8
621,758	16,85
622,219	16,8
622,68	16,62
623,14	16,59
623,601	16,66
624,061	16,32
624,522	16,51
624,982	16,51
625,442	16,2
625,902	16,24
626,362	16,17
626,822	16,3
627,282	16,2
627,742	16,29
628,201	16,13
628,661	16,09
629,12	16,18
629,579	15,82
630,038	16,15
630,497	16,05
630,956	15,83
631,415	15,68
631,874	15,91
632,332	15,79
632,791	15,76
633,249	15,8
633,708	15,63
634,166	15,42
634,624	15,39
635,082	15,35
635,54	15,37
635,998	15,22
636,455	14,95
636,913	14,93
637,37	14,74
637,828	14,6
638,285	14,55
638,742	14,41
639,199	14,28
639,656	14,14
640,113	13,96
640,57	13,68
641,027	13,57
641,483	13,33
641,94	13,24
642,396	13,09
642,852	12,94
643,309	12,66
643,765	12,47
644,221	12,47
644,676	12,19
645,132	12,03
645,588	12,02
646,043	11,86
646,499	11,71
646,954	11,67
647,409	11,31
647,864	11,4
648,319	11,09
648,774	11
649,229	10,92
649,684	10,71
650,139	10,86
650,593	10,7
651,047	10,5
651,502	10,52
651,956	10,5
652,41	10,41
652,864	10,6
653,318	10,3
653,772	10,34
654,225	10,1
654,679	10,01
655,133	9,98
655,586	10,06
656,039	9,91
656,492	9,85
656,946	9,75
657,399	9,67
657,851	9,63
658,304	9,47
658,757	9,57
659,209	9,16
659,662	9,28
660,114	9,2
660,567	9,14
661,019	8,95
661,471	8,77
661,923	8,66
662,375	8,56
662,826	8,57
663,278	8,54
663,73	8,26
664,181	8,33
664,632	8,24
665,084	8,23
665,535	8
665,986	7,93
666,437	7,87
666,888	7,8
667,338	7,8
667,789	7,68
668,24	7,63
668,69	7,79
669,14	7,71
669,591	7,85
670,041	7,75
670,491	7,68
670,941	7,83
671,391	7,84
671,84	7,64
672,29	7,92
672,74	7,89
673,189	7,8
673,638	8,03
674,088	8,13
674,537	8,21
674,986	8,23
675,435	8,25
675,883	8,31
676,332	8,38
676,781	8,55
677,229	8,69
677,678	8,67
678,126	8,85
678,574	8,74
679,022	9,26
679,47	9,32
679,918	9,38
680,366	9,44
680,814	9,63
681,261	9,91
681,709	9,91
682,156	10,26
682,604	10,29
683,051	10,3
683,498	10,62
683,945	11,05
684,392	10,98
684,839	11,35
685,286	11,47
685,732	11,62
686,179	11,86
686,625	12,17
687,071	12,45
687,518	12,64
687,964	12,76
688,41	13,11
688,856	13,42
689,301	13,85
689,747	14,2
690,193	14,71
690,638	15,18
691,084	15,44
691,529	16,13
691,974	16,76
692,419	17,28
692,864	18,04
693,309	18,67
693,754	19,33
694,199	20,03
694,643	20,59
695,088	21,19
695,532	22,2
695,977	22,85
696,421	23,74
696,865	24,45
697,309	25,28
697,753	26,19
698,197	26,91
698,64	27,83
699,084	28,79
699,527	29,11
699,971	30,22
700,414	31,25
700,857	32,01
701,3	33,07
701,743	33,31
702,186	34,53
702,629	34,91
703,072	35,73
703,515	37,11
703,957	37,74
704,399	38,5
704,842	39,21
705,284	40
705,726	40,75
706,168	41,58
706,61	42,03
707,052	43,06
707,494	43,76
707,935	44,85
708,377	45,6
708,818	46,24
709,26	46,96
709,701	47,69
710,142	48,63
710,583	49,13
711,024	49,63
711,465	50,41
711,905	51,42
712,346	51,77
712,787	52,73
713,227	53,53
713,667	54,43
714,108	55,28
714,548	55,89
714,988	56,14
715,428	56,75
715,868	57,41
716,307	57,57
716,747	59,05
717,186	59,91
717,626	60,53
718,065	61,02
718,504	61,82
718,944	62,44
719,383	62,86
719,822	63,03
720,261	63,7
720,699	64,4
721,138	64,99
721,576	65,51
722,015	65,98
722,453	66,64
722,892	67,27
723,33	67,52
723,768	67,74
724,206	68,23
724,644	69,86
725,081	69,18
725,519	70,05
725,957	70,66
726,394	71,16
726,832	71,38
727,269	72,08
727,706	72,17
728,143	72,64
728,58	72,72
729,017	73,41
729,454	73,6
729,89	73,78
730,327	74,7
730,764	74,48
731,2	74,96
731,636	75,19
732,072	75,52
732,509	76,48
732,945	76,45
733,38	75,87
733,816	77,06
734,252	76,89
734,688	77,3
735,123	77,5
735,559	77,38
735,994	77,94
736,429	78,03
736,864	78,33
737,299	78,2
737,734	78,96
738,169	78,74
738,604	78,42
739,038	79,25
739,473	79,02
739,907	79,12
740,342	79,53
740,776	79,21
741,21	79,32
741,644	78,95
742,078	79,95
742,512	79,23
742,946	79,61
743,379	80,04
743,813	79,93
744,246	79,72
744,68	80,1
745,113	79,56
745,546	80,34
745,979	79,76
746,412	80,13
746,845	79,86
747,278	80,41
747,711	80,28
748,143	80,41
748,576	80,14
749,008	80,25
749,441	80,2
749,873	79,83
750,305	80,33
750,737	80,1
751,169	79,94
751,601	80,47
752,032	79,79
752,464	80,06
752,896	79,57
753,327	79,71
753,758	80,17
754,19	79,96
754,621	80,37
755,052	79,38
755,483	79,88
755,914	79,75
756,344	79,88
756,775	79,76
757,206	79,03
757,636	79,84
758,066	79,43
758,497	79,15
758,927	78,95
759,357	79,4
759,787	79,08
760,217	79,07
760,647	79,37
761,076	79,05
761,506	78,9
761,935	79,74
762,365	79,37
762,794	79,03
763,223	79,19
763,653	78,74
764,082	78,98
764,51	78,83
764,939	78,56
765,368	79,01
765,797	78,75
766,225	78,92
766,654	78,84
767,082	78,65
767,51	78,36
767,938	78,14
768,367	78,44
768,795	78,24
769,222	77,9
769,65	78,3
770,078	78,32
770,505	78,04
770,933	77,66
771,36	78,38
771,788	78,36
772,215	78,03
772,642	77,54
773,069	77,44
773,496	78,03
773,923	78,1
774,349	77,54
774,776	77,99
775,203	77,55
775,629	77,63
776,055	78,12
776,482	77,38
776,908	77,56
777,334	77,86
777,76	77,52
778,186	77,52
778,611	77,59
779,037	77,7
779,463	77,11
779,888	76,61
780,314	76,93
780,739	76,86
781,164	77,65
781,589	77,38
782,014	77,06
782,439	77,36
782,864	77,38
783,289	77,24
783,713	77,48
784,138	77,04
784,562	77,42
784,987	77,62
785,411	77,5
785,835	77,01
786,259	77,05
786,683	77,28
787,107	77,03
787,531	77,37
787,954	76,69
788,378	76,79
788,802	77,24
789,225	76,75
789,648	77,22
790,071	77,08
790,495	76,82
790,918	77,21
791,34	77,14
791,763	76,83
792,186	77,29
792,609	76,62
793,031	77,09
793,454	77,29
793,876	76,58
794,298	76,96
794,721	76,81
795,143	77,08
795,565	76,82
795,986	76,84
796,408	76,69
796,83	76,63
797,252	76,62
797,673	76,4
798,094	76,96
798,516	77,12
798,937	76,93
799,358	76,69
799,779	76,82
800,2	76,43
800,621	76,48
801,042	77,06
801,462	76,05
801,883	76,38
802,303	76,67
802,724	76,27
803,144	76,88
803,564	76,06
803,984	76,66
804,404	76,32
804,824	76,88
805,244	76,47
805,664	76,39
806,084	76,55
806,503	76,96
806,923	76,41
807,342	76,64
807,761	76,37
808,18	77,11
808,599	76,22
809,018	76,85
809,437	76,21
809,856	76,31
810,275	76,32
810,693	76,2
811,112	76,25
811,53	76,09
811,949	76,55
812,367	76,57
812,785	76,56
813,203	76,35
813,621	76,48
814,039	76,1
814,457	75,79
814,874	76,57
815,292	76,35
815,709	76,89
816,127	76,23
816,544	76,58
816,961	76,16
817,378	76,45
817,795	76,35
818,212	76,42
818,629	76,37
819,046	77,01
819,462	76,58
819,879	76,56
820,295	76,58
820,712	75,8
821,128	76,15
821,544	75,91
821,96	76,09
822,376	76,2
822,792	76,19
823,208	76,16
823,624	76,02
824,039	75,68
824,455	76,47
824,87	76,41
825,286	76,28
825,701	75,89
826,116	75,78
826,531	76,13
826,946	75,89
827,361	76,05
827,776	75,85
828,19	75,64
828,605	76,01
829,02	76,41
829,434	76,26
829,848	76,19
830,263	75,77
830,677	76,32
831,091	76,61
831,505	76,6
831,919	76,29
832,332	75,91
832,746	75,83
833,16	75,86
833,573	75,66
833,987	76,32
834,4	75,71
834,813	76,06
835,226	75,26
835,639	75,54
836,052	75,63
836,465	75,75
836,878	75,89
837,29	75,75
837,703	75,72
