Data from F5__Relative__0__00073.txt Node

Date: Thu Feb 01 16:23:08 CET 2024
User: diatiterra
Spectrometer: HDX00911
Trigger mode: 0
Integration Time (sec): 6,000000E-3
Scans to average: 2
Nonlinearity correction enabled: false
Boxcar width: 0
Storing dark spectrum: false
XAxis mode: Wavelengths
Number of Pixels in Spectrum: 2068
>>>>>Begin Spectral Data<<<<<
194,468	193,85
195,025	119,44
195,581	159,09
196,138	107,35
196,694	120,88
197,251	106,35
197,807	90,12
198,363	85,8
198,919	80,43
199,474	70,7
200,03	80,68
200,586	86,71
201,141	76,8
201,696	79,77
202,251	73,48
202,806	80,46
203,361	91,26
203,916	86,49
204,471	70,65
205,025	78,92
205,58	76,88
206,134	79,26
206,688	84,82
207,242	87,21
207,796	76,26
208,35	95,35
208,904	78,53
209,457	95,88
210,011	83,44
210,564	79,57
211,117	89,54
211,67	85,96
212,223	83,51
212,776	85,56
213,329	85,03
213,881	79,27
214,434	68
214,986	101,2
215,538	84,78
216,09	81,77
216,642	96,99
217,194	101,76
217,746	91,43
218,297	83,89
218,849	80,81
219,4	77,22
219,951	101,14
220,502	78,7
221,053	91,07
221,604	98,22
222,155	87,17
222,705	80,12
223,256	82,58
223,806	75,43
224,356	71,65
224,906	89,7
225,456	79,68
226,006	76,5
226,556	79,46
227,106	87,8
227,655	81,68
228,204	84,18
228,754	86,21
229,303	82,35
229,852	83,33
230,401	96,91
230,949	92,66
231,498	85,11
232,047	85
232,595	87,93
233,143	84,74
233,691	90,66
234,239	82,51
234,787	86,05
235,335	80,23
235,883	78,42
236,43	93,55
236,978	82,45
237,525	71,86
238,072	67,78
238,619	95,12
239,166	78,92
239,713	82,12
240,26	80,12
240,806	92,64
241,353	84,88
241,899	85,71
242,445	73,96
242,991	79,46
243,537	98,69
244,083	79,67
244,629	72,5
245,174	73,56
245,72	74,86
246,265	74,87
246,81	81,82
247,355	80,22
247,9	78,24
248,445	77,07
248,99	77,22
249,534	76,4
250,079	83,13
250,623	80,98
251,168	77,01
251,712	77,06
252,256	91,93
252,8	74,01
253,343	90,66
253,887	75,96
254,43	77,84
254,974	75,98
255,517	79,66
256,06	77,84
256,603	83,71
257,146	76,24
257,689	77,78
258,232	77,25
258,774	91,07
259,317	73,63
259,859	67,54
260,401	79,21
260,943	97,45
261,485	85,95
262,027	75,66
262,569	94,7
263,11	68,36
263,652	92,31
264,193	72,16
264,734	87,72
265,275	72,92
265,816	80,54
266,357	84,13
266,898	68,69
267,438	98,1
267,979	77,27
268,519	89,88
269,059	103,61
269,6	82,51
270,14	77,55
270,68	86,3
271,219	85,63
271,759	99,36
272,298	88,65
272,838	86,55
273,377	75,98
273,916	93,96
274,455	82,05
274,994	82,22
275,533	97,6
276,072	94,01
276,61	95,27
277,149	82,94
277,687	80,12
278,225	90
278,763	80,35
279,301	95,74
279,839	94,68
280,377	78,26
280,914	76,8
281,452	88,27
281,989	85,29
282,526	93,04
283,064	87,5
283,601	76,4
284,137	79,75
284,674	83,71
285,211	77,42
285,747	78,89
286,284	78,24
286,82	82,29
287,356	75,77
287,892	82,87
288,428	77,59
288,964	76,88
289,5	82,66
290,035	73,3
290,571	82,54
291,106	74,72
291,641	79,65
292,176	80,11
292,711	80,81
293,246	74,46
293,781	77,9
294,315	71,94
294,85	74,19
295,384	77,46
295,918	78,72
296,453	77,84
296,987	73,77
297,52	79,89
298,054	89,66
298,588	81,1
299,121	81,01
299,655	87,06
300,188	98,67
300,721	91,3
301,254	87,83
301,787	77,96
302,32	65,28
302,853	87,71
303,385	83,7
303,918	88,57
304,45	80,61
304,982	82,49
305,514	84,04
306,046	83,7
306,578	86,63
307,11	85,08
307,641	81,87
308,173	85,39
308,704	90,91
309,236	80,2
309,767	82,63
310,298	93,08
310,829	89,5
311,359	79,71
311,89	84,21
312,421	80
312,951	81,71
313,481	80,59
314,012	76,04
314,542	78,72
315,072	83,98
315,601	96,1
316,131	75
316,661	84,66
317,19	75,72
317,72	86,75
318,249	95
318,778	93,2
319,307	88,02
319,836	82,49
320,365	82,54
320,893	84,46
321,422	91,67
321,95	81,25
322,479	93,33
323,007	92,7
323,535	87,28
324,063	83,05
324,591	76,72
325,118	91,4
325,646	78,19
326,173	80,87
326,701	70,26
327,228	78,01
327,755	81,22
328,282	83,8
328,809	94,71
329,336	77,61
329,862	72
330,389	76,29
330,915	77,2
331,441	82,46
331,968	84,27
332,494	83,16
333,02	84,92
333,545	76,72
334,071	72,82
334,597	78,65
335,122	69,68
335,648	76,44
336,173	75,14
336,698	69,68
337,223	73,26
337,748	77,11
338,272	68,62
338,797	80,33
339,322	72,43
339,846	73,12
340,37	68,85
340,894	68,16
341,419	76,44
341,942	72,49
342,466	72,54
342,99	73,82
343,514	73,04
344,037	72,87
344,56	63,64
345,084	64,68
345,607	66,02
346,13	64,79
346,653	73,83
347,175	60,77
347,698	58,79
348,221	69,48
348,743	57,98
349,265	65,52
349,787	60,49
350,309	56,68
350,831	67,36
351,353	60,66
351,875	60,32
352,397	60,78
352,918	64,17
353,439	65,82
353,961	55,12
354,482	54,89
355,003	53,09
355,524	49,38
356,044	65,98
356,565	52,03
357,086	49,81
357,606	43,83
358,126	57,09
358,646	49,07
359,167	56,09
359,687	55,02
360,206	50,37
360,726	54,09
361,246	49,06
361,765	49,28
362,285	48,7
362,804	55,04
363,323	54,61
363,842	53,87
364,361	48,18
364,88	47,25
365,398	55,09
365,917	48,77
366,435	52
366,954	49,19
367,472	46,52
367,99	47,4
368,508	48,33
369,026	48,72
369,544	42,45
370,061	46,59
370,579	48,46
371,096	38,84
371,613	50,14
372,131	41,45
372,648	45,3
373,165	42,19
373,681	39,46
374,198	46,42
374,715	44,44
375,231	44,05
375,747	36,24
376,264	40,99
376,78	38,32
377,296	33,17
377,812	41,27
378,327	39,85
378,843	43,22
379,359	39,86
379,874	42,18
380,389	33,86
380,905	38,71
381,42	36,67
381,935	40,51
382,449	31,61
382,964	34,1
383,479	29,84
383,993	31,06
384,508	35,53
385,022	33,66
385,536	35,04
386,05	32,58
386,564	34,28
387,078	33,51
387,592	30,99
388,105	28,26
388,619	30,08
389,132	29,22
389,645	28,64
390,158	28,95
390,671	26,83
391,184	29,31
391,697	30,76
392,21	27,34
392,722	28,69
393,235	26,82
393,747	26,8
394,259	28,31
394,771	26,33
395,283	27,84
395,795	27,19
396,307	25,88
396,818	24,68
397,33	25,48
397,841	24,21
398,353	22,42
398,864	25,85
399,375	22,38
399,886	21,76
400,397	21,13
400,907	21,77
401,418	20,15
401,928	20,42
402,439	18,97
402,949	19,58
403,459	21,13
403,969	19,75
404,479	18,93
404,989	18,12
405,498	18,01
406,008	17,16
406,517	16,2
407,027	15,05
407,536	14,89
408,045	16
408,554	15,18
409,063	14,49
409,572	13,08
410,08	13,39
410,589	12,07
411,097	12,21
411,606	11,3
412,114	11,43
412,622	11,34
413,13	11,05
413,638	10,49
414,145	9,8
414,653	9,92
415,16	9,59
415,668	10,36
416,175	8,93
416,682	8,63
417,189	8,14
417,696	8,52
418,203	8,71
418,71	7,7
419,216	8,38
419,723	7,62
420,229	7,23
420,735	7,94
421,242	7,45
421,748	7,84
422,254	7,38
422,759	7,34
423,265	7,08
423,771	7,02
424,276	6,55
424,781	7,11
425,287	6,51
425,792	6,5
426,297	7,36
426,802	6,89
427,306	6,68
427,811	6,99
428,316	6,07
428,82	6,41
429,324	6,46
429,829	6,13
430,333	6,86
430,837	5,87
431,34	6,24
431,844	5,56
432,348	5,77
432,851	6,02
433,355	5,91
433,858	5,64
434,361	5,74
434,864	6,11
435,367	5,82
435,87	5,62
436,373	6,09
436,876	5,68
437,378	5,31
437,88	5,97
438,383	5,19
438,885	5,58
439,387	5,66
439,889	5,13
440,391	5,48
440,892	5,57
441,394	5,43
441,896	5,42
442,397	5,75
442,898	5,52
443,399	5,59
443,9	5,26
444,401	5,72
444,902	5,4
445,403	5,53
445,903	5,31
446,404	5,55
446,904	5,47
447,405	5,2
447,905	5,57
448,405	5,51
448,905	5,52
449,404	5,42
449,904	5,52
450,404	5,88
450,903	5,62
451,403	5,47
451,902	5,66
452,401	5,61
452,9	6
453,399	5,53
453,898	5,5
454,396	5,53
454,895	5,36
455,393	5,33
455,892	5,45
456,39	5,37
456,888	5,15
457,386	5,77
457,884	5,47
458,382	5,6
458,879	5,32
459,377	5,46
459,874	5,77
460,372	5,59
460,869	5,49
461,366	5,31
461,863	5,68
462,36	5,56
462,857	5,4
463,353	5,89
463,85	5,35
464,346	5,52
464,843	5,34
465,339	5,16
465,835	5,31
466,331	5,45
466,827	5,54
467,323	5,54
467,818	5,57
468,314	5,39
468,809	5,18
469,305	5,49
469,8	5,14
470,295	5,41
470,79	5,42
471,285	5,36
471,78	5,47
472,274	5,1
472,769	5,16
473,263	5,31
473,758	5,14
474,252	5,36
474,746	5,13
475,24	5,24
475,734	5,1
476,228	5,15
476,721	5,25
477,215	5,44
477,708	5,21
478,202	5,19
478,695	4,96
479,188	5,57
479,681	5,56
480,174	5,25
480,667	5,15
481,159	5,18
481,652	5,33
482,144	5,55
482,637	5,32
483,129	5,4
483,621	5,46
484,113	5,32
484,605	5,29
485,097	5,49
485,588	5,74
486,08	5,5
486,571	5,46
487,063	5,32
487,554	5,22
488,045	5,57
488,536	5,36
489,027	5,08
489,518	5,49
490,008	5,45
490,499	5,29
490,989	5,74
491,48	5,7
491,97	5,63
492,46	5,55
492,95	5,42
493,44	5,81
493,93	5,45
494,419	5,68
494,909	5,79
495,398	5,79
495,888	5,84
496,377	6
496,866	6,28
497,355	6,11
497,844	6,01
498,333	6,33
498,821	6,33
499,31	6,28
499,798	6,44
500,287	6,46
500,775	6,75
501,263	6,4
501,751	6,58
502,239	7,16
502,727	6,9
503,215	6,93
503,702	6,93
504,19	7,21
504,677	7,16
505,164	7,31
505,651	7,1
506,139	7,49
506,625	7,64
507,112	7,87
507,599	7,86
508,086	8,4
508,572	8,36
509,058	8,59
509,545	8,67
510,031	8,99
510,517	8,98
511,003	9,2
511,489	9,28
511,974	9,6
512,46	9,84
512,946	9,68
513,431	10,13
513,916	10,51
514,401	10,45
514,887	11,01
515,371	11
515,856	11,31
516,341	11,39
516,826	12,21
517,31	12,22
517,795	12,29
518,279	12,74
518,763	12,88
519,247	13,45
519,731	13,3
520,215	13,8
520,699	13,81
521,182	14,37
521,666	14,95
522,149	15,04
522,633	15,48
523,116	15,61
523,599	15,79
524,082	15,95
524,565	16,51
525,048	16,64
525,53	17,23
526,013	17,72
526,495	17,88
526,978	17,6
527,46	18,18
527,942	18,45
528,424	18,67
528,906	18,79
529,388	19,12
529,87	19,67
530,351	19,9
530,833	19,68
531,314	19,94
531,795	20,22
532,277	20,2
532,758	20,62
533,238	20,48
533,719	20,48
534,2	21,04
534,681	21,01
535,161	21,26
535,642	21,15
536,122	21,54
536,602	21,46
537,082	21,19
537,562	21,79
538,042	21,7
538,522	22,11
539,001	22,13
539,481	21,66
539,96	21,9
540,44	22,36
540,919	21,95
541,398	22,33
541,877	22,2
542,356	22,03
542,835	22,59
543,313	22,4
543,792	22,68
544,27	22,84
544,749	22,51
545,227	22,25
545,705	22,64
546,183	22,5
546,661	22,8
547,139	22,84
547,616	23,22
548,094	23,29
548,571	22,73
549,049	22,9
549,526	23,14
550,003	22,85
550,48	23,19
550,957	22,76
551,434	23,21
551,911	23,2
552,387	23,01
552,864	23,14
553,34	23,05
553,817	23,66
554,293	23,1
554,769	23,2
555,245	23,12
555,721	23,39
556,197	23,23
556,672	23,41
557,148	23,37
557,623	23,17
558,099	23,1
558,574	23,17
559,049	23,02
559,524	22,85
559,999	22,94
560,474	22,49
560,948	22,39
561,423	22,4
561,897	22,23
562,372	22,17
562,846	22,08
563,32	22
563,794	21,87
564,268	21,63
564,742	21,85
565,216	21,31
565,69	21,62
566,163	21,61
566,636	21,2
567,11	20,69
567,583	20,71
568,056	20,48
568,529	20,12
569,002	20,19
569,475	19,76
569,947	19,7
570,42	19,53
570,892	19,5
571,365	19,08
571,837	18,8
572,309	18,66
572,781	18,86
573,253	18,17
573,725	18,19
574,197	18,4
574,668	17,86
575,14	18,14
575,611	17,68
576,082	17,61
576,554	17,6
577,025	17,36
577,496	16,73
577,967	16,96
578,437	16,66
578,908	16,99
579,379	16,69
579,849	16,4
580,319	16,17
580,79	16,26
581,26	16,1
581,73	15,98
582,2	16
582,669	16,02
583,139	15,6
583,609	15,17
584,078	15,35
584,548	15,41
585,017	14,99
585,486	14,74
585,955	15,05
586,424	14,95
586,893	14,93
587,362	14,67
587,83	14,75
588,299	14,69
588,767	14,34
589,236	14,64
589,704	14,49
590,172	14,18
590,64	14,53
591,108	14,24
591,576	14,12
592,043	13,93
592,511	13,69
592,978	13,82
593,446	13,97
593,913	13,72
594,38	13,91
594,847	13,56
595,314	13,7
595,781	13,5
596,248	13,72
596,715	13,47
597,181	13,58
597,647	13,41
598,114	13,42
598,58	13,37
599,046	13,41
599,512	13,42
599,978	13,27
600,444	13,11
600,91	13,3
601,375	13,26
601,841	13,3
602,306	13,01
602,771	13
603,236	12,99
603,702	13,11
604,167	12,88
604,631	12,97
605,096	13
605,561	12,92
606,025	12,79
606,49	12,59
606,954	12,7
607,418	12,67
607,882	12,43
608,347	12,42
608,81	12,41
609,274	12,31
609,738	12
610,202	12,14
610,665	12,08
611,128	12,04
611,592	11,86
612,055	11,84
612,518	11,64
612,981	11,74
613,444	11,63
613,907	11,47
614,369	11,46
614,832	11,37
615,294	11,22
615,757	11,12
616,219	11,13
616,681	11,03
617,143	10,76
617,605	10,9
618,067	10,82
618,529	10,92
618,99	10,73
619,452	10,94
619,913	10,7
620,375	10,56
620,836	10,5
621,297	10,69
621,758	10,36
622,219	10,32
622,68	10,37
623,14	10,24
623,601	10,22
624,061	10,25
624,522	10,22
624,982	10,09
625,442	10,21
625,902	10,37
626,362	10,24
626,822	10,14
627,282	10,09
627,742	9,99
628,201	10,12
628,661	10,03
629,12	10,04
629,579	9,83
630,038	9,9
630,497	9,91
630,956	9,89
631,415	9,96
631,874	9,86
632,332	9,86
632,791	9,85
633,249	9,76
633,708	9,65
634,166	9,81
634,624	9,59
635,082	9,59
635,54	9,4
635,998	9,31
636,455	9,28
636,913	9,2
637,37	9,15
637,828	8,96
638,285	9,27
638,742	9
639,199	8,97
639,656	8,81
640,113	8,66
640,57	8,6
641,027	8,43
641,483	8,55
641,94	8,44
642,396	8,28
642,852	8,18
643,309	7,94
643,765	7,89
644,221	7,7
644,676	7,75
645,132	7,66
645,588	7,48
646,043	7,54
646,499	7,34
646,954	7,35
647,409	7,11
647,864	7,12
648,319	7,13
648,774	6,86
649,229	7
649,684	6,76
650,139	6,86
650,593	6,88
651,047	6,82
651,502	6,71
651,956	6,76
652,41	6,62
652,864	6,77
653,318	6,8
653,772	6,62
654,225	6,63
654,679	6,52
655,133	6,38
655,586	6,48
656,039	6,49
656,492	6,38
656,946	6,31
657,399	6,45
657,851	6,34
658,304	6,3
658,757	6,12
659,209	6,29
659,662	6,05
660,114	6,17
660,567	5,97
661,019	5,97
661,471	5,94
661,923	5,88
662,375	5,89
662,826	5,79
663,278	5,73
663,73	5,59
664,181	5,68
664,632	5,77
665,084	5,72
665,535	5,49
665,986	5,63
666,437	5,54
666,888	5,61
667,338	5,63
667,789	5,54
668,24	5,57
668,69	5,65
669,14	5,51
669,591	5,63
670,041	5,71
670,491	5,7
670,941	5,75
671,391	5,74
671,84	5,65
672,29	5,9
672,74	5,91
673,189	5,99
673,638	5,92
674,088	6,01
674,537	6,15
674,986	6,25
675,435	6,25
675,883	6,37
676,332	6,35
676,781	6,39
677,229	6,57
677,678	6,64
678,126	6,8
678,574	6,85
679,022	7,02
679,47	7,06
679,918	7,26
680,366	7,37
680,814	7,37
681,261	7,49
681,709	7,64
682,156	7,67
682,604	7,76
683,051	7,92
683,498	7,96
683,945	8,15
684,392	8,08
684,839	8,16
685,286	8,28
685,732	8,39
686,179	8,52
686,625	8,69
687,071	8,9
687,518	8,92
687,964	9,06
688,41	9,33
688,856	9,44
689,301	9,52
689,747	9,97
690,193	10,05
690,638	10,47
691,084	10,39
691,529	10,87
691,974	11,23
692,419	11,58
692,864	11,93
693,309	12,36
693,754	12,83
694,199	13,07
694,643	13,37
695,088	14,11
695,532	14,45
695,977	14,99
696,421	15,75
696,865	16,14
697,309	16,71
697,753	17,16
698,197	17,57
698,64	18,46
699,084	18,75
699,527	19,52
699,971	19,98
700,414	20,78
700,857	21,14
701,3	21,67
701,743	22,15
702,186	22,77
702,629	23,46
703,072	23,98
703,515	25,04
703,957	25,34
704,399	25,8
704,842	26,4
705,284	27,2
705,726	27,66
706,168	28,17
706,61	28,96
707,052	29,45
707,494	30,1
707,935	30,86
708,377	31,13
708,818	31,65
709,26	32,19
709,701	32,47
710,142	33,58
710,583	34,07
711,024	34,78
711,465	35,19
711,905	35,66
712,346	36,17
712,787	36,56
713,227	37,3
713,667	38,05
714,108	38,55
714,548	39,52
714,988	39,75
715,428	40,16
715,868	40,66
716,307	41
716,747	41,49
717,186	42,09
717,626	42,98
718,065	43,5
718,504	43,55
718,944	44,91
719,383	44,91
719,822	45,21
720,261	45,59
720,699	46,01
721,138	46,74
721,576	47,35
722,015	47,44
722,453	47,88
722,892	48,56
723,33	49,02
723,768	49,09
724,206	49,28
724,644	50,23
725,081	50,07
725,519	50,68
725,957	51,05
726,394	51,58
726,832	52,14
727,269	52,66
727,706	52,68
728,143	52,93
728,58	53,22
729,017	53,81
729,454	54,09
729,89	53,75
730,327	54,45
730,764	54,83
731,2	54,99
731,636	55,06
732,072	55,18
732,509	55,93
732,945	55,94
733,38	55,83
733,816	56,24
734,252	56,56
734,688	56,78
735,123	56,99
735,559	56,89
735,994	57,37
736,429	57,43
736,864	57,52
737,299	57,37
737,734	58,57
738,169	57,9
738,604	57,82
739,038	58,52
739,473	58,29
739,907	58,15
740,342	58,4
740,776	58,83
741,21	58,39
741,644	58,47
742,078	58,79
742,512	58,67
742,946	58,57
743,379	58,63
743,813	58,75
744,246	58,9
744,68	59,35
745,113	58,79
745,546	59,21
745,979	58,88
746,412	59,43
746,845	59,21
747,278	59,53
747,711	59,34
748,143	59,39
748,576	59,26
749,008	58,96
749,441	59,08
749,873	58,89
750,305	59,08
750,737	59,25
751,169	58,89
751,601	59,15
752,032	58,8
752,464	58,76
752,896	58,66
753,327	58,91
753,758	59,19
754,19	58,59
754,621	58,98
755,052	58,67
755,483	58,56
755,914	58,79
756,344	58,96
756,775	58,62
757,206	58,63
757,636	58,5
758,066	58,2
758,497	58,3
758,927	58,72
759,357	58,2
759,787	58,09
760,217	58,26
760,647	58,35
761,076	57,82
761,506	58,21
761,935	58,03
762,365	58,6
762,794	58,31
763,223	58,31
763,653	58,06
764,082	57,79
764,51	58,16
764,939	58
765,368	58,25
765,797	57,82
766,225	57,97
766,654	57,91
767,082	57,92
767,51	57,93
767,938	57,06
768,367	57,9
768,795	57,62
769,222	57,59
769,65	57,75
770,078	57,67
770,505	57,38
770,933	57,3
771,36	57,61
771,788	57,77
772,215	57,48
772,642	57,54
773,069	57,23
773,496	57,32
773,923	56,83
774,349	57,17
774,776	57,3
775,203	57,12
775,629	57,59
776,055	57,13
776,482	56,96
776,908	56,88
777,334	57,01
777,76	56,77
778,186	57,42
778,611	56,91
779,037	56,91
779,463	56,92
779,888	56,82
780,314	57,01
780,739	56,82
781,164	56,84
781,589	56,91
782,014	56,48
782,439	56,95
782,864	57,01
783,289	56,57
783,713	56,86
784,138	56,55
784,562	57,14
784,987	56,72
785,411	56,85
785,835	56,32
786,259	56,15
786,683	56,63
787,107	56,43
787,531	56,59
787,954	56,4
788,378	56,52
788,802	56,54
789,225	56,6
789,648	56,25
790,071	56,6
790,495	56,51
790,918	56,53
791,34	56,95
791,763	56,41
792,186	56,42
792,609	56,13
793,031	56,33
793,454	56,59
793,876	56,7
794,298	56,96
794,721	56,18
795,143	56,17
795,565	56,43
795,986	56,46
796,408	56,29
796,83	56,29
797,252	56,39
797,673	56
798,094	56,01
798,516	56,39
798,937	56,5
799,358	56,49
799,779	56,02
800,2	56,19
800,621	56,04
801,042	56,54
801,462	55,88
801,883	56,28
802,303	56,2
802,724	55,95
803,144	55,98
803,564	55,68
803,984	56,41
804,404	56,16
804,824	56,7
805,244	55,96
805,664	56,32
806,084	56,25
806,503	56,1
806,923	56,27
807,342	55,98
807,761	56,23
808,18	56,27
808,599	55,92
809,018	56,09
809,437	56,17
809,856	56,27
810,275	56,33
810,693	56,18
811,112	56,07
811,53	55,8
811,949	56,06
812,367	56,34
812,785	55,87
813,203	55,85
813,621	55,97
814,039	55,9
814,457	55,93
814,874	55,59
815,292	56
815,709	55,71
816,127	56,08
816,544	55,77
816,961	55,79
817,378	56,32
817,795	56,1
818,212	55,82
818,629	56,09
819,046	56,51
819,462	55,72
819,879	55,86
820,295	56,13
820,712	55,68
821,128	55,96
821,544	55,76
821,96	55,6
822,376	56,19
822,792	55,59
823,208	55,6
823,624	55,8
824,039	55,16
824,455	55,9
824,87	55,91
825,286	56,02
825,701	55,85
826,116	55,68
826,531	55,96
826,946	55,74
827,361	55,45
827,776	55,61
828,19	55,98
828,605	55,68
829,02	55,83
829,434	55,84
829,848	55,76
830,263	55,59
830,677	55,78
831,091	55,75
831,505	56,05
831,919	55,75
832,332	55,75
832,746	55,44
833,16	55,31
833,573	55,47
833,987	55,3
834,4	55,42
834,813	55,87
835,226	55,57
835,639	55,61
836,052	55,48
836,465	55,45
836,878	55,09
837,29	55,5
837,703	55,52
838,116	55,48
838,528	55,61
838,94	54,84
839,352	55,56
839,765	55,41
840,177	55,54
840,589	55,21
841	54,75
841,412	55,55
841,824	55,56
842,235	56,1
842,647	55,29
843,058	55,32
843,47	55,5
843,881	55,39
844,292	55,87
