Data from F5__Relative__3__00076.txt Node

Date: Thu Feb 01 16:23:16 CET 2024
User: diatiterra
Spectrometer: HDX00911
Trigger mode: 0
Integration Time (sec): 6,000000E-3
Scans to average: 2
Nonlinearity correction enabled: false
Boxcar width: 0
Storing dark spectrum: false
XAxis mode: Wavelengths
Number of Pixels in Spectrum: 2068
>>>>>Begin Spectral Data<<<<<
194,468	190,77
195,025	120,83
195,581	124,24
196,138	122,06
196,694	121,98
197,251	103,97
197,807	66,86
198,363	67,46
198,919	67,39
199,474	69,43
200,03	78,41
200,586	72,78
201,141	63,4
201,696	74,57
202,251	62,98
202,806	70,11
203,361	78,14
203,916	76,76
204,471	66,3
205,025	69,73
205,58	69,36
206,134	63,3
206,688	68,06
207,242	77,91
207,796	59,09
208,35	76,16
208,904	72,88
209,457	71,18
210,011	76,69
210,564	72,58
211,117	81,7
211,67	78,09
212,223	73,71
212,776	62,57
213,329	71,66
213,881	70,47
214,434	76,5
214,986	74,1
215,538	64,13
216,09	69,27
216,642	80,72
217,194	79,41
217,746	74,29
218,297	74,44
218,849	70,93
219,4	70,56
219,951	86,29
220,502	71,01
221,053	89,88
221,604	81,07
222,155	76,47
222,705	84,8
223,256	75,28
223,806	72,57
224,356	61,86
224,906	80,61
225,456	66,84
226,006	75,41
226,556	68,65
227,106	77,44
227,655	65,97
228,204	73,45
228,754	77,01
229,303	68,24
229,852	76,67
230,401	75,31
230,949	74,58
231,498	73,94
232,047	68,33
232,595	71,84
233,143	72,63
233,691	68,13
234,239	69,4
234,787	73,26
235,335	77,33
235,883	70
236,43	70,32
236,978	72,87
237,525	69,85
238,072	66,11
238,619	69,51
239,166	71,08
239,713	64,8
240,26	78,36
240,806	76,69
241,353	63,95
241,899	68,68
242,445	65,09
242,991	71,35
243,537	85,62
244,083	70,33
244,629	65
245,174	62,07
245,72	73,18
246,265	57,07
246,81	75,57
247,355	69,78
247,9	65,88
248,445	77,71
248,99	64,44
249,534	68,54
250,079	72,89
250,623	65,22
251,168	73,56
251,712	67,65
252,256	67,7
252,8	58,19
253,343	70,88
253,887	62,3
254,43	61,36
254,974	56,42
255,517	66,1
256,06	65,91
256,603	66,29
257,146	59,12
257,689	58,2
258,232	60,32
258,774	77,98
259,317	56,04
259,859	54,97
260,401	64,61
260,943	82,8
261,485	69,73
262,027	73,54
262,569	78,81
263,11	66,1
263,652	69,78
264,193	77,27
264,734	66,08
265,275	64,06
265,816	65,41
266,357	62,96
266,898	46,46
267,438	65,82
267,979	67,05
268,519	69,64
269,059	60,84
269,6	65,03
270,14	49,49
270,68	67,81
271,219	61,49
271,759	78,21
272,298	73,51
272,838	62,57
273,377	75,98
273,916	82,55
274,455	66,67
274,994	68,89
275,533	64,07
276,072	76,65
276,61	76,92
277,149	61,76
277,687	58,43
278,225	72,35
278,763	68,21
279,301	68,62
279,839	79,79
280,377	64,6
280,914	62,89
281,452	69,83
281,989	63,53
282,526	70,89
283,064	67,5
283,601	69,66
284,137	83,44
284,674	65,73
285,211	70,43
285,747	78,89
286,284	58,82
286,82	63,02
287,356	65,98
287,892	73,48
288,428	64,37
288,964	72,04
289,5	73,99
290,035	77,84
290,571	68,78
291,106	67,42
291,641	68,6
292,176	62,9
292,711	69,77
293,246	70,11
293,781	76,24
294,315	64,29
294,85	69,03
295,384	73,41
295,918	63,83
296,453	68,11
296,987	63,93
297,52	71,74
298,054	82,76
298,588	77,44
299,121	66,48
299,655	68,24
300,188	79,33
300,721	78,26
301,254	66,14
301,787	72,58
302,32	66,32
302,853	70,95
303,385	67,39
303,918	75,43
304,45	62,24
304,982	72,88
305,514	66,49
306,046	69,02
306,578	70,05
307,11	67,96
307,641	73,08
308,173	74,16
308,704	64,77
309,236	62,94
309,767	63,16
310,298	69,18
310,829	63
311,359	59,9
311,89	69,01
312,421	56,76
312,951	71,43
313,481	71,76
314,012	63,54
314,542	71,81
315,072	75,69
315,601	80,52
316,131	66,49
316,661	71,59
317,19	66,47
317,72	59,04
318,249	69,44
318,778	78,91
319,307	69,79
319,836	64,41
320,365	63,49
320,893	69,95
321,422	82,14
321,95	66,15
322,479	79,39
323,007	79,21
323,535	71,68
324,063	59,89
324,591	68,25
325,118	67,74
325,646	73,94
326,173	68,85
326,701	63,08
327,228	71,2
327,755	70,56
328,282	63,13
328,809	74,12
329,336	61,19
329,862	65,14
330,389	57,22
330,915	70,98
331,441	67,84
331,968	78,09
332,494	66,84
333,02	69,27
333,545	62,96
334,071	55,9
334,597	76,4
335,122	64,36
335,648	66,83
336,173	70,27
336,698	63,3
337,223	62,57
337,748	55,72
338,272	57,98
338,797	60,66
339,322	67,57
339,846	70,43
340,37	63,39
340,894	56,22
341,419	67,24
341,942	74,07
342,466	61,14
342,99	72,77
343,514	67,16
344,037	60,64
344,56	60,77
345,084	62,19
345,607	58,74
346,13	61,97
346,653	62,15
347,175	57,89
347,698	67,84
348,221	58,69
348,743	54,2
349,265	61,08
349,787	55,12
350,309	46,56
350,831	48,54
351,353	58,77
351,875	57,49
352,397	50,86
352,918	53,75
353,439	56,12
353,961	51,97
354,482	50,21
355,003	46,91
355,524	46,91
356,044	53,94
356,565	49,19
357,086	48,31
357,606	41,28
358,126	44,06
358,646	52,04
359,167	53,48
359,687	45,35
360,206	47,04
360,726	49,81
361,246	47,17
361,765	38,41
362,285	44,61
362,804	45,68
363,323	44,68
363,842	46,83
364,361	43,07
364,88	37,22
365,398	45,26
365,917	40,12
366,435	39
366,954	43,97
367,472	40,51
367,99	37,34
368,508	42
369,026	42,63
369,544	35,85
370,061	41,25
370,579	36,42
371,096	37,19
371,613	36,18
372,131	37,1
372,648	34,19
373,165	38,36
373,681	38,25
374,198	40,97
374,715	37,61
375,231	38,23
375,747	34,13
376,264	30,03
376,78	35,28
377,296	31,97
377,812	31,39
378,327	35,34
378,843	34,78
379,359	33,73
379,874	35,73
380,389	30,25
380,905	27,31
381,42	29,56
381,935	33,69
382,449	25,21
382,964	26,4
383,479	30,25
383,993	34,37
384,508	29,89
385,022	29,01
385,536	28,85
386,05	30,51
386,564	28,06
387,078	32,26
387,592	27,05
388,105	24,13
388,619	23,2
389,132	26,56
389,645	24,8
390,158	24,85
390,671	24,39
391,184	22,58
391,697	22,33
392,21	21,15
392,722	22,84
393,235	21,93
393,747	22,09
394,259	24,23
394,771	21,42
395,283	22,03
395,795	17,91
396,307	21,61
396,818	19,67
397,33	20,59
397,841	20,8
398,353	20,97
398,864	21,12
399,375	18,6
399,886	17,08
400,397	19,67
400,907	17,64
401,418	16,06
401,928	17
402,439	16,21
402,949	14,98
403,459	15,48
403,969	14,7
404,479	15,38
404,989	13,72
405,498	13,44
406,008	13,17
406,517	12,07
407,027	13,37
407,536	11,88
408,045	12,55
408,554	11,46
409,063	10,92
409,572	10,04
410,08	9,31
410,589	9,91
411,097	8,34
411,606	8,71
412,114	8,61
412,622	8,07
413,13	8,25
413,638	7,35
414,145	7,62
414,653	7,9
415,16	6,89
415,668	7,15
416,175	6,55
416,682	7,29
417,189	6,24
417,696	6,75
418,203	7,01
418,71	7,01
419,216	6,78
419,723	6,44
420,229	6,27
420,735	5,99
421,242	5,89
421,748	5,61
422,254	5,53
422,759	5,49
423,265	5,13
423,771	6,13
424,276	5,46
424,781	5,53
425,287	5,04
425,792	5,28
426,297	5,63
426,802	4,93
427,306	4,86
427,811	5,5
428,316	5,12
428,82	4,67
429,324	5,1
429,829	4,91
430,333	5,08
430,837	4,36
431,34	4,75
431,844	4,5
432,348	4,85
432,851	4,54
433,355	4,75
433,858	4,71
434,361	4,63
434,864	4,7
435,367	4,54
435,87	4,33
436,373	4,72
436,876	5,01
437,378	4,63
437,88	4,1
438,383	4,28
438,885	4,56
439,387	4,55
439,889	4,27
440,391	4,34
440,892	4,2
441,394	4,61
441,896	4,65
442,397	4,46
442,898	4,21
443,399	4,26
443,9	4,31
444,401	4,44
444,902	4,58
445,403	4,04
445,903	3,92
446,404	4,13
446,904	4,27
447,405	4,34
447,905	4,25
448,405	3,82
448,905	4,13
449,404	4,18
449,904	4,4
450,404	4,3
450,903	3,98
451,403	4,19
451,902	4,4
452,401	4,2
452,9	4,37
453,399	4,33
453,898	3,92
454,396	4,24
454,895	3,9
455,393	4,26
455,892	4,75
456,39	4,02
456,888	3,91
457,386	4,52
457,884	4,16
458,382	4,07
458,879	4,13
459,377	4,44
459,874	4,31
460,372	4,13
460,869	3,96
461,366	4,19
461,863	4,02
462,36	4,27
462,857	4,07
463,353	4,16
463,85	3,82
464,346	3,92
464,843	3,96
465,339	3,65
465,835	3,53
466,331	4,53
466,827	4,07
467,323	3,97
467,818	4,01
468,314	4,22
468,809	3,76
469,305	3,71
469,8	3,97
470,295	3,92
470,79	4
471,285	4,06
471,78	3,87
472,274	3,93
472,769	4,04
473,263	3,9
473,758	3,83
474,252	4,06
474,746	3,81
475,24	3,7
475,734	3,69
476,228	3,92
476,721	3,74
477,215	3,63
477,708	3,69
478,202	3,76
478,695	3,78
479,188	4,23
479,681	4,01
480,174	3,85
480,667	3,93
481,159	3,82
481,652	3,93
482,144	3,84
482,637	3,85
483,129	4,05
483,621	3,94
484,113	3,82
484,605	3,84
485,097	4,09
485,588	3,93
486,08	3,84
486,571	3,77
487,063	3,71
487,554	4,05
488,045	4,13
488,536	3,98
489,027	3,9
489,518	4,2
490,008	4,06
490,499	4,13
490,989	3,95
491,48	4,23
491,97	4,16
492,46	4,14
492,95	4,02
493,44	4,42
493,93	4,05
494,419	4,03
494,909	4,22
495,398	4,33
495,888	4,44
496,377	4,24
496,866	4,31
497,355	4,36
497,844	4,4
498,333	4,6
498,821	4,39
499,31	4,32
499,798	4,69
500,287	4,66
500,775	4,84
501,263	4,77
501,751	5,04
502,239	5,04
502,727	4,98
503,215	4,88
503,702	5,08
504,19	4,75
504,677	5,32
505,164	5,5
505,651	5,33
506,139	5,51
506,625	5,68
507,112	5,72
507,599	5,97
508,086	5,83
508,572	5,98
509,058	6,18
509,545	6,16
510,031	6,52
510,517	6,61
511,003	6,6
511,489	6,83
511,974	7,16
512,46	7,08
512,946	7,34
513,431	7,23
513,916	7,65
514,401	7,81
514,887	8,24
515,371	8,09
515,856	8,31
516,341	8,53
516,826	9,07
517,31	8,86
517,795	9,23
518,279	9,25
518,763	9,6
519,247	9,73
519,731	10,17
520,215	10,35
520,699	10,5
521,182	10,76
521,666	10,92
522,149	11,28
522,633	11,36
523,116	11,69
523,599	11,86
524,082	12,12
524,565	12,75
525,048	12,34
525,53	12,79
526,013	13,41
526,495	13,24
526,978	12,9
527,46	13,3
527,942	14,02
528,424	13,91
528,906	13,84
529,388	14,25
529,87	14,37
530,351	14,64
530,833	14,46
531,314	14,64
531,795	15,24
532,277	15,27
532,758	14,8
533,238	15,23
533,719	15,38
534,2	15,72
534,681	15,67
535,161	15,69
535,642	15,91
536,122	15,91
536,602	16,08
537,082	15,88
537,562	16,04
538,042	15,88
538,522	16,27
539,001	16,15
539,481	16,25
539,96	16,28
540,44	16,64
540,919	16,2
541,398	16,61
541,877	16,39
542,356	16,72
542,835	16,77
543,313	16,86
543,792	16,56
544,27	16,77
544,749	16,68
545,227	16,68
545,705	16,96
546,183	16,8
546,661	16,74
547,139	17
547,616	16,6
548,094	17,04
548,571	16,89
549,049	17,32
549,526	16,77
550,003	16,93
550,48	17,3
550,957	16,97
551,434	17,11
551,911	17,17
552,387	16,78
552,864	17
553,34	16,97
553,817	17,26
554,293	17,21
554,769	16,97
555,245	17,21
555,721	16,91
556,197	16,96
556,672	17,14
557,148	16,91
557,623	16,96
558,099	16,74
558,574	16,65
559,049	17,03
559,524	16,71
559,999	16,79
560,474	16,58
560,948	16,54
561,423	16,17
561,897	16,32
562,372	16,66
562,846	16,16
563,32	16,02
563,794	15,99
564,268	16,15
564,742	15,98
565,216	15,82
565,69	15,78
566,163	15,43
566,636	15,66
567,11	15,31
567,583	15,1
568,056	14,97
568,529	14,88
569,002	14,86
569,475	14,56
569,947	14,5
570,42	14,27
570,892	14,02
571,365	13,95
571,837	13,85
572,309	13,52
572,781	13,83
573,253	13,49
573,725	13,23
574,197	13,34
574,668	12,89
575,14	12,89
575,611	12,72
576,082	12,76
576,554	12,45
577,025	12,14
577,496	12,39
577,967	12,46
578,437	12,26
578,908	12,07
579,379	12,13
579,849	11,8
580,319	11,78
580,79	11,69
581,26	11,45
581,73	11,56
582,2	11,5
582,669	11,38
583,139	11,11
583,609	11,33
584,078	10,87
584,548	11,04
585,017	11,19
585,486	10,68
585,955	10,97
586,424	10,92
586,893	10,58
587,362	10,45
587,83	10,6
588,299	10,49
588,767	10,56
589,236	10,53
589,704	10,34
590,172	10,3
590,64	10,39
591,108	10,27
591,576	10,27
592,043	10,01
592,511	10,09
592,978	10,09
593,446	9,94
593,913	9,71
594,38	9,84
594,847	9,62
595,314	9,71
595,781	9,88
596,248	9,61
596,715	9,63
597,181	9,64
597,647	9,82
598,114	9,53
598,58	9,57
599,046	9,57
599,512	9,45
599,978	9,51
600,444	9,62
600,91	9,58
601,375	9,42
601,841	9,45
602,306	9,48
602,771	9,29
603,236	9,44
603,702	9,37
604,167	9,12
604,631	9,31
605,096	8,99
605,561	9,29
606,025	9,03
606,49	8,98
606,954	8,92
607,418	8,87
607,882	8,76
608,347	9
608,81	8,85
609,274	8,71
609,738	8,54
610,202	8,63
610,665	8,44
611,128	8,61
611,592	8,34
612,055	8,16
612,518	8,27
612,981	8,35
613,444	8,08
613,907	8,23
614,369	7,97
614,832	7,93
615,294	8
615,757	7,96
616,219	7,8
616,681	7,8
617,143	7,64
617,605	7,79
618,067	7,53
618,529	7,56
618,99	7,56
619,452	7,49
619,913	7,45
620,375	7,44
620,836	7,36
621,297	7,52
621,758	7,14
622,219	7,19
622,68	7,31
623,14	7,27
623,601	7,26
624,061	7,04
624,522	7,14
624,982	7,09
625,442	7,19
625,902	7,18
626,362	7,17
626,822	6,98
627,282	7,2
627,742	7,07
628,201	7,13
628,661	7,01
629,12	7,09
629,579	7,03
630,038	6,97
630,497	6,92
630,956	6,97
631,415	6,98
631,874	6,88
632,332	6,87
632,791	6,87
633,249	6,97
633,708	6,89
634,166	6,71
634,624	6,82
635,082	6,75
635,54	6,62
635,998	6,63
636,455	6,6
636,913	6,56
637,37	6,35
637,828	6,38
638,285	6,44
638,742	6,4
639,199	6,17
639,656	6,16
640,113	6,02
640,57	5,98
641,027	5,84
641,483	5,74
641,94	5,79
642,396	5,79
642,852	5,5
643,309	5,54
643,765	5,49
644,221	5,37
644,676	5,43
645,132	5,26
645,588	5,22
646,043	5,14
646,499	5,01
646,954	5,09
647,409	4,83
647,864	4,94
648,319	4,8
648,774	4,71
649,229	4,84
649,684	4,66
650,139	4,59
650,593	4,59
651,047	4,61
651,502	4,62
651,956	4,61
652,41	4,53
652,864	4,54
653,318	4,54
653,772	4,41
654,225	4,49
654,679	4,42
655,133	4,47
655,586	4,47
656,039	4,37
656,492	4,48
656,946	4,41
657,399	4,43
657,851	4,33
658,304	4,36
658,757	4,19
659,209	4,31
659,662	4,15
660,114	4,22
660,567	4,23
661,019	4,14
661,471	4,08
661,923	4,12
662,375	4,18
662,826	4,17
663,278	4,18
663,73	4,09
664,181	4,06
664,632	4,03
665,084	4
665,535	3,97
665,986	4,02
666,437	3,94
666,888	4,06
667,338	4,09
667,789	3,99
668,24	4,15
668,69	4,15
669,14	4,26
669,591	4,3
670,041	4,22
670,491	4,2
670,941	4,33
671,391	4,33
671,84	4,46
672,29	4,4
672,74	4,57
673,189	4,55
673,638	4,63
674,088	4,57
674,537	4,67
674,986	4,79
675,435	4,73
675,883	4,97
676,332	5,04
676,781	5
677,229	5,11
677,678	5,29
678,126	5,34
678,574	5,4
679,022	5,51
679,47	5,62
679,918	5,69
680,366	5,8
680,814	5,96
681,261	5,9
681,709	6,09
682,156	6,18
682,604	6,25
683,051	6,42
683,498	6,44
683,945	6,46
684,392	6,62
684,839	6,71
685,286	6,63
685,732	6,7
686,179	6,87
686,625	6,87
687,071	7,1
687,518	7,01
687,964	7,07
688,41	7,2
688,856	7,38
689,301	7,49
689,747	7,56
690,193	7,81
690,638	8,11
691,084	8,19
691,529	8,37
691,974	8,81
692,419	8,92
692,864	9,28
693,309	9,28
693,754	9,83
694,199	10,28
694,643	10,58
695,088	11,05
695,532	11,24
695,977	11,64
696,421	12,2
696,865	12,48
697,309	12,98
697,753	13,41
698,197	13,79
698,64	14,44
699,084	14,81
699,527	15,08
699,971	15,63
700,414	15,94
700,857	16,57
701,3	16,94
701,743	17,42
702,186	17,76
702,629	18,26
703,072	18,66
703,515	19,33
703,957	19,56
704,399	20,25
704,842	20,21
705,284	20,88
705,726	21,37
706,168	21,77
706,61	22,33
707,052	22,67
707,494	23,05
707,935	23,54
708,377	23,86
708,818	24,2
709,26	24,77
709,701	24,8
710,142	25,79
710,583	25,77
711,024	26,35
711,465	26,55
711,905	26,65
712,346	27,37
712,787	27,53
713,227	28,16
713,667	28,63
714,108	28,74
714,548	29,57
714,988	29,82
715,428	30,06
715,868	30,48
716,307	30,92
716,747	30,98
717,186	31,54
717,626	32,2
718,065	32,09
718,504	32,58
718,944	32,83
719,383	33,01
719,822	33,26
720,261	33,92
720,699	34,09
721,138	34,4
721,576	34,85
722,015	34,85
722,453	35,56
722,892	35,81
723,33	35,95
723,768	35,95
724,206	36,52
724,644	37
725,081	36,99
725,519	37,22
725,957	37,55
726,394	37,68
726,832	38,06
727,269	38,56
727,706	38,55
728,143	38,65
728,58	38,91
729,017	39,39
729,454	39,41
729,89	39,35
730,327	39,95
730,764	39,74
731,2	40,06
731,636	40,49
732,072	40,13
732,509	40,23
732,945	40,83
733,38	40,53
733,816	40,96
734,252	41,26
734,688	41,46
735,123	41,21
735,559	41,55
735,994	41,58
736,429	41,5
736,864	41,53
737,299	41,65
737,734	42,26
738,169	42,14
738,604	42,03
739,038	42,12
739,473	42,01
739,907	42,35
740,342	42,24
740,776	42,6
741,21	42,4
741,644	42,18
742,078	42,43
742,512	42,57
742,946	42,18
743,379	42,53
743,813	42,62
744,246	42,4
744,68	42,87
745,113	42,66
745,546	42,9
745,979	42,84
746,412	42,85
746,845	42,66
747,278	42,81
747,711	42,52
748,143	42,98
748,576	42,78
749,008	42,55
749,441	42,58
749,873	42,56
750,305	42,48
750,737	42,52
751,169	42,58
751,601	42,92
752,032	42,43
752,464	42,2
752,896	42,28
753,327	42,44
753,758	42,23
754,19	42,41
754,621	42,74
755,052	42,43
755,483	42,18
755,914	42,08
756,344	42,36
756,775	42,64
757,206	41,99
757,636	42,15
758,066	42
758,497	42,16
758,927	42,31
759,357	42,17
759,787	41,92
760,217	41,87
760,647	41,95
761,076	41,92
761,506	41,62
761,935	41,84
762,365	42,05
762,794	41,92
763,223	42,34
763,653	41,9
764,082	41,67
764,51	41,65
764,939	41,85
765,368	41,8
765,797	41,62
766,225	41,6
766,654	41,48
767,082	41,69
767,51	41,47
767,938	41,34
768,367	41,52
768,795	41,43
769,222	41,12
769,65	41,48
770,078	41,33
770,505	41,28
770,933	41,11
771,36	41,09
771,788	41,35
772,215	41,27
772,642	41,29
773,069	41,2
773,496	41
773,923	40,78
774,349	41,18
774,776	40,76
775,203	41,02
775,629	41,4
776,055	40,99
776,482	40,59
776,908	40,92
777,334	40,86
777,76	40,96
778,186	41,11
778,611	40,85
779,037	40,63
779,463	40,77
779,888	40,88
780,314	40,65
780,739	40,61
781,164	40,89
781,589	40,78
782,014	40,39
782,439	41,05
782,864	40,71
783,289	40,28
783,713	40,9
784,138	40,36
784,562	40,7
784,987	40,76
785,411	40,85
785,835	40,38
786,259	40,33
786,683	40,44
787,107	40,68
787,531	40,53
787,954	40,42
788,378	40,35
788,802	40,63
789,225	40,4
789,648	40,39
790,071	40,43
790,495	40,39
790,918	40,21
791,34	40,83
791,763	40,69
792,186	40,3
792,609	40,28
793,031	40,63
793,454	40,18
793,876	40,23
794,298	40,33
794,721	40,16
795,143	40,12
795,565	40,13
795,986	40,34
796,408	39,97
796,83	40,31
797,252	40,17
797,673	40,4
798,094	40,22
798,516	40,6
798,937	40,3
799,358	40,01
799,779	40,47
800,2	40,2
800,621	39,95
801,042	40,41
801,462	39,75
801,883	39,98
802,303	40,07
802,724	39,73
803,144	40,01
803,564	40,06
803,984	40,27
804,404	40,09
804,824	40,15
805,244	40,3
805,664	39,97
806,084	39,79
806,503	40,2
806,923	39,92
807,342	39,99
807,761	39,75
808,18	40,26
808,599	40,2
809,018	40,12
809,437	40,07
809,856	39,84
810,275	40,12
810,693	40
811,112	39,4
811,53	40,02
811,949	40,13
812,367	40,24
812,785	39,68
813,203	39,91
813,621	39,9
814,039	39,8
814,457	39,42
814,874	40,01
815,292	39,84
815,709	40,01
816,127	40,19
816,544	39,93
816,961	39,92
817,378	39,77
817,795	39,96
818,212	39,77
818,629	39,93
819,046	40,13
819,462	39,71
819,879	40
820,295	39,76
820,712	39,69
821,128	39,55
821,544	39,88
821,96	39,52
822,376	40,03
822,792	39,76
823,208	39,64
823,624	39,6
824,039	39,45
824,455	39,51
824,87	39,8
825,286	39,72
825,701	39,73
826,116	39,53
826,531	40,06
826,946	39,85
827,361	39,92
827,776	39,88
828,19	39,67
828,605	39,61
829,02	39,85
829,434	39,9
829,848	39,66
830,263	39,72
830,677	40,01
831,091	39,71
831,505	39,7
831,919	39,61
832,332	39,59
832,746	39,5
833,16	39,36
833,573	39,24
833,987	39,79
834,4	39,74
834,813	39,72
835,226	39,27
835,639	39,46
836,052	39,71
836,465	39,49
836,878	39,52
837,29	39,66
837,703	39,48
838,116	39,18
838,528	39,53
838,94	39,12
839,352	39,48
839,765	39,46
840,177	39,54
840,589	39,77
841	39,2
841,412	39,15
841,824	39,56
842,235	39,81
842,647	39,86
843,058	39,5
843,47	39,28
843,881	39,36
844,292	39,29
844,703	39,6
845,114	39,59
845,525	39,42
845,935	39,55
846,346	39,12
