Data from G2__Relative__2__00080.txt Node

Date: Thu Feb 01 16:24:25 CET 2024
User: diatiterra
Spectrometer: HDX00911
Trigger mode: 0
Integration Time (sec): 6,000000E-3
Scans to average: 2
Nonlinearity correction enabled: false
Boxcar width: 0
Storing dark spectrum: false
XAxis mode: Wavelengths
Number of Pixels in Spectrum: 2068
>>>>>Begin Spectral Data<<<<<
194,468	216,92
195,025	134,72
195,581	137,88
196,138	141,18
196,694	119,78
197,251	106,35
197,807	80,81
198,363	83,43
198,919	72,83
199,474	82,8
200,03	75,57
200,586	82,28
201,141	63,4
201,696	84,39
202,251	65,75
202,806	81,61
203,361	84,7
203,916	82,7
204,471	73,37
205,025	77,3
205,58	76,88
206,134	76,06
206,688	75,39
207,242	90,7
207,796	72,22
208,35	90,7
208,904	74,01
209,457	89,41
210,011	88,34
210,564	80,11
211,117	97,39
211,67	74,16
212,223	86,6
212,776	71,66
213,329	81,28
213,881	72,54
214,434	78,5
214,986	83,13
215,538	80,98
216,09	78,65
216,642	89,76
217,194	90,59
217,746	73,14
218,297	84,44
218,849	79,07
219,4	73,33
219,951	85,71
220,502	76,92
221,053	92,86
221,604	89,94
222,155	77,01
222,705	89,47
223,256	75,28
223,806	77,71
224,356	69,07
224,906	77,58
225,456	72,73
226,006	67,76
226,556	83,78
227,106	79,88
227,655	76,44
228,204	74,58
228,754	83,91
229,303	74,12
229,852	76,67
230,401	77,16
230,949	80,79
231,498	65,96
232,047	76,11
232,595	73,56
233,143	67,89
233,691	74,18
234,239	72,13
234,787	70,93
235,335	71,51
235,883	69,47
236,43	73,55
236,978	71,28
237,525	65,83
238,072	67,78
238,619	78,66
239,166	68,14
239,713	78,77
240,26	77,78
240,806	75,46
241,353	72,67
241,899	73,08
242,445	73,96
242,991	74,59
243,537	84,97
244,083	75,82
244,629	75
245,174	63,22
245,72	61,45
246,265	75,92
246,81	71,59
247,355	74,18
247,9	70
248,445	82,17
248,99	70,56
249,534	73,6
250,079	80,72
250,623	64,13
251,168	78,74
251,712	72,94
252,256	77,02
252,8	74,58
253,343	85,16
253,887	72,13
254,43	78,98
254,974	67,04
255,517	76,84
256,06	77,84
256,603	79,78
257,146	69,06
257,689	68,78
258,232	60,85
258,774	85,71
259,317	68,68
259,859	75,39
260,401	66,29
260,943	81,53
261,485	68,11
262,027	77,25
262,569	83,44
263,11	74,58
263,652	84,07
264,193	67,61
264,734	67,84
265,275	68,75
265,816	74,05
266,357	73,02
266,898	56,57
267,438	79,75
267,979	75
268,519	67,26
269,059	76,51
269,6	73,77
270,14	64,8
270,68	69,86
271,219	75,29
271,759	87,18
272,298	77,3
272,838	74,27
273,377	75,42
273,916	78,52
274,455	75,9
274,994	77,78
275,533	80,24
276,072	85,63
276,61	82,25
277,149	80,59
277,687	78,31
278,225	89,41
278,763	75,72
279,301	77,66
279,839	77,66
280,377	63,35
280,914	66,49
281,452	74,3
281,989	80
282,526	86,08
283,064	83,75
283,601	78,65
284,137	89,57
284,674	79,21
285,211	81,72
285,747	79,4
286,284	80,59
286,82	69,79
287,356	67,53
287,892	80,11
288,428	72,41
288,964	68,28
289,5	79,19
290,035	82,95
290,571	70,37
291,106	70,22
291,641	73,26
292,176	68,82
292,711	77,33
293,246	74,46
293,781	71,27
294,315	72,45
294,85	72,9
295,384	80,35
295,918	71,28
296,453	72,43
296,987	62,3
297,52	73,91
298,054	83,33
298,588	81,1
299,121	74,86
299,655	72,35
300,188	94,67
300,721	83,85
301,254	73,02
301,787	69,89
302,32	65,8
302,853	81,56
303,385	75
303,918	88,57
304,45	64,8
304,982	74,58
305,514	75,53
306,046	76,63
306,578	84,49
307,11	80,66
307,641	79,12
308,173	88,76
308,704	71,02
309,236	70,56
309,767	67,89
310,298	87,42
310,829	74,5
311,359	75,85
311,89	77,78
312,421	67,57
312,951	77,71
313,481	78,24
314,012	76,56
314,542	76,6
315,072	80,11
315,601	87,66
316,131	73,94
316,661	84,66
317,19	82,08
317,72	77,11
318,249	82,78
318,778	77,55
319,307	85,94
319,836	76,84
320,365	79,37
320,893	79,27
321,422	84,52
321,95	75,52
322,479	90,3
323,007	82,58
323,535	89,6
324,063	77,4
324,591	74,6
325,118	80,65
325,646	79,26
326,173	84,15
326,701	72,31
327,228	76,44
327,755	80,2
328,282	82,12
328,809	82,94
329,336	72,14
329,862	75,43
330,389	67,53
330,915	76,68
331,441	80,12
331,968	90,45
332,494	67,86
333,02	77,65
333,545	79,89
334,071	68,21
334,597	68,54
335,122	70,74
335,648	66,35
336,173	74,05
336,698	67,55
337,223	77,54
337,748	66,67
338,272	69,68
338,797	77,05
339,322	74,59
339,846	74,19
340,37	62,84
340,894	66,67
341,419	80,46
341,942	73,02
342,466	76,17
342,99	80,63
343,514	67,65
344,037	68,62
344,56	66,03
345,084	70,15
345,607	65,05
346,13	66,2
346,653	71,5
347,175	66,99
347,698	68,84
348,221	63,38
348,743	62,18
349,265	64,53
349,787	62,44
350,309	54,66
350,831	57,74
351,353	64,93
351,875	61,13
352,397	60,34
352,918	55,83
353,439	62,45
353,961	56,3
354,482	60
355,003	56,79
355,524	60,49
356,044	64,73
356,565	55,69
357,086	53,56
357,606	45,96
358,126	55,17
358,646	50,19
359,167	61,74
359,687	59,11
360,206	57,04
360,726	55,64
361,246	57,74
361,765	53,99
362,285	53,16
362,804	53,96
363,323	53,55
363,842	60,92
364,361	48,54
364,88	49,51
365,398	52,63
365,917	53,09
366,435	56
366,954	51,14
367,472	53,48
367,99	50,65
368,508	51,33
369,026	55,45
369,544	47,8
370,061	46,88
370,579	52,47
371,096	46,83
371,613	54,13
372,131	47,54
372,648	46,15
373,165	47,67
373,681	47,29
374,198	45,27
374,715	48,15
375,231	47,34
375,747	43,39
376,264	44,13
376,78	46,7
377,296	39,9
377,812	46,58
378,327	44,36
378,843	42,71
379,359	41,04
379,874	42,68
380,389	39,05
380,905	34,41
381,42	40,22
381,935	42,64
382,449	35,33
382,964	33,68
383,479	34,98
383,993	37,89
384,508	36,84
385,022	37,52
385,536	33,27
386,05	36,72
386,564	36,59
387,078	36,56
387,592	33,39
388,105	32,73
388,619	29,44
389,132	34,38
389,645	32
390,158	32,75
390,671	30,95
391,184	29,31
391,697	31,74
392,21	27,88
392,722	29,35
393,235	27,48
393,747	28,37
394,259	31,41
394,771	30,15
395,283	28,5
395,795	24,74
396,307	25,88
396,818	25,71
397,33	27,41
397,841	24,57
398,353	27,39
398,864	23,54
399,375	24,61
399,886	21,65
400,397	26,05
400,907	21,48
401,418	20,25
401,928	21,27
402,439	18,6
402,949	19,39
403,459	19,09
403,969	19,13
404,479	18,85
404,989	19,62
405,498	16,6
406,008	17,08
406,517	17,49
407,027	15,41
407,536	14,46
408,045	14,48
408,554	15,51
409,063	15,42
409,572	13,33
410,08	13,76
410,589	13,47
411,097	11,77
411,606	11,62
412,114	11,64
412,622	11,44
413,13	11,1
413,638	10,67
414,145	9,62
414,653	10,14
415,16	9,92
415,668	10,24
416,175	9,13
416,682	9,22
417,189	8,86
417,696	8,45
418,203	8,54
418,71	8,5
419,216	8,65
419,723	8,22
420,229	8,02
420,735	8,71
421,242	7,2
421,748	7,93
422,254	7,8
422,759	7,02
423,265	7,35
423,771	6,91
424,276	6,89
424,781	7,38
425,287	7,02
425,792	6,82
426,297	6,99
426,802	6,99
427,306	6,96
427,811	6,87
428,316	6,73
428,82	6,68
429,324	6,49
429,829	6,88
430,333	6,55
430,837	6,59
431,34	6,24
431,844	6,34
432,348	6,1
432,851	6,13
433,355	5,48
433,858	5,97
434,361	6,25
434,864	6,15
435,367	6,44
435,87	6,35
436,373	6,26
436,876	6,26
437,378	5,62
437,88	6,1
438,383	5,59
438,885	5,97
439,387	5,76
439,889	5,82
440,391	5,54
440,892	5,48
441,394	6,31
441,896	5,73
442,397	5,98
442,898	5,97
443,399	5,71
443,9	5,84
444,401	5,39
444,902	6,25
445,403	5,61
445,903	5,63
446,404	6,29
446,904	5,88
447,405	5,8
447,905	5,93
448,405	5,91
448,905	5,69
449,404	6,14
449,904	5,98
450,404	6,17
450,903	5,76
451,403	6,34
451,902	6,23
452,401	6,23
452,9	6,47
453,399	6,15
453,898	5,77
454,396	6,06
454,895	5,95
455,393	6,28
455,892	6,2
456,39	6,12
456,888	5,93
457,386	6,22
457,884	6,31
458,382	6,06
458,879	6,54
459,377	6,28
459,874	6,5
460,372	6,4
460,869	6,33
461,366	6,08
461,863	6,43
462,36	6,44
462,857	6,24
463,353	6,23
463,85	6,29
464,346	5,84
464,843	6,16
465,339	6,1
465,835	6,12
466,331	6,72
466,827	6,05
467,323	6,4
467,818	5,89
468,314	6,37
468,809	6,14
469,305	6,11
469,8	6,05
470,295	6,14
470,79	6,01
471,285	6,26
471,78	6,42
472,274	6,03
472,769	5,84
473,263	5,96
473,758	6,14
474,252	6,04
474,746	6,17
475,24	6,01
475,734	5,91
476,228	6,15
476,721	6,22
477,215	6,26
477,708	6,25
478,202	6,01
478,695	6,04
479,188	6,31
479,681	6,26
480,174	6,14
480,667	6,13
481,159	6,42
481,652	5,95
482,144	6,05
482,637	6,24
483,129	6,33
483,621	6,16
484,113	6,16
484,605	6,4
485,097	6,4
485,588	6,42
486,08	6,59
486,571	6,41
487,063	6,34
487,554	6,42
488,045	6,33
488,536	6,32
489,027	6,46
489,518	6,71
490,008	6,38
490,499	6,31
490,989	6,68
491,48	6,8
491,97	6,85
492,46	7,15
492,95	7,01
493,44	7,26
493,93	6,81
494,419	7,17
494,909	7,4
495,398	7,24
495,888	7,29
496,377	7,64
496,866	7,73
497,355	7,59
497,844	8,06
498,333	7,59
498,821	7,9
499,31	7,81
499,798	8,26
500,287	8,4
500,775	8,31
501,263	8,56
501,751	8,38
502,239	8,82
502,727	8,68
503,215	8,82
503,702	9,07
504,19	9,42
504,677	9,62
505,164	9,69
505,651	10,04
506,139	10,09
506,625	10,37
507,112	9,93
507,599	10,39
508,086	10,52
508,572	10,77
509,058	11,38
509,545	10,95
510,031	11,65
510,517	11,92
511,003	11,83
511,489	12,18
511,974	12,53
512,46	12,56
512,946	13,03
513,431	13,46
513,916	13,32
514,401	13,77
514,887	13,95
515,371	14,34
515,856	14,5
516,341	14,7
516,826	15,5
517,31	15,3
517,795	15,54
518,279	16,42
518,763	16,07
519,247	16,52
519,731	17,02
520,215	17,02
520,699	17,37
521,182	17,79
521,666	18,15
522,149	18,31
522,633	18,84
523,116	18,62
523,599	19,22
524,082	19,59
524,565	19,91
525,048	19,99
525,53	20,54
526,013	20,77
526,495	21,34
526,978	20,37
527,46	21,49
527,942	22,2
528,424	21,97
528,906	21,67
529,388	22,14
529,87	22,34
530,351	22,9
530,833	22,32
531,314	22,91
531,795	23,27
532,277	23,35
532,758	23,57
533,238	23,28
533,719	23,39
534,2	23,77
534,681	23,53
535,161	23,51
535,642	23,92
536,122	24,52
536,602	24,59
537,082	23,99
537,562	24,6
538,042	24,59
538,522	24,65
539,001	24,72
539,481	24,21
539,96	24,55
540,44	24,6
540,919	24,38
541,398	25,05
541,877	24,89
542,356	25,06
542,835	24,97
543,313	25,11
543,792	24,67
544,27	25,36
544,749	25,06
545,227	24,99
545,705	25,85
546,183	25,01
546,661	24,84
547,139	25,22
547,616	25,15
548,094	25,54
548,571	25,38
549,049	25,25
549,526	25,39
550,003	25,23
550,48	26,16
550,957	25,38
551,434	25,47
551,911	25,55
552,387	26,19
552,864	25,3
553,34	25,47
553,817	25,78
554,293	25,78
554,769	25,51
555,245	25,46
555,721	25,36
556,197	25,45
556,672	25,84
557,148	25,47
557,623	25,34
558,099	25,83
558,574	25,39
559,049	25,29
559,524	25,22
559,999	25,44
560,474	25,26
560,948	25,05
561,423	25,24
561,897	25,31
562,372	25,21
562,846	25,46
563,32	24,67
563,794	24,89
564,268	24,6
564,742	24,09
565,216	24,23
565,69	24,17
566,163	23,76
566,636	24,42
567,11	23,68
567,583	23,65
568,056	23,76
568,529	23,18
569,002	23,28
569,475	22,83
569,947	22,7
570,42	22,46
570,892	22,64
571,365	22,23
571,837	22,14
572,309	21,62
572,781	21,9
573,253	21,63
573,725	21,56
574,197	21,6
574,668	21,17
575,14	21,21
575,611	21,13
576,082	21,21
576,554	20,58
577,025	20,34
577,496	20,14
577,967	20,17
578,437	19,86
578,908	20,23
579,379	19,87
579,849	19,63
580,319	19,6
580,79	19,53
581,26	19,12
581,73	19,17
582,2	19,02
582,669	19,02
583,139	18,62
583,609	19,02
584,078	18,66
584,548	18,66
585,017	18,35
585,486	18,33
585,955	18,59
586,424	18,21
586,893	18,18
587,362	18,48
587,83	18,18
588,299	18,09
588,767	17,99
589,236	18,06
589,704	17,61
590,172	17,83
590,64	17,47
591,108	17,56
591,576	17,49
592,043	17,32
592,511	17
592,978	17,19
593,446	17
593,913	17,11
594,38	16,78
594,847	17,21
595,314	16,83
595,781	16,67
596,248	16,77
596,715	16,72
597,181	16,68
597,647	16,76
598,114	16,88
598,58	16,76
599,046	16,8
599,512	16,47
599,978	16,64
600,444	16,77
600,91	16,52
601,375	16,37
601,841	16,41
602,306	16,43
602,771	16,43
603,236	16,37
603,702	16,05
604,167	16,15
604,631	16,16
605,096	15,95
605,561	15,84
606,025	15,88
606,49	16,08
606,954	15,76
607,418	15,77
607,882	15,72
608,347	15,47
608,81	15,67
609,274	15,41
609,738	15,35
610,202	15,16
610,665	15,4
611,128	15,18
611,592	15,12
612,055	14,91
612,518	14,7
612,981	15,14
613,444	14,64
613,907	14,76
614,369	14,44
614,832	14,52
615,294	14,39
615,757	14,29
616,219	14,09
616,681	14,17
617,143	13,95
617,605	13,88
618,067	14,02
618,529	13,86
618,99	13,73
619,452	13,54
619,913	13,79
620,375	13,63
620,836	13,59
621,297	13,59
621,758	13,47
622,219	13,69
622,68	13,45
623,14	13,29
623,601	13,18
624,061	13,32
624,522	12,97
624,982	13,25
625,442	13,06
625,902	13,15
626,362	12,97
626,822	13,14
627,282	12,95
627,742	12,99
628,201	13,19
628,661	12,89
629,12	13,11
629,579	12,83
630,038	12,97
630,497	12,77
630,956	12,67
631,415	12,78
631,874	12,73
632,332	12,74
632,791	12,85
633,249	12,59
633,708	12,6
634,166	12,5
634,624	12,51
635,082	12,34
635,54	12,26
635,998	12,4
636,455	12,36
636,913	12,05
637,37	12,03
637,828	11,76
638,285	11,81
638,742	11,76
639,199	11,65
639,656	11,46
640,113	11,37
640,57	11,21
641,027	11,16
641,483	10,96
641,94	11,07
642,396	10,72
642,852	10,65
643,309	10,48
643,765	10,26
644,221	10,3
644,676	9,9
645,132	10,03
645,588	9,94
646,043	9,75
646,499	9,68
646,954	9,36
647,409	9,47
647,864	9,43
648,319	9,2
648,774	9,16
649,229	9,06
649,684	8,93
650,139	8,87
650,593	8,8
651,047	8,68
651,502	8,89
651,956	8,76
652,41	8,65
652,864	8,54
653,318	8,64
653,772	8,53
654,225	8,51
654,679	8,34
655,133	8,26
655,586	8,37
656,039	8,36
656,492	8,17
656,946	8,15
657,399	8,14
657,851	8,07
658,304	7,98
658,757	7,93
659,209	7,68
659,662	7,84
660,114	7,58
660,567	7,7
661,019	7,49
661,471	7,42
661,923	7,3
662,375	7,21
662,826	7,22
663,278	6,99
663,73	7,02
664,181	7,16
664,632	6,91
665,084	6,94
665,535	6,75
665,986	6,91
666,437	6,63
666,888	6,62
667,338	6,66
667,789	6,61
668,24	6,51
668,69	6,61
669,14	6,49
669,591	6,59
670,041	6,45
670,491	6,51
670,941	6,54
671,391	6,57
671,84	6,63
672,29	6,67
672,74	6,64
673,189	6,86
673,638	6,87
674,088	6,75
674,537	6,86
674,986	6,96
675,435	6,82
675,883	6,86
676,332	7,07
676,781	7,2
677,229	7,21
677,678	7,25
678,126	7,58
678,574	7,56
679,022	7,62
679,47	7,86
679,918	7,74
680,366	8
680,814	7,98
681,261	8,19
681,709	8,41
682,156	8,43
682,604	8,45
683,051	8,7
683,498	8,81
683,945	9,01
684,392	9,08
684,839	9,36
685,286	9,52
685,732	9,63
686,179	9,75
686,625	9,81
687,071	10,4
687,518	10,38
687,964	10,54
688,41	11,03
688,856	11,08
689,301	11,34
689,747	11,62
690,193	12,27
690,638	12,38
691,084	12,66
691,529	13,06
691,974	13,72
692,419	13,82
692,864	14,58
693,309	14,85
693,754	15,37
694,199	15,71
694,643	16,35
695,088	16,77
695,532	17,16
695,977	17,86
696,421	18,11
696,865	18,72
697,309	19,32
697,753	19,36
698,197	20,23
698,64	20,82
699,084	21,11
699,527	21,72
699,971	22,06
700,414	22,65
700,857	23,03
701,3	23,48
701,743	24,01
702,186	24,45
702,629	25,12
703,072	25,49
703,515	26,1
703,957	26,26
704,399	26,78
704,842	27,3
705,284	27,7
705,726	28,09
706,168	28,27
706,61	28,84
707,052	29,28
707,494	29,87
707,935	30,21
708,377	30,61
708,818	30,84
709,26	31,27
709,701	31,39
710,142	31,85
710,583	31,98
711,024	32,61
711,465	32,93
711,905	33,31
712,346	33,62
712,787	33,85
713,227	34,29
713,667	34,68
714,108	34,62
714,548	35,68
714,988	35,62
715,428	35,82
715,868	36,15
716,307	36,44
716,747	36,67
717,186	36,99
717,626	37,37
718,065	37,46
718,504	37,59
718,944	38,22
719,383	38,63
719,822	38,16
720,261	38,87
720,699	39,01
721,138	39,24
721,576	39,41
722,015	39,79
722,453	40,17
722,892	39,92
723,33	40,74
723,768	40,4
724,206	40,51
724,644	41,06
725,081	40,88
725,519	41,4
725,957	41,68
726,394	41,82
726,832	41,85
727,269	41,92
727,706	42,15
728,143	42,37
728,58	42,13
729,017	42,86
729,454	42,77
729,89	42,61
730,327	43,1
730,764	43,04
731,2	43,26
731,636	43,5
732,072	43,14
732,509	43,66
732,945	43,7
733,38	43,38
733,816	43,35
734,252	43,92
734,688	43,97
735,123	44,19
735,559	43,83
735,994	44,1
736,429	44,14
736,864	44,26
737,299	44,2
737,734	44,78
738,169	44,61
738,604	44,37
739,038	44,41
739,473	44,6
739,907	44,27
740,342	45,05
740,776	44,77
741,21	44,5
741,644	44,26
742,078	44,43
742,512	44,84
742,946	44,73
743,379	44,74
743,813	44,6
744,246	44,31
744,68	44,96
745,113	44,43
745,546	44,86
745,979	44,39
746,412	44,61
746,845	44,39
747,278	44,93
747,711	44,53
748,143	44,46
748,576	44,43
749,008	44,74
749,441	44,66
749,873	44,27
750,305	44,55
750,737	44,38
751,169	44,22
751,601	44,43
752,032	44,62
752,464	44,36
752,896	44,27
753,327	44,48
753,758	44,33
754,19	44,12
754,621	44,08
755,052	43,74
755,483	44,24
755,914	43,99
756,344	44,27
756,775	44,03
757,206	43,89
757,636	43,97
758,066	43,9
758,497	43,83
758,927	43,83
759,357	43,72
759,787	43,95
760,217	43,61
760,647	43,66
761,076	43,15
761,506	43,51
761,935	43,76
762,365	43,68
762,794	43,55
763,223	43,89
763,653	43,39
764,082	42,94
764,51	43,28
764,939	43,13
765,368	43,45
765,797	43,05
766,225	43,36
766,654	43,44
767,082	43,2
767,51	43,02
767,938	43,03
768,367	43,26
768,795	43
769,222	43,14
769,65	43,14
770,078	43,25
770,505	42,75
770,933	42,6
771,36	42,79
771,788	42,9
772,215	42,87
772,642	42,83
773,069	42,74
773,496	42,86
773,923	42,83
774,349	42,63
774,776	42,78
775,203	42,67
775,629	43,06
776,055	42,68
776,482	42,37
776,908	42,55
777,334	42,42
777,76	42,25
778,186	42,79
778,611	42,62
779,037	42,61
779,463	42,43
779,888	42,39
780,314	42,27
780,739	42,34
781,164	42,54
781,589	42,17
782,014	42,36
782,439	42,28
782,864	42,44
783,289	42,48
783,713	42,75
784,138	42,23
784,562	42,45
784,987	42,29
785,411	42,62
785,835	42,29
786,259	41,88
786,683	42,01
787,107	42,13
787,531	42,15
787,954	42,12
788,378	42,33
788,802	42,06
789,225	42,12
789,648	41,98
790,071	42,17
790,495	41,92
790,918	41,9
791,34	42,28
791,763	42,2
792,186	41,99
792,609	42,05
793,031	42,14
793,454	42,17
793,876	42,08
794,298	41,89
794,721	42,06
795,143	41,96
795,565	41,63
795,986	42,19
796,408	41,88
796,83	41,9
797,252	41,85
797,673	41,99
798,094	41,97
798,516	42,24
798,937	42,01
799,358	42,02
799,779	42
800,2	41,6
800,621	41,55
801,042	41,78
801,462	41,69
801,883	41,91
802,303	41,77
802,724	41,92
803,144	41,96
803,564	41,37
803,984	42,21
804,404	41,49
804,824	41,81
805,244	41,71
805,664	41,74
806,084	41,76
806,503	41,63
806,923	41,9
807,342	41,62
807,761	41,76
808,18	41,94
808,599	41,5
809,018	41,86
809,437	41,63
809,856	41,91
810,275	41,8
810,693	41,7
811,112	42,12
811,53	41,68
811,949	41,57
812,367	42,17
812,785	41,53
813,203	41,66
813,621	41,51
814,039	41,58
814,457	41,58
814,874	41,42
815,292	41,14
815,709	41,6
816,127	41,92
816,544	41,38
816,961	41,46
817,378	41,75
817,795	41,75
818,212	41,37
818,629	41,9
819,046	41,97
819,462	41,68
819,879	41,39
820,295	41,83
820,712	41,22
821,128	41,52
821,544	41,5
821,96	41,53
822,376	41,74
822,792	41,84
823,208	41,64
823,624	41,44
824,039	41,19
824,455	41,6
824,87	41,46
825,286	41,82
825,701	41,44
826,116	41,29
826,531	41,7
826,946	41,88
827,361	41,57
827,776	41,41
828,19	41,32
828,605	41,47
829,02	41,44
829,434	41,35
829,848	41,42
830,263	40,98
830,677	41,76
831,091	41,78
831,505	41,48
831,919	41,3
832,332	41,5
832,746	41,25
833,16	41,49
833,573	41,13
833,987	41,55
834,4	40,99
834,813	41,37
835,226	41,16
835,639	41,34
836,052	41,35
836,465	41,25
836,878	41,08
837,29	41,55
837,703	41,56
838,116	40,93
838,528	41,42
838,94	41,26
839,352	41,22
839,765	41,49
840,177	41,19
840,589	41,42
841	41,37
841,412	40,99
