Data from G2__Relative__7__00085.txt Node

Date: Thu Feb 01 16:24:49 CET 2024
User: diatiterra
Spectrometer: HDX00911
Trigger mode: 0
Integration Time (sec): 6,000000E-3
Scans to average: 2
Nonlinearity correction enabled: false
Boxcar width: 0
Storing dark spectrum: false
XAxis mode: Wavelengths
Number of Pixels in Spectrum: 2068
>>>>>Begin Spectral Data<<<<<
194,468	201,54
195,025	126,39
195,581	150
196,138	133,82
196,694	118,68
197,251	102,38
197,807	91,86
198,363	84,02
198,919	72,83
199,474	75,16
200,03	86,93
200,586	90,51
201,141	70,62
201,696	83,24
202,251	69,06
202,806	77,59
203,361	83,61
203,916	82,16
204,471	75,54
205,025	83,24
205,58	80,92
206,134	80,85
206,688	73,82
207,242	80,81
207,796	68,69
208,35	78,49
208,904	74,58
209,457	90
210,011	89,57
210,564	81,18
211,117	98,04
211,67	81,46
212,223	79,38
212,776	84,49
213,329	83,96
213,881	84,46
214,434	79
214,986	90,96
215,538	84,24
216,09	76,56
216,642	81,33
217,194	87,06
217,746	87,43
218,297	78,33
218,849	82,56
219,4	68,89
219,951	83,43
220,502	84,02
221,053	89,29
221,604	85,8
222,155	77,54
222,705	86,55
223,256	76,4
223,806	77,71
224,356	70,62
224,906	98,18
225,456	70,05
226,006	79,23
226,556	79,46
227,106	83,54
227,655	70,16
228,204	64,41
228,754	92,53
229,303	88,82
229,852	81,11
230,401	85,19
230,949	80,79
231,498	84,04
232,047	86,11
232,595	79,89
233,143	86,84
233,691	85,71
234,239	83,61
234,787	86,63
235,335	83,72
235,883	73,68
236,43	93,55
236,978	78,19
237,525	67,84
238,072	71,11
238,619	86,59
239,166	75,98
239,713	79,89
240,26	83,04
240,806	93,25
241,353	76,74
241,899	80,77
242,445	78,7
242,991	81,62
243,537	81,05
244,083	80,77
244,629	78
245,174	73,56
245,72	77,65
246,265	72,77
246,81	73,86
247,355	78,02
247,9	77,06
248,445	98,73
248,99	75,56
249,534	79,78
250,079	79,52
250,623	74,46
251,168	86,78
251,712	77,06
252,256	84,47
252,8	79,66
253,343	79,67
253,887	78,69
254,43	84,09
254,974	80,45
255,517	78,53
256,06	90,91
256,603	78,65
257,146	74,03
257,689	76,19
258,232	68,78
258,774	80,95
259,317	77,47
259,859	71,2
260,401	74,16
260,943	86,62
261,485	80,54
262,027	73,54
262,569	96,03
263,11	73,45
263,652	76,92
264,193	78,41
264,734	74,27
265,275	78,65
265,816	78,92
266,357	88,36
266,898	60,61
267,438	76,58
267,979	72,73
268,519	79,76
269,059	86,14
269,6	78,69
270,14	66,33
270,68	82,19
271,219	74,71
271,759	94,87
272,298	74,59
272,838	77,78
273,377	70,95
273,916	95,3
274,455	78,46
274,994	71,11
275,533	79,64
276,072	80,24
276,61	77,51
277,149	87,06
277,687	88,55
278,225	84,71
278,763	71,1
279,301	71,81
279,839	80,85
280,377	72,67
280,914	72,16
281,452	75,98
281,989	78,82
282,526	89,24
283,064	82,5
283,601	75,84
284,137	75,46
284,674	83,15
285,211	84,41
285,747	82,41
286,284	65,88
286,82	69,79
287,356	69,59
287,892	78,45
288,428	78,74
288,964	79,03
289,5	84,39
290,035	79,55
290,571	73,54
291,106	74,72
291,641	87,21
292,176	81,18
292,711	79,65
293,246	70,11
293,781	77,9
294,315	63,27
294,85	83,23
295,384	76,88
295,918	77,13
296,453	75,14
296,987	76,5
297,52	64,67
298,054	79,31
298,588	73,78
299,121	77,65
299,655	68,24
300,188	85,33
300,721	77,02
301,254	80,42
301,787	77,42
302,32	68,91
302,853	78,77
303,385	80,43
303,918	84,57
304,45	75
304,982	69,49
305,514	78,19
306,046	77,17
306,578	80,21
307,11	84,53
307,641	81,32
308,173	79,78
308,704	83,52
309,236	82,74
309,767	77,37
310,298	86,79
310,829	72
311,359	78,26
311,89	80,12
312,421	78,38
312,951	86,29
313,481	84,12
314,012	78,65
314,542	84,57
315,072	76,8
315,601	90,91
316,131	79,79
316,661	81,82
317,19	79,77
317,72	86,14
318,249	84,44
318,778	100
319,307	83,33
319,836	90,96
320,365	85,71
320,893	79,79
321,422	86,9
321,95	75,52
322,479	102,42
323,007	87,08
323,535	91,33
324,063	80,23
324,591	84,13
325,118	76,34
325,646	87,23
326,173	81,97
326,701	71,79
327,228	88,48
327,755	85,28
328,282	86,59
328,809	91,76
329,336	74,63
329,862	79,43
330,389	69,59
330,915	73,58
331,441	82,46
331,968	92,13
332,494	73,47
333,02	74,86
333,545	66,14
334,071	72,31
334,597	82,02
335,122	81,91
335,648	69,23
336,173	71,35
336,698	70,74
337,223	77,54
337,748	61,69
338,272	61,17
338,797	72,13
339,322	72,97
339,846	79,03
340,37	65,03
340,894	60,2
341,419	81,03
341,942	68,78
342,466	73,58
342,99	81,68
343,514	65,2
344,037	70,74
344,56	58,85
345,084	71,14
345,607	67,48
346,13	71,83
346,653	71,5
347,175	63,16
347,698	69,35
348,221	68,54
348,743	57,14
349,265	74,88
349,787	55,12
350,309	55,47
350,831	60,25
351,353	61,61
351,875	60,32
352,397	53,45
352,918	61,25
353,439	58,65
353,961	55,51
354,482	61,7
355,003	54,32
355,524	57,2
356,044	64,32
356,565	55,28
357,086	50,56
357,606	45,11
358,126	58,62
358,646	54,28
359,167	55,65
359,687	54,65
360,206	56,3
360,726	50,19
361,246	54,72
361,765	52,17
362,285	53,9
362,804	51,8
363,323	52,13
363,842	56,69
364,361	49,27
364,88	47,57
365,398	50,53
365,917	46,6
366,435	50,67
366,954	48,21
367,472	50,32
367,99	42,53
368,508	48,33
369,026	47,12
369,544	44,34
370,061	45,4
370,579	45,37
371,096	38,29
371,613	47,58
372,131	41,74
372,648	51,57
373,165	43,84
373,681	45,18
374,198	39,54
374,715	42,17
375,231	41,01
375,747	42,06
376,264	40,21
376,78	41,12
377,296	37,98
377,812	37,72
378,327	42,11
378,843	41,69
379,359	34,2
379,874	40,45
380,389	34,99
380,905	32,69
381,42	35,33
381,935	32,41
382,449	31,4
382,964	32,64
383,479	30,04
383,993	31,88
384,508	35,53
385,022	32,88
385,536	31,5
386,05	29,57
386,564	33,04
387,078	29,21
387,592	28,77
388,105	26,45
388,619	24,48
389,132	26,09
389,645	26,08
390,158	27,78
390,671	27,29
391,184	26,37
391,697	26,4
392,21	26,1
392,722	26,83
393,235	27,08
393,747	24,84
394,259	24,93
394,771	24,56
395,283	25,46
395,795	23,97
396,307	24,87
396,818	20,44
397,33	25,1
397,841	22,75
398,353	22,79
398,864	23,06
399,375	22,27
399,886	20,02
400,397	20,61
400,907	19,41
401,418	18,63
401,928	20,42
402,439	19,89
402,949	17,92
403,459	20,11
403,969	17,71
404,479	17,16
404,989	14,71
405,498	16,18
406,008	15,2
406,517	14,67
407,027	15,41
407,536	15,39
408,045	14,97
408,554	15,37
409,063	13,9
409,572	11,66
410,08	13,15
410,589	12,13
411,097	10,79
411,606	11,25
412,114	10,4
412,622	10,2
413,13	11,57
413,638	9,64
414,145	8,91
414,653	9,32
415,16	9,88
415,668	9,16
416,175	9,33
416,682	8,51
417,189	7,96
417,696	8,27
418,203	7,72
418,71	8,08
419,216	7,93
419,723	7,49
420,229	7,52
420,735	7,3
421,242	7,02
421,748	7,08
422,254	6,92
422,759	6,08
423,265	7,26
423,771	7,78
424,276	5,91
424,781	6,92
425,287	6,78
425,792	6,82
426,297	6,32
426,802	6,39
427,306	6,27
427,811	6,02
428,316	6,14
428,82	6,07
429,324	6,22
429,829	6,13
430,333	6,28
430,837	5,66
431,34	5,78
431,844	5,7
432,348	5,72
432,851	5,6
433,355	5,35
433,858	5,73
434,361	5,85
434,864	5,65
435,367	5,49
435,87	5,29
436,373	5,52
436,876	5,62
437,378	5,43
437,88	5,69
438,383	5,07
438,885	5,5
439,387	5,34
439,889	5,23
440,391	4,96
440,892	4,96
441,394	4,98
441,896	5,24
442,397	5,49
442,898	4,87
443,399	5,2
443,9	5,05
444,401	5,2
444,902	5
445,403	5,34
445,903	4,84
446,404	5,08
446,904	4,93
447,405	5,2
447,905	5,01
448,405	4,88
448,905	4,93
449,404	4,91
449,904	5,09
450,404	4,98
450,903	4,77
451,403	5,05
451,902	5,37
452,401	4,82
452,9	5,02
453,399	5,22
453,898	4,68
454,396	5
454,895	4,62
455,393	5,08
455,892	5,3
456,39	5,2
456,888	4,8
457,386	5,4
457,884	4,68
458,382	4,71
458,879	5,05
459,377	5,16
459,874	5,23
460,372	4,79
460,869	5,22
461,366	4,72
461,863	5,47
462,36	4,99
462,857	4,94
463,353	5,22
463,85	4,49
464,346	4,93
464,843	5,03
465,339	4,57
465,835	4,86
466,331	5,01
466,827	5,04
467,323	5,13
467,818	4,6
468,314	4,84
468,809	4,73
469,305	4,69
469,8	4,91
470,295	4,74
470,79	5,07
471,285	4,73
471,78	4,94
472,274	4,85
472,769	4,76
473,263	5,09
473,758	4,91
474,252	4,81
474,746	4,87
475,24	4,51
475,734	4,82
476,228	4,82
476,721	4,77
477,215	4,58
477,708	4,7
478,202	4,87
478,695	5,01
479,188	4,8
479,681	4,69
480,174	4,64
480,667	4,84
481,159	4,81
481,652	4,71
482,144	4,85
482,637	4,85
483,129	4,93
483,621	4,97
484,113	4,97
484,605	4,87
485,097	4,82
485,588	4,94
486,08	5,14
486,571	4,85
487,063	4,79
487,554	4,78
488,045	5,18
488,536	4,76
489,027	4,77
489,518	4,89
490,008	4,9
490,499	4,97
490,989	4,86
491,48	5,02
491,97	4,84
492,46	5,16
492,95	5,06
493,44	5,36
493,93	5,07
494,419	4,84
494,909	5,13
495,398	5,11
495,888	5,09
496,377	5,19
496,866	5,37
497,355	5,58
497,844	5,23
498,333	5,81
498,821	5,58
499,31	5,58
499,798	5,71
500,287	5,57
500,775	5,9
501,263	5,56
501,751	5,65
502,239	6,14
502,727	5,94
503,215	6,31
503,702	6,29
504,19	6,14
504,677	6,6
505,164	6,47
505,651	6,39
506,139	6,79
506,625	7
507,112	6,97
507,599	6,9
508,086	7,05
508,572	7,03
509,058	7,49
509,545	7,64
510,031	7,86
510,517	7,77
511,003	7,81
511,489	7,9
511,974	8,25
512,46	8,35
512,946	8,7
513,431	8,65
513,916	8,93
514,401	9,06
514,887	9,39
515,371	9,72
515,856	9,59
516,341	9,91
516,826	9,91
517,31	10,47
517,795	10,73
518,279	11,32
518,763	11,33
519,247	11,52
519,731	11,63
520,215	11,93
520,699	11,9
521,182	12,32
521,666	12,61
522,149	12,78
522,633	13,47
523,116	13,46
523,599	13,97
524,082	14,15
524,565	14,28
525,048	14,44
525,53	15,05
526,013	14,75
526,495	15,22
526,978	15,09
527,46	15,68
527,942	16,14
528,424	16,12
528,906	16,08
529,388	16,61
529,87	16,85
530,351	17,02
530,833	17
531,314	17,18
531,795	17,34
532,277	17,37
532,758	17,64
533,238	17,64
533,719	17,55
534,2	18,09
534,681	17,52
535,161	17,95
535,642	18,46
536,122	18,41
536,602	18,42
537,082	18,5
537,562	18,52
538,042	18,82
538,522	18,83
539,001	18,54
539,481	18,51
539,96	18,51
540,44	18,85
540,919	19,08
541,398	19,24
541,877	18,65
542,356	18,69
542,835	18,88
543,313	19,35
543,792	19,04
544,27	19,19
544,749	19
545,227	19,61
545,705	19,42
546,183	19,49
546,661	19,49
547,139	19,27
547,616	19,24
548,094	19,97
548,571	19,74
549,049	19,57
549,526	19,45
550,003	19,65
550,48	20,22
550,957	19,57
551,434	19,62
551,911	19,87
552,387	19,5
552,864	19,91
553,34	19,74
553,817	19,59
554,293	19,57
554,769	19,78
555,245	20,07
555,721	19,65
556,197	19,99
556,672	19,86
557,148	19,73
557,623	19,39
558,099	19,51
558,574	19,59
559,049	19,46
559,524	19,57
559,999	19,67
560,474	19,34
560,948	19,1
561,423	19
561,897	18,92
562,372	19,03
562,846	18,75
563,32	18,98
563,794	18,84
564,268	18,49
564,742	18,47
565,216	18,42
565,69	18,56
566,163	17,99
566,636	17,94
567,11	18,02
567,583	18,05
568,056	17,85
568,529	17,36
569,002	17,46
569,475	17,39
569,947	17,07
570,42	16,98
570,892	16,3
571,365	16,46
571,837	16,36
572,309	15,51
572,781	16,14
573,253	15,83
573,725	15,87
574,197	15,75
574,668	15,12
575,14	15,49
575,611	15
576,082	15,06
576,554	14,92
577,025	14,75
577,496	14,71
577,967	14,64
578,437	14,49
578,908	14,43
579,379	14,42
579,849	14,05
580,319	14,14
580,79	13,84
581,26	13,6
581,73	13,67
582,2	13,37
582,669	13,48
583,139	13,52
583,609	13,32
584,078	13,12
584,548	13,07
585,017	12,96
585,486	12,79
585,955	13,19
586,424	12,8
586,893	12,81
587,362	12,36
587,83	12,57
588,299	12,5
588,767	12,42
589,236	12,5
589,704	12,38
590,172	12,35
590,64	12,41
591,108	12,16
591,576	12,19
592,043	12,23
592,511	11,87
592,978	11,88
593,446	12,01
593,913	11,94
594,38	11,97
594,847	11,78
595,314	12,01
595,781	11,69
596,248	11,53
596,715	11,56
597,181	11,59
597,647	11,64
598,114	11,56
598,58	11,52
599,046	11,36
599,512	11,41
599,978	11,5
600,444	11,3
600,91	11,42
601,375	11,38
601,841	11,33
602,306	11,46
602,771	11,49
603,236	11,34
603,702	11,28
604,167	11,23
604,631	11,08
605,096	11,11
605,561	11
606,025	10,92
606,49	10,88
606,954	10,91
607,418	10,75
607,882	10,86
608,347	10,63
608,81	10,69
609,274	10,51
609,738	10,6
610,202	10,45
610,665	10,29
611,128	10,38
611,592	10,17
612,055	10,05
612,518	10,06
612,981	10,1
613,444	9,8
613,907	9,98
614,369	9,75
614,832	9,64
615,294	9,68
615,757	9,47
616,219	9,46
616,681	9,54
617,143	9,42
617,605	9,4
618,067	9,27
618,529	9,29
618,99	9,11
619,452	9,21
619,913	9,17
620,375	9,19
620,836	9,03
621,297	8,95
621,758	8,93
622,219	8,8
622,68	8,7
623,14	8,84
623,601	8,79
624,061	8,73
624,522	8,84
624,982	8,65
625,442	8,54
625,902	8,7
626,362	8,65
626,822	8,73
627,282	8,56
627,742	8,48
628,201	8,58
628,661	8,67
629,12	8,44
629,579	8,71
630,038	8,26
630,497	8,64
630,956	8,57
631,415	8,41
631,874	8,44
632,332	8,47
632,791	8,18
633,249	8,33
633,708	8,33
634,166	8,34
634,624	8,32
635,082	8,15
635,54	8,1
635,998	8,03
636,455	8,15
636,913	7,87
637,37	7,87
637,828	7,78
638,285	7,71
638,742	7,69
639,199	7,49
639,656	7,64
640,113	7,4
640,57	7,41
641,027	7,28
641,483	7,28
641,94	7,09
642,396	7,12
642,852	6,91
643,309	6,87
643,765	6,85
644,221	6,72
644,676	6,86
645,132	6,59
645,588	6,72
646,043	6,44
646,499	6,41
646,954	6,3
647,409	6,3
647,864	6,27
648,319	6,18
648,774	6,13
649,229	6,07
649,684	6,04
650,139	5,92
650,593	5,95
651,047	5,95
651,502	5,81
651,956	5,73
652,41	5,89
652,864	5,8
653,318	5,74
653,772	5,78
654,225	5,73
654,679	5,7
655,133	5,7
655,586	5,65
656,039	5,65
656,492	5,66
656,946	5,49
657,399	5,64
657,851	5,42
658,304	5,46
658,757	5,51
659,209	5,43
659,662	5,27
660,114	5,32
660,567	5,18
661,019	5,25
661,471	5,21
661,923	5,01
662,375	5,04
662,826	5,07
663,278	4,97
663,73	4,84
664,181	5
664,632	4,93
665,084	4,91
665,535	4,95
665,986	4,79
666,437	4,92
666,888	4,8
667,338	4,88
667,789	4,8
668,24	4,84
668,69	4,93
669,14	4,83
669,591	4,93
670,041	4,95
670,491	4,86
670,941	4,96
671,391	4,92
671,84	4,92
672,29	5,18
672,74	5,06
673,189	5,07
673,638	5,1
674,088	5,14
674,537	5,38
674,986	5,43
675,435	5,36
675,883	5,4
676,332	5,56
676,781	5,61
677,229	5,62
677,678	5,79
678,126	5,84
678,574	5,85
679,022	6
679,47	6,17
679,918	6,05
680,366	6,17
680,814	6,44
681,261	6,41
681,709	6,44
682,156	6,53
682,604	6,73
683,051	6,79
683,498	6,78
683,945	6,95
684,392	6,93
684,839	7,17
685,286	7,2
685,732	7,28
686,179	7,34
686,625	7,41
687,071	7,56
687,518	7,55
687,964	7,69
688,41	7,9
688,856	7,87
689,301	8,08
689,747	8,23
690,193	8,52
690,638	8,6
691,084	8,89
691,529	9,21
691,974	9,46
692,419	9,64
692,864	10,11
693,309	10,34
693,754	10,54
694,199	11,17
694,643	11,43
695,088	11,67
695,532	12,25
695,977	12,52
696,421	13,12
696,865	13,5
697,309	14,02
697,753	14,41
698,197	14,8
698,64	15,16
699,084	15,76
699,527	16,22
699,971	16,78
700,414	17,33
700,857	17,75
701,3	18,42
701,743	18,77
702,186	19,12
702,629	19,69
703,072	20,33
703,515	20,92
703,957	21,1
704,399	21,69
704,842	22,35
705,284	22,77
705,726	23,4
706,168	23,7
706,61	24,14
707,052	24,52
707,494	25,11
707,935	25,61
708,377	26,02
708,818	26,4
709,26	26,77
709,701	27,22
710,142	27,84
710,583	27,95
711,024	28,66
711,465	28,84
711,905	29,6
712,346	30,05
712,787	30,42
713,227	30,77
713,667	31,16
714,108	31,71
714,548	32,4
714,988	32,53
715,428	32,68
715,868	33,37
716,307	33,38
716,747	33,74
717,186	34,43
717,626	35,19
718,065	35,16
718,504	35,52
718,944	36,12
719,383	36,41
719,822	36,58
720,261	36,64
720,699	37,16
721,138	37,63
721,576	37,68
722,015	38,15
722,453	38,25
722,892	38,74
723,33	39,02
723,768	39,25
724,206	39,91
724,644	39,99
725,081	40,44
725,519	40,71
725,957	40,88
726,394	41,14
726,832	41,19
727,269	41,48
727,706	41,72
728,143	42,03
728,58	42,14
729,017	42,52
729,454	42,37
729,89	42,49
730,327	42,98
730,764	42,8
731,2	43,61
731,636	43,31
732,072	43,36
732,509	43,85
732,945	44,06
733,38	43,76
733,816	44,1
734,252	44,39
734,688	44,33
735,123	44,53
735,559	44,49
735,994	44,7
736,429	44,75
736,864	44,78
737,299	44,77
737,734	45,36
738,169	45,27
738,604	45,13
739,038	45,44
739,473	45,3
739,907	45,25
740,342	45,56
740,776	45,4
741,21	45,26
741,644	45,69
742,078	45,48
742,512	45,75
742,946	45,39
743,379	45,79
743,813	45,58
744,246	45,1
744,68	46,07
745,113	45,25
745,546	45,98
745,979	45,75
746,412	45,86
746,845	45,58
747,278	45,93
747,711	45,75
748,143	45,61
748,576	45,8
749,008	45,66
749,441	45,89
749,873	45,71
750,305	46
750,737	45,6
751,169	45,1
751,601	45,61
752,032	45,8
752,464	45,61
752,896	45,34
753,327	45,31
753,758	45,65
754,19	45,65
754,621	45,66
755,052	45,5
755,483	45,28
755,914	45,23
756,344	45,44
756,775	45,41
757,206	45,5
757,636	45,19
758,066	45,13
758,497	45,31
758,927	45,03
759,357	45,17
759,787	45,26
760,217	44,98
760,647	44,97
761,076	44,9
761,506	44,91
761,935	45,21
762,365	45,5
762,794	44,67
763,223	44,93
763,653	44,78
764,082	44,78
764,51	44,82
764,939	44,6
765,368	45,11
765,797	44,56
766,225	44,7
766,654	44,68
767,082	44,79
767,51	44,41
767,938	44,4
768,367	44,31
768,795	44,36
769,222	44,55
769,65	44,45
770,078	44,77
770,505	44,32
770,933	44,43
771,36	44,6
771,788	44,43
772,215	44,58
772,642	44,06
773,069	44,06
773,496	44,16
773,923	44,31
774,349	43,95
774,776	44,19
775,203	44
775,629	44,37
776,055	44,25
776,482	44,04
776,908	43,9
777,334	44,02
777,76	43,87
778,186	43,8
778,611	43,96
779,037	44,1
779,463	43,94
779,888	43,75
780,314	43,93
780,739	43,9
781,164	43,78
781,589	44,08
782,014	43,56
782,439	43,69
782,864	44,31
783,289	43,45
783,713	43,93
784,138	43,59
784,562	43,93
784,987	43,84
785,411	43,96
785,835	43,62
786,259	43,47
786,683	43,86
787,107	43,53
787,531	43,67
787,954	43,91
788,378	43,96
788,802	43,68
789,225	43,56
789,648	43,62
790,071	43,78
790,495	43,47
790,918	43,4
791,34	43,8
791,763	43,63
792,186	43,51
792,609	43,37
793,031	43,83
793,454	43,25
793,876	43,34
794,298	43,54
794,721	43,74
795,143	43,38
795,565	43,42
795,986	43,61
796,408	43,13
796,83	43,63
797,252	43,63
797,673	43,64
798,094	43,43
798,516	43,54
798,937	43,55
799,358	43,4
799,779	43,66
800,2	43,17
800,621	43,27
801,042	43,53
801,462	43,58
801,883	43,15
802,303	43,22
802,724	43,37
803,144	43,34
803,564	43,29
803,984	43,49
804,404	43,21
804,824	43,43
805,244	43,49
805,664	43,37
806,084	43,57
806,503	43,26
806,923	43,48
807,342	43,54
807,761	43,16
808,18	43,47
808,599	43,38
809,018	43,06
809,437	43,35
809,856	43,24
810,275	43,35
810,693	43,33
811,112	43,08
811,53	43,01
811,949	43,59
812,367	43,56
812,785	43,15
813,203	43,36
813,621	43,14
814,039	42,9
814,457	42,97
814,874	43,32
815,292	43,37
815,709	43,35
816,127	43,06
816,544	43,16
816,961	43,12
817,378	43,4
817,795	43,32
818,212	42,82
818,629	43,13
819,046	43,5
819,462	43,3
819,879	42,96
820,295	43,05
820,712	42,98
821,128	42,8
821,544	42,96
821,96	43,13
822,376	43,24
822,792	42,78
823,208	43,32
823,624	42,8
824,039	43,13
824,455	43,13
824,87	42,86
825,286	43,12
825,701	43,25
826,116	42,59
826,531	43,12
826,946	43,06
827,361	42,97
827,776	42,87
828,19	43,06
828,605	42,65
829,02	43,35
829,434	42,59
829,848	42,87
830,263	42,75
830,677	43,14
831,091	43,53
831,505	43,13
831,919	43,12
832,332	42,69
832,746	42,71
833,16	42,62
833,573	42,74
833,987	43,21
834,4	42,61
834,813	42,8
835,226	42,43
835,639	43,08
836,052	43,23
836,465	42,67
836,878	42,85
837,29	43,15
837,703	42,82
838,116	42,55
838,528	42,97
838,94	42,75
839,352	42,71
839,765	42,81
840,177	42,7
840,589	42,7
841	42,75
841,412	42,76
841,824	42,94
842,235	43,06
842,647	42,91
843,058	42,51
843,47	42,69
843,881	42,81
844,292	42,99
844,703	42,85
845,114	42,64
