Data from G4__Relative__0__00087.txt Node

Date: Thu Feb 01 16:25:15 CET 2024
User: diatiterra
Spectrometer: HDX00911
Trigger mode: 0
Integration Time (sec): 6,000000E-3
Scans to average: 2
Nonlinearity correction enabled: false
Boxcar width: 0
Storing dark spectrum: false
XAxis mode: Wavelengths
Number of Pixels in Spectrum: 2068
>>>>>Begin Spectral Data<<<<<
194,468	201,54
195,025	118,06
195,581	153,03
196,138	126,47
196,694	108,79
197,251	107,94
197,807	78,49
198,363	72,19
198,919	67,93
199,474	79,62
200,03	78,98
200,586	83,54
201,141	67,53
201,696	76,3
202,251	67,96
202,806	86,21
203,361	77,05
203,916	77,3
204,471	79,89
205,025	81,08
205,58	82,66
206,134	67,55
206,688	74,35
207,242	77,91
207,796	60,61
208,35	87,79
208,904	75,71
209,457	77,06
210,011	82,21
210,564	75,27
211,117	92,16
211,67	80,34
212,223	85,05
212,776	74,33
213,329	80,75
213,881	67,88
214,434	78,5
214,986	94,58
215,538	76,09
216,09	75
216,642	83,73
217,194	87,65
217,746	85,14
218,297	73,89
218,849	82,56
219,4	75,56
219,951	84,57
220,502	71,01
221,053	85,71
221,604	83,43
222,155	79,14
222,705	74,27
223,256	84,83
223,806	80,57
224,356	74,23
224,906	91,52
225,456	75,94
226,006	74,32
226,556	76,76
227,106	93,9
227,655	72,25
228,204	75,71
228,754	85,63
229,303	84,71
229,852	75
230,401	86,42
230,949	76,84
231,498	73,94
232,047	76,67
232,595	80,46
233,143	78,42
233,691	70,33
234,239	72,13
234,787	78,49
235,335	92,44
235,883	77,37
236,43	85,16
236,978	84,04
237,525	66,83
238,072	73,33
238,619	84,76
239,166	75,98
239,713	79,33
240,26	78,36
240,806	88,34
241,353	86,63
241,899	70,33
242,445	76,33
242,991	75,68
243,537	82,35
244,083	83,52
244,629	78
245,174	75,86
245,72	72,63
246,265	70,68
246,81	81,82
247,355	78,57
247,9	72,35
248,445	85,99
248,99	76,67
249,534	66,85
250,079	85,54
250,623	72,83
251,168	78,16
251,712	86,47
252,256	76,4
252,8	69,49
253,343	88,46
253,887	71,04
254,43	78,98
254,974	68,72
255,517	76,27
256,06	77,84
256,603	82,58
257,146	70,72
257,689	66,14
258,232	70,37
258,774	86,9
259,317	82,42
259,859	67,54
260,401	70,22
260,943	84,71
261,485	74,59
262,027	77,25
262,569	90,07
263,11	81,36
263,652	77,47
264,193	84,66
264,734	76,61
265,275	61,98
265,816	69,73
266,357	71,96
266,898	52,53
267,438	82,28
267,979	65,91
268,519	79,76
269,059	77,71
269,6	71,04
270,14	69,39
270,68	78,77
271,219	72,41
271,759	96,79
272,298	81,62
272,838	74,27
273,377	82,12
273,916	80,54
274,455	78,97
274,994	71,11
275,533	77,25
276,072	80,24
276,61	94,08
277,149	80,59
277,687	84,94
278,225	85,29
278,763	73,99
279,301	81,91
279,839	84,04
280,377	84,47
280,914	78,35
281,452	85,47
281,989	84,12
282,526	89,87
283,064	79,38
283,601	67,42
284,137	82,21
284,674	82,58
285,211	73,12
285,747	73,87
286,284	83,53
286,82	73,96
287,356	70,62
287,892	72,38
288,428	78,74
288,964	81,18
289,5	85,55
290,035	81,82
290,571	80,95
291,106	73,03
291,641	82,56
292,176	69,35
292,711	80,23
293,246	80,43
293,781	70,17
294,315	77,04
294,85	83,23
295,384	87,28
295,918	71,28
296,453	79,46
296,987	74,32
297,52	80,43
298,054	77,59
298,588	87,8
299,121	70,95
299,655	80
300,188	98
300,721	72,67
301,254	79,89
301,787	71,51
302,32	79,27
302,853	75,42
303,385	79,89
303,918	78,29
304,45	77,04
304,982	80,23
305,514	75
306,046	71,74
306,578	79,14
307,11	76,24
307,641	81,87
308,173	82,58
308,704	83,52
309,236	67,51
309,767	76,84
310,298	91,82
310,829	82
311,359	77,29
311,89	87,13
312,421	74,05
312,951	86,29
313,481	74,12
314,012	74,48
314,542	72,34
315,072	77,9
315,601	86,36
316,131	72,87
316,661	87,5
317,19	73,41
317,72	81,93
318,249	77,22
318,778	89,12
319,307	80,73
319,836	80,79
320,365	69,31
320,893	82,38
321,422	90,48
321,95	85,42
322,479	94,55
323,007	85,96
323,535	94,22
324,063	91,53
324,591	78,84
325,118	85,48
325,646	86,17
326,173	79,23
326,701	78,46
327,228	78,01
327,755	78,68
328,282	78,77
328,809	84,71
329,336	78,61
329,862	83,43
330,389	75,77
330,915	75,13
331,441	80,7
331,968	86,52
332,494	77,04
333,02	84,36
333,545	70,37
334,071	73,33
334,597	79,21
335,122	75
335,648	73,56
336,173	78,38
336,698	77,13
337,223	80,21
337,748	66,17
338,272	75,53
338,797	78,69
339,322	73,51
339,846	74,73
340,37	69,95
340,894	75,62
341,419	75,86
341,942	68,78
342,466	69,95
342,99	78,53
343,514	66,18
344,037	73,94
344,56	64,59
345,084	59,7
345,607	66,02
346,13	74,18
346,653	69,16
347,175	62,2
347,698	72,36
348,221	63,38
348,743	63,45
349,265	66,01
349,787	55,61
350,309	55,87
350,831	59,83
351,353	67,3
351,875	60,73
352,397	57,33
352,918	63,33
353,439	63,29
353,961	51,57
354,482	60
355,003	60,49
355,524	57,61
356,044	68,05
356,565	51,63
357,086	50,56
357,606	49,79
358,126	52,49
358,646	53,53
359,167	53,48
359,687	59,48
360,206	53,7
360,726	55,64
361,246	50,94
361,765	50
362,285	52,04
362,804	53,24
363,323	47,52
363,842	51,41
364,361	51,09
364,88	42,39
365,398	50,88
365,917	44,75
366,435	49
366,954	44,95
367,472	46,2
367,99	43,51
368,508	47,67
369,026	46,79
369,544	42,77
370,061	45,99
370,579	43,21
371,096	41,32
371,613	45,01
372,131	44,64
372,648	43,59
373,165	41,37
373,681	40,36
374,198	40,97
374,715	45,87
375,231	39,75
375,747	38,89
376,264	38,64
376,78	41,88
377,296	33,65
377,812	40,51
378,327	39,85
378,843	37,34
379,359	39,86
379,874	38,21
380,389	35,67
380,905	30,75
381,42	34
381,935	35,18
382,449	30,58
382,964	30,35
383,479	33,33
383,993	33,33
384,508	34,21
385,022	33,46
385,536	29,73
386,05	32,2
386,564	32,5
387,078	29,93
387,592	29,45
388,105	28,1
388,619	28,64
389,132	25,78
389,645	28,8
390,158	29,24
390,671	25,46
391,184	23,56
391,697	25,28
392,21	25,96
392,722	26,43
393,235	25,63
393,747	24,58
394,259	28,59
394,771	26,06
395,283	22,96
395,795	26,03
396,307	22,74
396,818	22,11
397,33	23,29
397,841	22,51
398,353	23,88
398,864	23,06
399,375	21,05
399,886	21,33
400,397	19,35
400,907	19,61
401,418	17,97
401,928	19,66
402,439	17,96
402,949	18,29
403,459	19
403,969	17,45
404,479	17,24
404,989	16,38
405,498	15,1
406,008	15,44
406,517	14,59
407,027	14,17
407,536	14,24
408,045	14,41
408,554	12,79
409,063	12,44
409,572	13,14
410,08	11,56
410,589	10,9
411,097	10,68
411,606	10,3
412,114	10,15
412,622	9,11
413,13	10,01
413,638	8,88
414,145	9,09
414,653	8,25
415,16	9,38
415,668	8,55
416,175	8,14
416,682	8,43
417,189	7,57
417,696	7,8
418,203	8,4
418,71	7,53
419,216	7,46
419,723	7,33
420,229	7,06
420,735	7,02
421,242	6,08
421,748	6,32
422,254	6,77
422,759	6,37
423,265	6,24
423,771	6,38
424,276	5,85
424,781	6,32
425,287	5,83
425,792	6,18
426,297	5,97
426,802	6
427,306	6,16
427,811	5,77
428,316	6,05
428,82	6,34
429,324	5,46
429,829	5,98
430,333	5,95
430,837	5,64
431,34	5,78
431,844	5,33
432,348	5,32
432,851	5,38
433,355	5,54
433,858	5,6
434,361	6,04
434,864	5,14
435,367	4,77
435,87	4,89
436,373	5,29
436,876	5,66
437,378	5,17
437,88	5,06
438,383	4,94
438,885	4,98
439,387	5,38
439,889	5,17
440,391	4,85
440,892	5,18
441,394	5,11
441,896	5,04
442,397	4,8
442,898	4,67
443,399	5,27
443,9	5,19
444,401	4,94
444,902	4,82
445,403	5,14
445,903	4,94
446,404	4,91
446,904	4,92
447,405	5,05
447,905	4,5
448,405	4,83
448,905	4,81
449,404	5,02
449,904	5,1
450,404	4,17
450,903	5,22
451,403	5,08
451,902	5,04
452,401	4,39
452,9	4,64
453,399	4,68
453,898	4,65
454,396	4,98
454,895	4,67
455,393	4,7
455,892	5,17
456,39	5,02
456,888	4,77
457,386	4,98
457,884	4,75
458,382	4,91
458,879	4,72
459,377	4,52
459,874	4,96
460,372	4,96
460,869	4,84
461,366	4,71
461,863	4,67
462,36	4,97
462,857	4,8
463,353	4,64
463,85	4,64
464,346	4,73
464,843	4,69
465,339	4,55
465,835	4,73
466,331	4,68
466,827	4,63
467,323	4,74
467,818	4,59
468,314	4,81
468,809	4,69
469,305	4,45
469,8	4,49
470,295	4,84
470,79	4,58
471,285	4,63
471,78	4,75
472,274	4,84
472,769	4,55
473,263	4,8
473,758	4,28
474,252	4,86
474,746	4,58
475,24	4,81
475,734	4,27
476,228	4,6
476,721	4,54
477,215	4,88
477,708	4,5
478,202	4,86
478,695	4,36
479,188	4,71
479,681	4,72
480,174	4,55
480,667	4,63
481,159	4,65
481,652	4,8
482,144	4,7
482,637	4,71
483,129	4,52
483,621	4,78
484,113	4,79
484,605	4,76
485,097	4,68
485,588	4,78
486,08	4,78
486,571	4,96
487,063	4,67
487,554	4,81
488,045	5,06
488,536	4,7
489,027	4,77
489,518	4,69
490,008	4,8
490,499	4,83
490,989	4,92
491,48	5,2
491,97	4,92
492,46	4,87
492,95	4,85
493,44	5,24
493,93	4,78
494,419	4,74
494,909	4,87
495,398	5,29
495,888	5,2
496,377	5,29
496,866	5,48
497,355	5,38
497,844	5,54
498,333	5,44
498,821	5,48
499,31	5,43
499,798	5,89
500,287	6,05
500,775	5,75
501,263	5,9
501,751	6,05
502,239	6,16
502,727	6,27
503,215	6,45
503,702	6,54
504,19	6,37
504,677	6,78
505,164	6,97
505,651	6,97
506,139	6,92
506,625	7,26
507,112	7,2
507,599	7,47
508,086	7,46
508,572	7,8
509,058	7,9
509,545	8,02
510,031	8,57
510,517	8,59
511,003	8,54
511,489	8,71
511,974	9,23
512,46	9,44
512,946	9,56
513,431	9,51
513,916	9,76
514,401	9,93
514,887	10,45
515,371	10,67
515,856	10,75
516,341	11,22
516,826	11,65
517,31	11,48
517,795	12,27
518,279	12,32
518,763	12,47
519,247	12,92
519,731	13,08
520,215	13,26
520,699	13,46
521,182	13,96
521,666	13,94
522,149	14,06
522,633	14,24
523,116	14,86
523,599	15,19
524,082	15,66
524,565	15,91
525,048	15,56
525,53	16,01
526,013	16,4
526,495	16,63
526,978	16,96
527,46	17,78
527,942	16,81
528,424	17,88
528,906	17,52
529,388	17,94
529,87	18,25
530,351	18,87
530,833	18,72
531,314	18,99
531,795	19,18
532,277	19,4
532,758	19,37
533,238	19,17
533,719	19,52
534,2	19,74
534,681	19,4
535,161	19,77
535,642	20,07
536,122	20,07
536,602	20,08
537,082	20,12
537,562	20,17
538,042	20,06
538,522	20,05
539,001	20,36
539,481	20,1
539,96	20,58
540,44	20,67
540,919	20,46
541,398	21,06
541,877	20,62
542,356	20,38
542,835	20,71
543,313	20,96
543,792	20,93
544,27	21,1
544,749	20,69
545,227	21,13
545,705	21,09
546,183	20,99
546,661	21,29
547,139	21,12
547,616	21,06
548,094	21,33
548,571	21,41
549,049	21,69
549,526	21,27
550,003	21,34
550,48	21,83
550,957	21,38
551,434	21,64
551,911	21,73
552,387	21,57
552,864	21,41
553,34	21,14
553,817	21,5
554,293	21,81
554,769	21,54
555,245	21,46
555,721	21,29
556,197	21,25
556,672	21,58
557,148	21,65
557,623	21,23
558,099	21,53
558,574	21,2
559,049	20,99
559,524	21,03
559,999	20,58
560,474	21,23
560,948	20,96
561,423	20,7
561,897	20,99
562,372	20,75
562,846	20,84
563,32	20,46
563,794	20,47
564,268	20,4
564,742	20,3
565,216	19,97
565,69	20,06
566,163	20,02
566,636	20,21
567,11	19,71
567,583	19,43
568,056	19,17
568,529	19,27
569,002	19,13
569,475	19,13
569,947	18,73
570,42	18,5
570,892	18,19
571,365	18,01
571,837	18,18
572,309	17,46
572,781	17,56
573,253	17,6
573,725	17,36
574,197	17,17
574,668	16,72
575,14	17,11
575,611	16,79
576,082	16,66
576,554	16,48
577,025	16,43
577,496	16,1
577,967	16,16
578,437	15,92
578,908	16,14
579,379	15,9
579,849	15,74
580,319	15,55
580,79	15,29
581,26	15,25
581,73	15,15
582,2	15,34
582,669	14,98
583,139	15,01
583,609	14,52
584,078	14,56
584,548	14,64
585,017	14,56
585,486	14,17
585,955	14,45
586,424	14,08
586,893	14,22
587,362	13,84
587,83	14,05
588,299	13,61
588,767	13,92
589,236	13,71
589,704	13,72
590,172	13,64
590,64	13,63
591,108	13,47
591,576	13,39
592,043	13,11
592,511	13,11
592,978	13,1
593,446	13,11
593,913	13,04
594,38	13,18
594,847	13,09
595,314	13,13
595,781	12,82
596,248	12,99
596,715	12,78
597,181	12,9
597,647	12,87
598,114	12,78
598,58	12,68
599,046	12,58
599,512	12,67
599,978	12,68
600,444	12,7
600,91	12,66
601,375	12,57
601,841	12,43
602,306	12,46
602,771	12,61
603,236	12,54
603,702	12,37
604,167	12,47
604,631	12,22
605,096	12,17
605,561	12,18
606,025	12,16
606,49	12,12
606,954	11,97
607,418	11,95
607,882	11,97
608,347	11,64
608,81	11,93
609,274	11,63
609,738	11,69
610,202	11,65
610,665	11,36
611,128	11,45
611,592	11,14
612,055	11,39
612,518	11,22
612,981	11,42
613,444	10,85
613,907	11,02
614,369	10,75
614,832	10,76
615,294	10,69
615,757	10,63
616,219	10,6
616,681	10,61
617,143	10,44
617,605	10,43
618,067	10,19
618,529	10,22
618,99	10,25
619,452	10,2
619,913	10,23
620,375	9,96
620,836	10,15
621,297	10,06
621,758	9,84
622,219	9,82
622,68	10,06
623,14	9,86
623,601	9,55
624,061	9,68
624,522	9,64
624,982	9,88
625,442	9,73
625,902	9,66
626,362	9,83
626,822	9,71
627,282	9,64
627,742	9,43
628,201	9,46
628,661	9,51
629,12	9,7
629,579	9,52
630,038	9,21
630,497	9,45
630,956	9,51
631,415	9,19
631,874	9,29
632,332	9,2
632,791	9,32
633,249	9,2
633,708	9,26
634,166	9,16
634,624	9,2
635,082	8,99
635,54	8,96
635,998	8,7
636,455	8,77
636,913	8,59
637,37	8,63
637,828	8,66
638,285	8,45
638,742	8,42
639,199	8,33
639,656	8,26
640,113	8,03
640,57	7,85
641,027	7,76
641,483	7,74
641,94	7,64
642,396	7,46
642,852	7,46
643,309	7,33
643,765	7,15
644,221	7,14
644,676	6,98
645,132	7,02
645,588	6,88
646,043	6,86
646,499	6,61
646,954	6,63
647,409	6,61
647,864	6,6
648,319	6,38
648,774	6,27
649,229	6,25
649,684	6,13
650,139	6,11
650,593	6,1
651,047	6,01
651,502	6,04
651,956	6,02
652,41	5,91
652,864	6,02
653,318	5,93
653,772	5,88
654,225	5,94
654,679	5,86
655,133	5,77
655,586	5,83
656,039	5,93
656,492	5,8
656,946	5,68
657,399	5,59
657,851	5,65
658,304	5,63
658,757	5,52
659,209	5,63
659,662	5,44
660,114	5,4
660,567	5,26
661,019	5,34
661,471	5,32
661,923	5,21
662,375	5,11
662,826	5,12
663,278	5,02
663,73	4,92
664,181	4,99
664,632	5,03
665,084	5,03
665,535	4,95
665,986	4,84
666,437	4,83
666,888	4,75
667,338	4,83
667,789	4,86
668,24	4,83
668,69	4,91
669,14	4,84
669,591	4,91
670,041	4,94
670,491	4,84
670,941	4,94
671,391	5,08
671,84	5,05
672,29	5,06
672,74	5,07
673,189	5,15
673,638	5,27
674,088	5,21
674,537	5,37
674,986	5,45
675,435	5,39
675,883	5,57
676,332	5,6
676,781	5,65
677,229	5,7
677,678	5,79
678,126	5,85
678,574	5,89
679,022	6,14
679,47	6,28
679,918	6,32
680,366	6,32
680,814	6,39
681,261	6,57
681,709	6,65
682,156	6,8
682,604	6,94
683,051	7,02
683,498	7,02
683,945	7,13
684,392	7,39
684,839	7,47
685,286	7,52
685,732	7,69
686,179	7,76
686,625	7,81
687,071	7,93
687,518	8,03
687,964	8,36
688,41	8,52
688,856	8,71
689,301	8,94
689,747	9,05
690,193	9,47
690,638	9,66
691,084	9,81
691,529	10,21
691,974	10,74
692,419	11,02
692,864	11,47
693,309	11,84
693,754	12,26
694,199	12,61
694,643	12,91
695,088	13,48
695,532	14,06
695,977	14,48
696,421	15,1
696,865	15,28
697,309	16,05
697,753	16,3
698,197	17,03
698,64	17,54
699,084	18,22
699,527	18,34
699,971	18,95
700,414	19,59
700,857	19,96
701,3	20,57
701,743	20,72
702,186	21,32
702,629	22,03
703,072	22,33
703,515	23,16
703,957	23,15
704,399	23,78
704,842	24,4
705,284	25
705,726	25,16
706,168	25,79
706,61	26,08
707,052	26,36
707,494	26,74
707,935	27,46
708,377	27,9
708,818	28,2
709,26	28,6
709,701	29
710,142	29,62
710,583	29,68
711,024	30,19
711,465	30,58
711,905	31,05
712,346	31,32
712,787	31,53
713,227	32,14
713,667	32,75
714,108	33,06
714,548	33,44
714,988	33,8
715,428	33,94
715,868	34,23
716,307	34,59
716,747	34,8
717,186	35,36
717,626	35,69
718,065	36,07
718,504	36,35
718,944	36,69
719,383	37,18
719,822	37,08
720,261	37,55
720,699	37,94
721,138	38,08
721,576	38,41
722,015	38,56
722,453	38,89
722,892	38,71
723,33	39,39
723,768	39,7
724,206	39,52
724,644	40,02
725,081	40,6
725,519	40,49
725,957	40,7
726,394	40,87
726,832	41,23
727,269	41,53
727,706	41,16
728,143	41,72
728,58	41,54
729,017	41,84
729,454	41,61
729,89	41,99
730,327	42,55
730,764	42,57
731,2	42,64
731,636	42,48
732,072	42,61
732,509	43,09
732,945	43,14
733,38	43,08
733,816	43,41
734,252	43,45
734,688	43,53
735,123	43,9
735,559	43,61
735,994	43,87
736,429	43,76
736,864	43,75
737,299	44,01
737,734	44,18
738,169	44,15
738,604	44,14
739,038	44,39
739,473	44,33
739,907	43,98
740,342	44,27
740,776	44,47
741,21	44,14
741,644	44,65
742,078	44,66
742,512	44,25
742,946	44,55
743,379	44,4
743,813	44,24
744,246	44,52
744,68	44,83
745,113	44,29
745,546	44,57
745,979	44,49
746,412	44,31
746,845	44,57
747,278	44,6
747,711	44,36
748,143	44,61
748,576	44,46
749,008	44,43
749,441	44,61
749,873	43,84
750,305	44,46
750,737	44,42
751,169	44,22
751,601	44,21
752,032	44,52
752,464	44,17
752,896	43,99
753,327	44,38
753,758	44,17
754,19	44,19
754,621	44,58
755,052	43,73
755,483	43,82
755,914	43,97
756,344	44,04
756,775	44,05
757,206	43,48
757,636	43,68
758,066	43,53
758,497	43,67
758,927	43,56
759,357	43,6
759,787	43,47
760,217	43,7
760,647	43,49
761,076	43,55
761,506	43,36
761,935	43,55
762,365	43,28
762,794	43,21
763,223	43,72
763,653	43,09
764,082	43,25
764,51	42,85
764,939	42,99
765,368	43,31
765,797	43,02
766,225	42,95
766,654	43,09
767,082	42,88
767,51	42,91
767,938	42,81
768,367	42,96
768,795	42,82
769,222	42,69
769,65	42,89
770,078	42,86
770,505	42,73
770,933	42,26
771,36	42,87
771,788	42,54
772,215	42,66
772,642	42,83
773,069	42,67
773,496	42,35
773,923	42,29
774,349	42,58
774,776	42,66
775,203	42,57
775,629	42,56
776,055	42,58
776,482	42,27
776,908	42,55
777,334	42,47
777,76	42,12
778,186	42,27
778,611	42,29
779,037	42,17
779,463	42,32
779,888	42,09
780,314	41,83
780,739	42,09
781,164	42,1
781,589	42,04
782,014	42,08
782,439	42,15
782,864	42,27
783,289	42,01
783,713	42,18
784,138	41,93
784,562	42,4
784,987	42,07
785,411	42,25
785,835	41,93
786,259	41,63
786,683	42
787,107	41,7
787,531	42,02
787,954	42,11
788,378	41,81
788,802	41,77
789,225	41,85
789,648	41,72
790,071	41,71
790,495	41,69
790,918	42,13
791,34	42,18
791,763	41,92
792,186	41,81
792,609	41,59
793,031	41,55
793,454	42,02
793,876	41,6
794,298	42,06
794,721	41,7
795,143	41,6
795,565	41,7
795,986	41,79
796,408	41,63
796,83	41,92
797,252	41,97
797,673	41,89
798,094	41,54
798,516	41,95
798,937	41,55
799,358	42,01
799,779	41,67
800,2	41,56
800,621	41,61
801,042	41,77
801,462	41,43
801,883	41,37
802,303	41,68
802,724	41,95
803,144	41,74
803,564	41,55
803,984	41,64
804,404	41,5
804,824	41,91
805,244	41,64
805,664	41,39
806,084	41,67
806,503	41,92
806,923	41,74
807,342	41,54
807,761	41,58
808,18	41,64
808,599	41,44
809,018	41,68
809,437	41,43
809,856	41,39
810,275	41,67
810,693	41,54
811,112	41,4
811,53	41,43
811,949	41,82
812,367	41,52
812,785	41,62
813,203	41,43
813,621	41,86
814,039	41,24
814,457	41,21
814,874	41,41
815,292	41,71
815,709	41,17
816,127	41,53
816,544	41,7
816,961	41,5
817,378	41,6
817,795	41,35
818,212	41,04
818,629	41,15
819,046	41,74
819,462	41,65
819,879	41,43
820,295	41,46
820,712	41,4
821,128	41,14
821,544	41,15
821,96	41,26
822,376	41,39
822,792	41,47
823,208	41,36
823,624	41,26
824,039	41,15
824,455	41,35
824,87	41,38
825,286	41,44
825,701	41,31
826,116	41,01
826,531	41,56
826,946	41,26
827,361	41,07
827,776	41,26
828,19	41,18
828,605	41,2
829,02	41,24
829,434	41,24
829,848	40,94
830,263	41,21
830,677	41,46
831,091	41,22
831,505	41,49
831,919	41,03
832,332	41,33
832,746	40,93
833,16	41,17
833,573	40,48
833,987	41,11
834,4	40,8
834,813	41,02
835,226	40,73
835,639	40,98
836,052	40,81
836,465	41,02
836,878	40,95
837,29	41,36
837,703	41,2
838,116	40,86
838,528	41,05
838,94	40,88
839,352	40,94
839,765	40,98
840,177	40,83
840,589	40,79
841	40,83
841,412	40,84
841,824	41,07
842,235	41,26
842,647	40,87
843,058	40,73
843,47	40,83
843,881	40,87
