Data from H1__Relative__5__00102.txt Node

Date: Thu Feb 01 16:27:24 CET 2024
User: diatiterra
Spectrometer: HDX00911
Trigger mode: 0
Integration Time (sec): 6,000000E-3
Scans to average: 2
Nonlinearity correction enabled: false
Boxcar width: 0
Storing dark spectrum: false
XAxis mode: Wavelengths
Number of Pixels in Spectrum: 2068
>>>>>Begin Spectral Data<<<<<
194,468	218,46
195,025	129,17
195,581	156,06
196,138	133,82
196,694	127,47
197,251	109,52
197,807	81,4
198,363	79,88
198,919	75
199,474	86,62
200,03	81,82
200,586	90,51
201,141	67,01
201,696	84,39
202,251	83,43
202,806	86,21
203,361	89,62
203,916	74,59
204,471	77,72
205,025	74,59
205,58	78,61
206,134	75,53
206,688	74,87
207,242	83,14
207,796	76,26
208,35	88,37
208,904	76,84
209,457	88,24
210,011	90,18
210,564	81,72
211,117	94,12
211,67	84,83
212,223	85,05
212,776	68,98
213,329	82,89
213,881	69,95
214,434	76
214,986	91,57
215,538	83,15
216,09	84,9
216,642	90,96
217,194	84,71
217,746	85,71
218,297	87,22
218,849	86,05
219,4	81,67
219,951	83,43
220,502	86,39
221,053	80,95
221,604	86,98
222,155	90,91
222,705	81,29
223,256	85,96
223,806	78,86
224,356	76,29
224,906	89,09
225,456	72,19
226,006	74,86
226,556	88,65
227,106	88,41
227,655	73,82
228,204	74,58
228,754	87,36
229,303	77,06
229,852	80
230,401	84,57
230,949	78,53
231,498	80,85
232,047	83,33
232,595	79,31
233,143	81,05
233,691	72,53
234,239	75,96
234,787	79,07
235,335	94,19
235,883	75,79
236,43	92,9
236,978	80,32
237,525	74,37
238,072	83,89
238,619	79,27
239,166	75,49
239,713	83,8
240,26	85,38
240,806	89,57
241,353	77,33
241,899	76,92
242,445	76,33
242,991	75,68
243,537	81,05
244,083	76,92
244,629	84
245,174	76,44
245,72	80,45
246,265	74,35
246,81	76,14
247,355	79,67
247,9	72,35
248,445	96,82
248,99	82,22
249,534	84,83
250,079	87,35
250,623	73,91
251,168	81,61
251,712	89,41
252,256	84,47
252,8	79,1
253,343	82,42
253,887	76,5
254,43	91,48
254,974	88,27
255,517	78,53
256,06	80,68
256,603	93,26
257,146	85,64
257,689	81,48
258,232	73,54
258,774	80,95
259,317	79,12
259,859	75,92
260,401	84,27
260,943	93,63
261,485	89,19
262,027	74,6
262,569	100,66
263,11	83,05
263,652	81,87
264,193	72,73
264,734	73,1
265,275	68,75
265,816	78,38
266,357	75,66
266,898	70,2
267,438	93,04
267,979	70,45
268,519	85,12
269,059	86,14
269,6	78,69
270,14	73,47
270,68	78,08
271,219	89,08
271,759	93,59
272,298	81,62
272,838	76,02
273,377	84,36
273,916	94,63
274,455	84,62
274,994	80
275,533	92,22
276,072	87,43
276,61	90,53
277,149	84,12
277,687	77,11
278,225	86,47
278,763	91,91
279,301	78,19
279,839	82,98
280,377	75,16
280,914	81,96
281,452	87,71
281,989	84,12
282,526	89,87
283,064	83,75
283,601	87,64
284,137	88,96
284,674	84,27
285,211	84,41
285,747	78,39
286,284	78,24
286,82	84,38
287,356	73,71
287,892	85,08
288,428	70,11
288,964	81,72
289,5	82,08
290,035	85,23
290,571	78,84
291,106	80,9
291,641	77,33
292,176	82,8
292,711	79,07
293,246	76,63
293,781	77,9
294,315	77,04
294,85	85,81
295,384	80,35
295,918	78,19
296,453	81,62
296,987	74,86
297,52	72,28
298,054	91,38
298,588	92,07
299,121	78,77
299,655	87,06
300,188	87,33
300,721	91,93
301,254	79,37
301,787	80,65
302,32	73,58
302,853	85,47
303,385	73,37
303,918	80
304,45	77,55
304,982	77,4
305,514	71,81
306,046	86,41
306,578	87,7
307,11	81,22
307,641	83,52
308,173	82,02
308,704	86,93
309,236	70,56
309,767	78,42
310,298	89,31
310,829	74
311,359	73,43
311,89	78,36
312,421	72,43
312,951	82,29
313,481	74,12
314,012	72,4
314,542	77,66
315,072	84,53
315,601	79,22
316,131	68,09
316,661	87,5
317,19	72,25
317,72	83,13
318,249	80,56
318,778	93,88
319,307	82,29
319,836	84,18
320,365	78,84
320,893	82,9
321,422	85,71
321,95	72,4
322,479	96,97
323,007	82,02
323,535	75,14
324,063	75,71
324,591	78,84
325,118	80,11
325,646	76,6
326,173	78,69
326,701	73,33
327,228	81,68
327,755	77,16
328,282	80,45
328,809	81,18
329,336	78,11
329,862	76,57
330,389	73,71
330,915	74,61
331,441	83,04
331,968	89,33
332,494	69,9
333,02	79,33
333,545	75,13
334,071	65,64
334,597	74,16
335,122	71,28
335,648	70,67
336,173	81,08
336,698	75,53
337,223	74,33
337,748	64,68
338,272	64,89
338,797	79,78
339,322	77,3
339,846	74,73
340,37	73,77
340,894	74,63
341,419	79,31
341,942	70,9
342,466	75,65
342,99	76,44
343,514	68,63
344,037	72,87
344,56	71,29
345,084	76,12
345,607	64,56
346,13	72,77
346,653	70,56
347,175	71,29
347,698	77,89
348,221	71,36
348,743	65,97
349,265	70,44
349,787	59,02
350,309	57,89
350,831	68,62
351,353	71,56
351,875	64,37
352,397	59,48
352,918	67,08
353,439	70,89
353,961	57,48
354,482	63,83
355,003	60,08
355,524	62,96
356,044	70,12
356,565	57,32
357,086	58,05
357,606	55,74
358,126	56,32
358,646	57,25
359,167	63,48
359,687	62,45
360,206	58,89
360,726	51,75
361,246	52,83
361,765	53,99
362,285	60,22
362,804	53,6
363,323	51,06
363,842	57,04
364,361	52,19
364,88	51,78
365,398	53,68
365,917	50,62
366,435	59,33
366,954	53,42
367,472	48,42
367,99	47,4
368,508	49,33
369,026	54,81
369,544	49,37
370,061	46,59
370,579	47,53
371,096	49,04
371,613	50,14
372,131	48,12
372,648	44,16
373,165	52,6
373,681	48,49
374,198	44,41
374,715	50,43
375,231	50,89
375,747	44,44
376,264	48,83
376,78	41,62
377,296	41,35
377,812	41,52
378,327	40,85
378,843	47,31
379,359	45,52
379,874	43,42
380,389	42,44
380,905	37,42
381,42	38,44
381,935	36,25
382,449	39,26
382,964	35,97
383,479	39,09
383,993	40,17
384,508	37,03
385,022	38,49
385,536	37,88
386,05	38,42
386,564	38,37
387,078	36,38
387,592	39,9
388,105	33,72
388,619	34,08
389,132	30,47
389,645	31,68
390,158	34,65
390,671	33,69
391,184	33,52
391,697	31,88
392,21	30,22
392,722	30,94
393,235	29,46
393,747	33,59
394,259	31,41
394,771	31,24
395,283	30,08
395,795	28,09
396,307	28,39
396,818	26,99
397,33	28,57
397,841	29,56
398,353	29,45
398,864	27,67
399,375	27,39
399,886	26,99
400,397	25,94
400,907	25,02
401,418	22,34
401,928	23,93
402,439	23,02
402,949	23,16
403,459	23,17
403,969	21,35
404,479	20,71
404,989	20,62
405,498	19,5
406,008	18,97
406,517	19,02
407,027	17,82
407,536	19,9
408,045	16,41
408,554	19,09
409,063	16,35
409,572	17,11
410,08	15,4
410,589	15,28
411,097	14,66
411,606	13,67
412,114	14,86
412,622	12,92
413,13	13,24
413,638	12,33
414,145	11,17
414,653	11,64
415,16	11,45
415,668	11,12
416,175	10,2
416,682	10,09
417,189	10,15
417,696	10,52
418,203	10,13
418,71	9,09
419,216	9,19
419,723	9,33
420,229	9,21
420,735	9,12
421,242	8,93
421,748	9,19
422,254	9,32
422,759	8,22
423,265	8,48
423,771	9,13
424,276	8,5
424,781	8,44
425,287	7,95
425,792	8,04
426,297	8,08
426,802	7,98
427,306	7,67
427,811	8,34
428,316	8,13
428,82	7,99
429,324	7,71
429,829	7,9
430,333	8,04
430,837	7,54
431,34	7,79
431,844	7,69
432,348	7,51
432,851	7,49
433,355	7,73
433,858	7,29
434,361	7,89
434,864	7,84
435,367	7,1
435,87	6,92
436,373	7,59
436,876	7,53
437,378	6,98
437,88	7,32
438,383	6,78
438,885	7,45
439,387	7,23
439,889	6,7
440,391	6,67
440,892	6,92
441,394	7,21
441,896	7,15
442,397	7,28
442,898	6,64
443,399	6,72
443,9	7,14
444,401	6,79
444,902	7,06
445,403	7,44
445,903	6,9
446,404	7,18
446,904	6,73
447,405	6,46
447,905	7,11
448,405	7,01
448,905	6,82
449,404	6,61
449,904	7,11
450,404	6,93
450,903	6,5
451,403	6,93
451,902	7
452,401	7,26
452,9	7,19
453,399	6,92
453,898	6,69
454,396	7,16
454,895	7,23
455,393	7,14
455,892	7,17
456,39	6,97
456,888	6,67
457,386	7,03
457,884	7,05
458,382	7,06
458,879	7,12
459,377	7,16
459,874	7,04
460,372	7,05
460,869	6,89
461,366	6,76
461,863	7,13
462,36	7,4
462,857	7,11
463,353	6,89
463,85	7,22
464,346	7,08
464,843	6,89
465,339	6,64
465,835	7,19
466,331	7,36
466,827	6,94
467,323	6,86
467,818	7,04
468,314	6,9
468,809	6,5
469,305	6,68
469,8	6,86
470,295	6,9
470,79	7,03
471,285	6,71
471,78	7,18
472,274	6,97
472,769	6,66
473,263	6,98
473,758	6,86
474,252	7,01
474,746	7,05
475,24	6,74
475,734	7,05
476,228	6,88
476,721	6,58
477,215	6,94
477,708	6,5
478,202	6,79
478,695	6,73
479,188	7,21
479,681	7
480,174	6,79
480,667	6,93
481,159	7,23
481,652	6,87
482,144	7,18
482,637	6,82
483,129	6,79
483,621	7,37
484,113	7,04
484,605	7,02
485,097	6,91
485,588	6,92
486,08	7,09
486,571	6,78
487,063	6,81
487,554	7,1
488,045	7,18
488,536	7,2
489,027	6,89
489,518	6,71
490,008	7,31
490,499	6,93
490,989	7,04
491,48	7,15
491,97	7,63
492,46	7,48
492,95	7,5
493,44	7,38
493,93	7,34
494,419	7,69
494,909	7,51
495,398	7,54
495,888	7,95
496,377	7,59
496,866	7,75
497,355	8,17
497,844	7,71
498,333	7,91
498,821	8,02
499,31	7,8
499,798	8,18
500,287	8,29
500,775	8,35
501,263	8,59
501,751	8,09
502,239	8,61
502,727	8,45
503,215	8,52
503,702	8,85
504,19	9,02
504,677	9,05
505,164	9
505,651	8,7
506,139	9,32
506,625	9,44
507,112	9,37
507,599	9,66
508,086	9,9
508,572	9,75
509,058	9,96
509,545	10,32
510,031	10,18
510,517	10,5
511,003	10,56
511,489	10,84
511,974	10,84
512,46	11,08
512,946	11,08
513,431	11,55
513,916	11,49
514,401	11,59
514,887	11,74
515,371	12,31
515,856	12,52
516,341	12,31
516,826	12,47
517,31	12,91
517,795	12,97
518,279	13,52
518,763	13,37
519,247	13,89
519,731	13,67
520,215	14,08
520,699	14,34
521,182	14,96
521,666	14,54
522,149	15,01
522,633	15,37
523,116	15,05
523,599	15,62
524,082	15,73
524,565	15,97
525,048	16,14
525,53	16,69
526,013	16,66
526,495	16,49
526,978	16,59
527,46	16,67
527,942	17,46
528,424	17,28
528,906	17,57
529,388	17,84
529,87	17,8
530,351	18,37
530,833	18,07
531,314	17,86
531,795	18,44
532,277	18,5
532,758	18,55
533,238	18,38
533,719	18,66
534,2	18,6
534,681	18,76
535,161	19,02
535,642	18,59
536,122	18,98
536,602	19,23
537,082	19,25
537,562	19,22
538,042	19,25
538,522	19,66
539,001	19,6
539,481	19,27
539,96	19,84
540,44	19,76
540,919	19,27
541,398	19,66
541,877	19,33
542,356	19,42
542,835	19,65
543,313	19,56
543,792	19,82
544,27	20,03
544,749	19,44
545,227	19,99
545,705	20,12
546,183	19,94
546,661	20,1
547,139	20,02
547,616	20,18
548,094	20,01
548,571	19,93
549,049	20,01
549,526	20,01
550,003	20,01
550,48	20,22
550,957	20,32
551,434	20,13
551,911	20,51
552,387	20,03
552,864	20,51
553,34	19,84
553,817	20,47
554,293	20,29
554,769	20,38
555,245	20,21
555,721	20,18
556,197	20,16
556,672	20,25
557,148	20,49
557,623	19,94
558,099	20,65
558,574	20,29
559,049	20,38
559,524	20,18
559,999	20,31
560,474	20,12
560,948	20,05
561,423	20,42
561,897	20,17
562,372	20,07
562,846	20,07
563,32	19,91
563,794	20,13
564,268	19,99
564,742	19,97
565,216	19,81
565,69	20,12
566,163	19,21
566,636	19,31
567,11	19,27
567,583	19,31
568,056	19,15
568,529	19
569,002	18,81
569,475	18,9
569,947	18,52
570,42	18,68
570,892	18,45
571,365	18,47
571,837	18,18
572,309	17,84
572,781	18,24
573,253	18,31
573,725	17,9
574,197	17,44
574,668	17,61
575,14	17,74
575,611	17,16
576,082	17,27
576,554	17,24
577,025	16,99
577,496	17,22
577,967	17,22
578,437	16,7
578,908	16,82
579,379	16,64
579,849	16,62
580,319	16,72
580,79	16,44
581,26	16,27
581,73	16,27
582,2	16,09
582,669	16,17
583,139	15,86
583,609	16,2
584,078	15,77
584,548	15,55
585,017	15,74
585,486	15,48
585,955	15,79
586,424	15,62
586,893	15,63
587,362	15,26
587,83	15,35
588,299	15
588,767	15,18
589,236	15,34
589,704	15,15
590,172	15,09
590,64	15,04
591,108	15,07
591,576	14,85
592,043	14,95
592,511	14,71
592,978	14,6
593,446	14,7
593,913	14,84
594,38	14,48
594,847	14,59
595,314	14,56
595,781	14,62
596,248	14,64
596,715	14,43
597,181	14,47
597,647	14,37
598,114	14,49
598,58	14,27
599,046	14,22
599,512	14,19
599,978	14,17
600,444	14,15
600,91	14,3
601,375	14,39
601,841	13,94
602,306	14,2
602,771	14,35
603,236	14,58
603,702	13,82
604,167	14,05
604,631	14,24
605,096	14,01
605,561	14,02
606,025	13,93
606,49	13,8
606,954	13,83
607,418	13,64
607,882	13,59
608,347	13,58
608,81	13,67
609,274	13,6
609,738	13,52
610,202	13,58
610,665	13,24
611,128	13,14
611,592	13,12
612,055	13,28
612,518	13,23
612,981	13,2
613,444	12,79
613,907	13,06
614,369	12,98
614,832	12,91
615,294	12,91
615,757	12,78
616,219	12,71
616,681	12,55
617,143	12,56
617,605	12,6
618,067	12,35
618,529	12,54
618,99	12,29
619,452	12,25
619,913	12,2
620,375	12,2
620,836	12,35
621,297	12,27
621,758	12,08
622,219	12,3
622,68	12
623,14	11,89
623,601	11,8
624,061	11,95
624,522	11,92
624,982	12,04
625,442	11,9
625,902	11,76
626,362	12,14
626,822	11,99
627,282	11,91
627,742	11,78
628,201	11,93
628,661	11,83
629,12	11,7
629,579	11,85
630,038	11,75
630,497	11,64
630,956	11,67
631,415	11,49
631,874	11,73
632,332	11,6
632,791	11,62
633,249	11,71
633,708	11,64
634,166	11,41
634,624	11,51
635,082	11,37
635,54	11,14
635,998	11,11
636,455	11,09
636,913	11,01
637,37	10,86
637,828	11,14
638,285	10,78
638,742	10,76
639,199	10,85
639,656	10,47
640,113	10,72
640,57	10,51
641,027	10,28
641,483	10,42
641,94	10,16
642,396	10,13
642,852	10,01
643,309	9,69
643,765	9,65
644,221	9,7
644,676	9,61
645,132	9,39
645,588	9,45
646,043	9,19
646,499	9,18
646,954	9,21
647,409	9,03
647,864	9,05
648,319	8,78
648,774	8,71
649,229	8,58
649,684	8,63
650,139	8,63
650,593	8,59
651,047	8,55
651,502	8,5
651,956	8,45
652,41	8,57
652,864	8,5
653,318	8,45
653,772	8,39
654,225	8,47
654,679	8,45
655,133	8,27
655,586	8,28
656,039	8,26
656,492	8,27
656,946	8,13
657,399	8,18
657,851	8,04
658,304	7,95
658,757	7,8
659,209	7,99
659,662	7,85
660,114	7,83
660,567	7,66
661,019	7,53
661,471	7,5
661,923	7,56
662,375	7,39
662,826	7,3
663,278	7,26
663,73	7,17
664,181	7,15
664,632	7,27
665,084	7,08
665,535	6,99
665,986	6,91
666,437	7,12
666,888	6,79
667,338	6,84
667,789	6,95
668,24	6,83
668,69	6,91
669,14	6,71
669,591	6,8
670,041	6,86
670,491	6,76
670,941	6,85
671,391	6,73
671,84	6,76
672,29	6,94
672,74	6,92
673,189	6,91
673,638	6,82
674,088	6,91
674,537	6,98
674,986	6,96
675,435	6,9
675,883	7,01
676,332	7,08
676,781	7,22
677,229	7,15
677,678	7,19
678,126	7,2
678,574	7,22
679,022	7,51
679,47	7,67
679,918	7,55
680,366	7,6
680,814	7,66
681,261	7,74
681,709	7,76
682,156	7,81
682,604	7,89
683,051	8,06
683,498	8,07
683,945	8,19
684,392	8,26
684,839	8,4
685,286	8,54
685,732	8,6
686,179	8,9
686,625	9
687,071	8,98
687,518	9,36
687,964	9,38
688,41	9,59
688,856	9,81
689,301	10,08
689,747	10,22
690,193	10,47
690,638	10,74
691,084	11,09
691,529	11,34
691,974	11,5
692,419	11,82
692,864	12,22
693,309	12,44
693,754	12,83
694,199	13,2
694,643	13,71
695,088	14,07
695,532	14,34
695,977	14,59
696,421	15,11
696,865	15,67
697,309	15,88
697,753	16,29
698,197	16,73
698,64	17,36
699,084	17,64
699,527	17,98
699,971	18,42
700,414	18,95
700,857	19,3
701,3	19,49
701,743	19,93
702,186	20,19
702,629	20,79
703,072	21,05
703,515	21,67
703,957	21,82
704,399	22,28
704,842	22,56
705,284	23,01
705,726	23,37
706,168	23,79
706,61	24,25
707,052	24,46
707,494	24,78
707,935	25,39
708,377	25,31
708,818	25,97
709,26	26,1
709,701	26,46
710,142	26,77
710,583	27,04
711,024	27,27
711,465	27,78
711,905	28,04
712,346	28,37
712,787	28,61
713,227	29,04
713,667	29,33
714,108	29,5
714,548	29,86
714,988	30,01
715,428	30,59
715,868	30,38
716,307	30,89
716,747	31,08
717,186	31,53
717,626	32,1
718,065	32,35
718,504	32,33
718,944	32,59
719,383	32,74
719,822	33,05
720,261	33,16
720,699	33,35
721,138	34,05
721,576	33,89
722,015	34,12
722,453	34,58
722,892	34,67
723,33	34,93
723,768	34,93
724,206	35,17
724,644	35,34
725,081	35,64
725,519	35,93
725,957	35,93
726,394	36,29
726,832	36,44
727,269	36,78
727,706	36,67
728,143	36,97
728,58	36,67
729,017	37,32
729,454	37,23
729,89	37,22
730,327	37,51
730,764	37,52
731,2	37,82
731,636	37,86
732,072	38,05
732,509	37,91
732,945	37,91
733,38	37,78
733,816	38,22
734,252	38,5
734,688	38,39
735,123	38,61
735,559	38,67
735,994	38,8
736,429	38,56
736,864	39,1
737,299	38,9
737,734	39,3
738,169	39,15
738,604	38,97
739,038	39,41
739,473	39,21
739,907	38,98
740,342	39,27
740,776	39,32
741,21	39,11
741,644	39,06
742,078	39,28
742,512	39,29
742,946	39,34
743,379	39,48
743,813	39,48
744,246	39,38
744,68	39,66
745,113	39,4
745,546	39,76
745,979	39,64
746,412	39,74
746,845	39,48
747,278	39,66
747,711	39,83
748,143	39,37
748,576	39,69
749,008	39,55
749,441	39,64
749,873	39,32
750,305	39,65
750,737	39,83
751,169	39,16
751,601	39,7
752,032	39,63
752,464	39,57
752,896	39,52
753,327	39,59
753,758	39,67
754,19	39,42
754,621	39,66
755,052	39,27
755,483	39,5
755,914	39,42
756,344	39,74
756,775	39,49
757,206	39,29
757,636	39,51
758,066	39,4
758,497	39,24
758,927	39,27
759,357	39,45
759,787	39,48
760,217	39,25
760,647	39,33
761,076	39,19
761,506	39,14
761,935	39,38
762,365	39,34
762,794	39,55
763,223	39,53
763,653	39,13
764,082	39,12
764,51	38,93
764,939	39,15
765,368	39,42
765,797	39,02
766,225	38,99
766,654	39,13
767,082	39,28
767,51	39,14
767,938	38,91
768,367	38,86
768,795	38,92
769,222	38,85
769,65	38,96
770,078	39,08
770,505	38,85
770,933	39,15
771,36	39,22
771,788	39,11
772,215	38,86
772,642	38,94
773,069	38,93
773,496	38,39
773,923	38,99
774,349	38,73
774,776	38,47
775,203	38,71
775,629	39,15
776,055	38,95
776,482	38,7
776,908	38,94
777,334	38,9
777,76	39,11
778,186	39,13
778,611	38,92
779,037	38,55
779,463	38,92
779,888	38,72
780,314	38,87
780,739	38,98
781,164	38,92
781,589	38,92
782,014	38,74
782,439	38,84
782,864	38,78
783,289	38,55
783,713	39,28
784,138	38,9
784,562	39,07
784,987	38,97
785,411	39,21
785,835	38,87
786,259	38,56
786,683	38,9
787,107	38,78
787,531	38,9
787,954	38,7
788,378	39,07
788,802	39
789,225	38,55
789,648	38,46
790,071	38,91
790,495	38,59
790,918	38,69
791,34	38,96
791,763	38,82
792,186	38,68
792,609	38,71
793,031	38,68
793,454	38,97
793,876	38,93
794,298	38,8
794,721	38,74
795,143	38,63
795,565	38,92
795,986	38,98
796,408	38,66
796,83	38,7
797,252	38,77
797,673	38,74
798,094	38,79
798,516	38,95
798,937	38,81
799,358	38,45
799,779	38,62
800,2	38,87
800,621	38,67
801,042	39,03
801,462	38,5
801,883	38,76
802,303	38,73
802,724	38,87
803,144	38,79
803,564	38,41
803,984	39,21
804,404	38,67
804,824	38,85
805,244	38,87
805,664	38,64
806,084	38,53
806,503	38,64
806,923	38,65
807,342	38,75
807,761	38,61
808,18	38,92
808,599	39,13
809,018	39,09
809,437	38,4
809,856	38,88
810,275	39,18
810,693	38,85
811,112	38,81
811,53	38,76
811,949	39,04
812,367	38,9
812,785	38,64
813,203	38,56
813,621	38,92
814,039	38,88
814,457	38,74
814,874	39,04
815,292	38,8
815,709	38,94
816,127	38,66
816,544	38,79
816,961	38,78
817,378	38,97
817,795	39,05
818,212	38,72
818,629	38,82
819,046	38,91
819,462	39,18
819,879	38,81
820,295	39
820,712	38,61
821,128	38,51
821,544	38,85
821,96	38,83
822,376	38,81
822,792	38,87
823,208	38,71
823,624	38,59
824,039	38,76
824,455	39,14
824,87	39,07
825,286	39,09
825,701	38,92
826,116	38,55
826,531	39,03
826,946	38,8
827,361	38,79
827,776	38,69
828,19	38,83
828,605	38,8
829,02	38,88
829,434	38,93
829,848	38,87
830,263	38,88
830,677	38,95
831,091	38,97
831,505	39,08
831,919	38,72
832,332	38,74
832,746	38,73
833,16	39,07
833,573	38,67
833,987	39,07
834,4	38,76
834,813	38,85
835,226	38,53
835,639	38,54
836,052	38,58
836,465	38,64
836,878	38,97
837,29	38,9
837,703	38,86
838,116	38,72
838,528	39
838,94	38,48
839,352	38,64
839,765	39,02
840,177	38,99
840,589	38,7
841	38,8
841,412	38,84
841,824	38,98
