Data from I2__Relative__1__00104.txt Node

Date: Thu Feb 01 16:27:41 CET 2024
User: diatiterra
Spectrometer: HDX00911
Trigger mode: 0
Integration Time (sec): 6,000000E-3
Scans to average: 2
Nonlinearity correction enabled: false
Boxcar width: 0
Storing dark spectrum: false
XAxis mode: Wavelengths
Number of Pixels in Spectrum: 2068
>>>>>Begin Spectral Data<<<<<
194,468	215,38
195,025	136,11
195,581	175,76
196,138	155,88
196,694	138,46
197,251	121,43
197,807	94,77
198,363	84,02
198,919	83,15
199,474	81,53
200,03	92,05
200,586	93,67
201,141	72,68
201,696	83,82
202,251	80,11
202,806	87,93
203,361	81,42
203,916	87,57
204,471	80,98
205,025	84,32
205,58	76,3
206,134	79,26
206,688	78,01
207,242	90,7
207,796	76,77
208,35	95,93
208,904	84,18
209,457	88,82
210,011	89,57
210,564	86,02
211,117	105,88
211,67	89,33
212,223	87,63
212,776	79,68
213,329	81,82
213,881	77,2
214,434	86,5
214,986	92,17
215,538	91,85
216,09	92,71
216,642	98,19
217,194	92,35
217,746	87,43
218,297	97,22
218,849	95,35
219,4	81,11
219,951	88
220,502	89,94
221,053	94,05
221,604	89,94
222,155	96,26
222,705	76,61
223,256	78,65
223,806	89,71
224,356	75,26
224,906	90,91
225,456	85,56
226,006	72,68
226,556	83,24
227,106	76,83
227,655	82,72
228,204	81,36
228,754	93,68
229,303	87,65
229,852	92,78
230,401	93,83
230,949	92,66
231,498	80,85
232,047	85,56
232,595	85,06
233,143	88,42
233,691	85,71
234,239	82,51
234,787	91,86
235,335	86,05
235,883	85,79
236,43	99,35
236,978	80,85
237,525	74,87
238,072	83,33
238,619	95,12
239,166	79,41
239,713	87,71
240,26	93,57
240,806	95,71
241,353	88,95
241,899	84,07
242,445	85,21
242,991	74,59
243,537	108,5
244,083	97,8
244,629	81
245,174	83,91
245,72	77,09
246,265	75,39
246,81	84,66
247,355	82,97
247,9	77,65
248,445	88,54
248,99	87,22
249,534	80,9
250,079	89,76
250,623	82,61
251,168	90,23
251,712	91,76
252,256	86,96
252,8	87,57
253,343	88,46
253,887	78,14
254,43	82,39
254,974	88,83
255,517	81,92
256,06	96,02
256,603	81,46
257,146	77,9
257,689	80,95
258,232	83,07
258,774	89,29
259,317	76,92
259,859	84,82
260,401	84,27
260,943	89,17
261,485	80,54
262,027	83,07
262,569	103,97
263,11	75,14
263,652	89,01
264,193	85,23
264,734	77,78
265,275	80,21
265,816	84,32
266,357	80,95
266,898	70,2
267,438	95,57
267,979	86,36
268,519	74,4
269,059	80,72
269,6	79,78
270,14	79,59
270,68	83,56
271,219	76,44
271,759	98,08
272,298	89,73
272,838	91,81
273,377	89,94
273,916	97,32
274,455	81,03
274,994	84,44
275,533	86,23
276,072	82,63
276,61	86,39
277,149	89,41
277,687	75,3
278,225	88,24
278,763	77,46
279,301	80,85
279,839	92,02
280,377	88,2
280,914	81,96
281,452	87,71
281,989	91,18
282,526	89,87
283,064	83,75
283,601	80,34
284,137	92,02
284,674	85,39
285,211	83,33
285,747	81,91
286,284	95,29
286,82	79,69
287,356	74,23
287,892	83,43
288,428	82,18
288,964	83,33
289,5	78,03
290,035	82,39
290,571	78,31
291,106	74,72
291,641	81,4
292,176	82,8
292,711	83,72
293,246	81,52
293,781	80,11
294,315	68,88
294,85	75,48
295,384	91,91
295,918	77,13
296,453	75,14
296,987	74,86
297,52	75
298,054	82,76
298,588	89,63
299,121	93,3
299,655	81,18
300,188	86,67
300,721	97,52
301,254	82,01
301,787	82,8
302,32	67,36
302,853	86,59
303,385	77,72
303,918	78,86
304,45	81,63
304,982	81,92
305,514	78,19
306,046	86,96
306,578	77,01
307,11	83,98
307,641	82,97
308,173	80,9
308,704	88,64
309,236	83,76
309,767	77,37
310,298	80,5
310,829	79
311,359	69,57
311,89	90,64
312,421	81,08
312,951	92,57
313,481	72,94
314,012	75
314,542	75
315,072	83,43
315,601	98,7
316,131	72,87
316,661	85,8
317,19	82,66
317,72	80,12
318,249	80,56
318,778	95,92
319,307	86,46
319,836	92,66
320,365	73,02
320,893	81,35
321,422	86,9
321,95	85,94
322,479	87,88
323,007	83,15
323,535	84,97
324,063	82,49
324,591	78,31
325,118	80,11
325,646	86,7
326,173	79,78
326,701	77,44
327,228	85,86
327,755	79,7
328,282	90,5
328,809	84,71
329,336	73,63
329,862	78,86
330,389	74,74
330,915	79,79
331,441	87,13
331,968	95,51
332,494	71,43
333,02	81,56
333,545	69,31
334,071	76,92
334,597	79,21
335,122	75,53
335,648	74,52
336,173	84,32
336,698	62,23
337,223	78,07
337,748	66,67
338,272	70,21
338,797	88,52
339,322	70,81
339,846	83,87
340,37	69,95
340,894	63,68
341,419	90,23
341,942	74,6
342,466	67,36
342,99	73,3
343,514	64,22
344,037	70,21
344,56	66,99
345,084	68,16
345,607	69,9
346,13	69,01
346,653	75,7
347,175	66,51
347,698	67,84
348,221	74,18
348,743	60,92
349,265	65,02
349,787	65,85
350,309	56,68
350,831	61,92
351,353	63,51
351,875	65,59
352,397	58,19
352,918	62,92
353,439	59,92
353,961	53,54
354,482	64,68
355,003	64,2
355,524	58,85
356,044	61,83
356,565	56,91
357,086	55,43
357,606	56,6
358,126	60,15
358,646	57,25
359,167	64,35
359,687	60,59
360,206	62,22
360,726	59,53
361,246	51,32
361,765	55,07
362,285	63,94
362,804	56,47
363,323	55,67
363,842	53,52
364,361	53,28
364,88	51,46
365,398	58,6
365,917	56,79
366,435	51,33
366,954	54,4
367,472	51,9
367,99	53,25
368,508	48,33
369,026	53,21
369,544	53,14
370,061	51,93
370,579	54,63
371,096	46,01
371,613	48,72
372,131	51,3
372,648	51,28
373,165	45,48
373,681	45,78
374,198	53,87
374,715	52,99
375,231	50,38
375,747	52,12
376,264	52,22
376,78	46,45
377,296	40,87
377,812	42,78
378,327	46,12
378,843	46,29
379,359	48,11
379,874	46,4
380,389	41,31
380,905	43,66
381,42	42,22
381,935	40,51
382,449	41,32
382,964	40,75
383,479	39,09
383,993	40,99
384,508	43,8
385,022	40,43
385,536	34,16
386,05	41,24
386,564	37,66
387,078	40,86
387,592	39,38
388,105	32,4
388,619	34,08
389,132	33,12
389,645	33,28
390,158	33,92
390,671	35,06
391,184	34,22
391,697	33,57
392,21	30,36
392,722	33,86
393,235	31,7
393,747	33,86
394,259	32,96
394,771	31,38
395,283	29,95
395,795	29,9
396,307	28,52
396,818	30,85
397,33	31,79
397,841	29,2
398,353	27,15
398,864	32,16
399,375	26,28
399,886	23,83
400,397	27,09
400,907	24,43
401,418	24,81
401,928	22,98
402,439	22,74
402,949	23,35
403,459	22,24
403,969	21,52
404,479	21,13
404,989	21,53
405,498	18,17
406,008	19,75
406,517	18,79
407,027	20,09
407,536	17,97
408,045	17,93
408,554	18,49
409,063	16,94
409,572	14,82
410,08	16,37
410,589	15,04
411,097	14,17
411,606	13,67
412,114	13,38
412,622	13,02
413,13	12,86
413,638	12,47
414,145	11,13
414,653	11,77
415,16	11,7
415,668	11,37
416,175	11,19
416,682	11,27
417,189	10,76
417,696	9,76
418,203	10,27
418,71	9,78
419,216	10,35
419,723	9,33
420,229	9,5
420,735	9,57
421,242	8,68
421,748	9,77
422,254	8,65
422,759	8,63
423,265	8,51
423,771	8,01
424,276	7,86
424,781	8,47
425,287	8,11
425,792	8,28
426,297	8,67
426,802	8,09
427,306	7,98
427,811	7,89
428,316	8,37
428,82	7,72
429,324	7,54
429,829	7,49
430,333	8,07
430,837	8,09
431,34	7,74
431,844	7,05
432,348	7,47
432,851	7,53
433,355	7,08
433,858	6,99
434,361	7,58
434,864	7,48
435,367	6,98
435,87	7,29
436,373	6,73
436,876	7,27
437,378	6,54
437,88	6,93
438,383	6,8
438,885	6,85
439,387	6,65
439,889	6,58
440,391	6,49
440,892	6,7
441,394	7,49
441,896	6,55
442,397	7,13
442,898	6,64
443,399	6,28
443,9	6,39
444,401	6,43
444,902	6,57
445,403	6,89
445,903	6,75
446,404	6,88
446,904	6,73
447,405	6,61
447,905	6,6
448,405	6,52
448,905	6,46
449,404	6,95
449,904	7,15
450,404	6,58
450,903	6,93
451,403	6,99
451,902	6,71
452,401	7,18
452,9	7,25
453,399	6,92
453,898	6,93
454,396	7,01
454,895	6,53
455,393	6,97
455,892	6,85
456,39	7,4
456,888	6,77
457,386	7,31
457,884	7,08
458,382	6,75
458,879	6,96
459,377	7,31
459,874	6,79
460,372	6,97
460,869	7,16
461,366	6,67
461,863	6,9
462,36	6,87
462,857	6,89
463,353	6,83
463,85	7,24
464,346	6,89
464,843	6,83
465,339	6,71
465,835	6,78
466,331	6,88
466,827	6,9
467,323	6,8
467,818	6,62
468,314	6,79
468,809	6,72
469,305	6,93
469,8	6,93
470,295	6,88
470,79	6,92
471,285	7,18
471,78	7,01
472,274	6,81
472,769	6,68
473,263	7,07
473,758	6,91
474,252	7,15
474,746	6,69
475,24	6,82
475,734	6,91
476,228	6,77
476,721	6,93
477,215	6,87
477,708	7,18
478,202	6,89
478,695	6,78
479,188	7,14
479,681	7,13
480,174	6,82
480,667	6,95
481,159	7,02
481,652	6,87
482,144	7,24
482,637	7,14
483,129	7,11
483,621	7,49
484,113	6,97
484,605	7,14
485,097	7,21
485,588	6,92
486,08	7,14
486,571	6,97
487,063	7,04
487,554	7,07
488,045	7,39
488,536	6,94
489,027	7,15
489,518	7,34
490,008	7,67
490,499	7,6
490,989	7,43
491,48	7,67
491,97	7,4
492,46	7,73
492,95	7,43
493,44	7,96
493,93	7,65
494,419	7,89
494,909	7,7
495,398	8,03
495,888	7,94
496,377	7,95
496,866	8,21
497,355	8,77
497,844	8,32
498,333	8,65
498,821	8,49
499,31	8,59
499,798	8,89
500,287	8,78
500,775	8,88
501,263	9,31
501,751	9,06
502,239	9,32
502,727	9,55
503,215	9,53
503,702	9,73
504,19	10,03
504,677	9,96
505,164	10,28
505,651	10,09
506,139	10,54
506,625	10,84
507,112	10,95
507,599	11,21
508,086	11,05
508,572	11,54
509,058	11,53
509,545	11,97
510,031	12,29
510,517	12,3
511,003	12,4
511,489	12,61
511,974	13,08
512,46	13,2
512,946	13,12
513,431	13,95
513,916	13,78
514,401	14,17
514,887	14,82
515,371	14,52
515,856	14,54
516,341	15,2
516,826	15,7
517,31	15,47
517,795	16,05
518,279	16,41
518,763	16,81
519,247	17,39
519,731	17,08
520,215	17,88
520,699	17,98
521,182	18,24
521,666	18,85
522,149	18,7
522,633	19,13
523,116	19,53
523,599	19,64
524,082	20,22
524,565	20,66
525,048	20,62
525,53	20,73
526,013	21,26
526,495	21,15
526,978	21,36
527,46	21,47
527,942	22,05
528,424	22,27
528,906	22,11
529,388	22,75
529,87	23,06
530,351	23,35
530,833	23,27
531,314	23,65
531,795	23,58
532,277	23,88
532,758	24,3
533,238	23,88
533,719	23,78
534,2	24,61
534,681	24,2
535,161	24,36
535,642	24,67
536,122	24,8
536,602	24,88
537,082	24,74
537,562	24,97
538,042	24,85
538,522	24,9
539,001	25,17
539,481	24,87
539,96	25,27
540,44	25,17
540,919	25,41
541,398	25,43
541,877	25,38
542,356	25,48
542,835	25,26
543,313	25,89
543,792	25,49
544,27	25,83
544,749	25,44
545,227	25,52
545,705	25,78
546,183	25,58
546,661	25,52
547,139	25,72
547,616	25,95
548,094	26,37
548,571	25,9
549,049	26
549,526	26,18
550,003	26,19
550,48	26,85
550,957	25,76
551,434	26,27
551,911	26,2
552,387	26,23
552,864	26,09
553,34	25,91
553,817	26,05
554,293	26,12
554,769	25,97
555,245	26,48
555,721	26,2
556,197	26,18
556,672	26,26
557,148	25,71
557,623	25,9
558,099	26,05
558,574	25,97
559,049	26,01
559,524	26,07
559,999	25,94
560,474	25,69
560,948	25,29
561,423	25,64
561,897	25,78
562,372	25,57
562,846	25,46
563,32	25,29
563,794	25,61
564,268	25,36
564,742	25,21
565,216	24,67
565,69	24,98
566,163	24,64
566,636	24,89
567,11	24,27
567,583	23,99
568,056	24,21
568,529	23,89
569,002	24,12
569,475	23,5
569,947	23,61
570,42	23,49
570,892	23,49
571,365	23,18
571,837	23,42
572,309	22,09
572,781	22,95
573,253	22,54
573,725	22,42
574,197	22,32
574,668	22,01
575,14	21,94
575,611	22,09
576,082	21,58
576,554	21,34
577,025	21,3
577,496	21,33
577,967	21,3
578,437	21,03
578,908	20,73
579,379	20,68
579,849	20,39
580,319	20,35
580,79	20,32
581,26	20,29
581,73	20,2
582,2	20,05
582,669	20,06
583,139	19,66
583,609	19,53
584,078	19,26
584,548	19,59
585,017	19,27
585,486	19,04
585,955	19,27
586,424	19,03
586,893	18,93
587,362	18,83
587,83	19,2
588,299	18,79
588,767	18,73
589,236	18,42
589,704	18,38
590,172	18,48
590,64	18,17
591,108	18,27
591,576	17,98
592,043	17,97
592,511	17,71
592,978	17,9
593,446	17,92
593,913	17,84
594,38	17,87
594,847	17,8
595,314	17,86
595,781	17,53
596,248	17,72
596,715	17,58
597,181	17,57
597,647	17,62
598,114	17,35
598,58	17,43
599,046	17,36
599,512	17,3
599,978	16,96
600,444	17,42
600,91	17,39
601,375	17,22
601,841	17,27
602,306	17,24
602,771	17,26
603,236	16,98
603,702	16,92
604,167	17,2
604,631	17,03
605,096	16,85
605,561	16,72
606,025	16,69
606,49	16,71
606,954	16,63
607,418	16,58
607,882	16,61
608,347	16,26
608,81	16,57
609,274	16,24
609,738	16,19
610,202	16,08
610,665	16,17
611,128	15,92
611,592	15,86
612,055	15,59
612,518	15,75
612,981	15,77
613,444	15,58
613,907	15,73
614,369	15,37
614,832	15,29
615,294	15,12
615,757	15,2
616,219	15,09
616,681	15,11
617,143	14,76
617,605	14,88
618,067	14,91
618,529	14,83
618,99	14,63
619,452	14,44
619,913	14,51
620,375	14,48
620,836	14,53
621,297	14,27
621,758	14,22
622,219	14,21
622,68	14,18
623,14	14,16
623,601	14,07
624,061	14,11
624,522	13,89
624,982	13,89
625,442	13,9
625,902	13,96
626,362	13,88
626,822	13,61
627,282	13,89
627,742	13,63
628,201	13,74
628,661	13,82
629,12	13,84
629,579	13,76
630,038	13,73
630,497	13,74
630,956	13,64
631,415	13,64
631,874	13,43
632,332	13,6
632,791	13,49
633,249	13,54
633,708	13,45
634,166	13,25
634,624	13,16
635,082	13,12
635,54	12,89
635,998	13
636,455	13,05
636,913	12,74
637,37	12,7
637,828	12,55
638,285	12,5
638,742	12,26
639,199	12,33
639,656	12,22
640,113	11,97
640,57	11,97
641,027	11,86
641,483	11,69
641,94	11,71
642,396	11,38
642,852	11,39
643,309	11,29
643,765	11
644,221	10,78
644,676	10,84
645,132	10,67
645,588	10,67
646,043	10,49
646,499	10,38
646,954	10,32
647,409	10,13
647,864	10,14
648,319	9,85
648,774	9,84
649,229	9,67
649,684	9,66
650,139	9,55
650,593	9,67
651,047	9,28
651,502	9,4
651,956	9,43
652,41	9,44
652,864	9,38
653,318	9,32
653,772	9,16
654,225	9,14
654,679	9,15
655,133	9,02
655,586	8,99
656,039	9,03
656,492	8,99
656,946	8,82
657,399	8,81
657,851	8,71
658,304	8,7
658,757	8,82
659,209	8,62
659,662	8,59
660,114	8,39
660,567	8,26
661,019	8,14
661,471	8,16
661,923	8,12
662,375	7,98
662,826	8
663,278	7,9
663,73	7,74
664,181	7,73
664,632	7,74
665,084	7,62
665,535	7,58
665,986	7,46
666,437	7,46
666,888	7,34
667,338	7,26
667,789	7,21
668,24	7,25
668,69	7,18
669,14	7,25
669,591	7,36
670,041	7,33
670,491	7,11
670,941	7,38
671,391	7,34
671,84	7,18
672,29	7,22
672,74	7,29
673,189	7,44
673,638	7,44
674,088	7,5
674,537	7,56
674,986	7,56
675,435	7,66
675,883	7,82
676,332	7,72
676,781	7,85
677,229	7,89
677,678	7,97
678,126	8,09
678,574	8,04
679,022	8,3
679,47	8,29
679,918	8,56
680,366	8,73
680,814	8,7
681,261	8,95
681,709	8,89
682,156	9,04
682,604	9,09
683,051	9,27
683,498	9,52
683,945	9,66
684,392	9,65
684,839	9,98
685,286	10,1
685,732	10,33
686,179	10,4
686,625	10,56
687,071	10,73
687,518	11,03
687,964	11,25
688,41	11,46
688,856	11,67
689,301	12,07
689,747	12,11
690,193	12,82
690,638	13,24
691,084	13,33
691,529	13,83
691,974	14,25
692,419	14,54
692,864	15,1
693,309	15,48
693,754	15,93
694,199	16,27
694,643	16,93
695,088	17,46
695,532	17,86
695,977	18,24
696,421	18,85
696,865	19,61
697,309	19,95
697,753	20,35
698,197	20,81
698,64	21,44
699,084	22,1
699,527	22,35
699,971	22,71
700,414	23,4
700,857	23,95
701,3	24,4
701,743	24,87
702,186	25,05
702,629	25,5
703,072	26,08
703,515	26,83
703,957	26,89
704,399	27,48
704,842	27,74
705,284	28,09
705,726	28,67
706,168	29,07
706,61	29,3
707,052	29,77
707,494	30,19
707,935	30,66
708,377	31,13
708,818	31,19
709,26	31,7
709,701	31,95
710,142	32,45
710,583	32,51
711,024	32,88
711,465	32,99
711,905	33,37
712,346	33,67
712,787	34,04
713,227	34,73
713,667	35,08
714,108	35,07
714,548	35,34
714,988	35,44
715,428	36,04
715,868	36,38
716,307	36,47
716,747	36,5
717,186	37,31
717,626	37,56
718,065	37,7
718,504	37,82
718,944	38,02
719,383	38,53
719,822	38,2
720,261	38,44
720,699	38,86
721,138	38,85
721,576	39,22
722,015	39,36
722,453	39,82
722,892	39,87
723,33	40,42
723,768	40,21
724,206	40,42
724,644	40,45
725,081	40,6
725,519	40,66
725,957	41,26
726,394	41,32
726,832	41,24
727,269	41,81
727,706	41,4
728,143	41,89
728,58	41,8
729,017	41,95
729,454	42,1
729,89	42,06
730,327	42,17
730,764	42,48
731,2	42,61
731,636	42,37
732,072	42,79
732,509	42,69
732,945	42,82
733,38	42,13
733,816	42,78
734,252	43,03
734,688	42,64
735,123	42,83
735,559	42,79
735,994	43,32
736,429	42,74
736,864	43,39
737,299	43,02
737,734	43,33
738,169	43,22
738,604	43,12
739,038	43,42
739,473	43,42
739,907	43,13
740,342	43,3
740,776	43,3
741,21	43,5
741,644	43,2
742,078	43,35
742,512	43,12
742,946	43,19
743,379	43,14
743,813	43,45
744,246	43,08
744,68	43,46
745,113	43,21
745,546	43,54
745,979	43,01
746,412	43,32
746,845	43,23
747,278	43,43
747,711	43,49
748,143	43,14
748,576	43,25
749,008	43,26
749,441	43,08
749,873	43,06
750,305	43,04
750,737	42,76
751,169	42,75
751,601	43,11
752,032	43,22
752,464	42,73
752,896	42,52
753,327	42,82
753,758	42,87
754,19	43,03
754,621	42,88
755,052	42,7
755,483	43,07
755,914	42,56
756,344	42,61
756,775	42,76
757,206	42,23
757,636	42,8
758,066	42,3
758,497	42,23
758,927	42,26
759,357	42,35
759,787	42,31
760,217	42,19
760,647	42,45
761,076	42,09
761,506	42,43
761,935	42,4
762,365	42,23
762,794	42,07
763,223	41,91
763,653	41,84
764,082	41,92
764,51	41,64
764,939	42,33
765,368	42,25
765,797	41,81
766,225	41,99
766,654	41,91
767,082	42,29
767,51	41,79
767,938	41,61
768,367	41,62
768,795	41,87
769,222	41,71
769,65	41,69
770,078	41,66
770,505	41,44
770,933	41,17
771,36	41,61
771,788	41,29
772,215	41,31
772,642	41,8
773,069	41,12
773,496	41,13
773,923	41,3
774,349	41,33
774,776	41,57
775,203	41,45
775,629	41,47
776,055	41,6
776,482	41,11
776,908	41,22
777,334	41,05
777,76	41,19
778,186	41,23
778,611	41,06
779,037	41,16
779,463	40,99
779,888	41,05
780,314	41,17
780,739	40,81
781,164	41,2
781,589	40,99
782,014	40,89
782,439	40,95
782,864	41,34
783,289	41,03
783,713	41,23
784,138	40,9
784,562	41,04
784,987	40,89
785,411	41,25
785,835	40,69
786,259	40,81
786,683	40,76
787,107	40,63
787,531	40,88
787,954	40,76
788,378	40,56
788,802	41,01
789,225	40,57
789,648	40,59
790,071	40,67
790,495	40,65
790,918	40,6
791,34	40,86
791,763	40,77
792,186	40,77
792,609	40,34
793,031	41,2
793,454	41,1
793,876	40,89
794,298	41,06
794,721	40,82
795,143	40,6
795,565	40,65
795,986	40,59
796,408	40,54
796,83	40,76
797,252	40,88
797,673	40,5
798,094	40,36
798,516	40,8
798,937	40,32
799,358	40,55
799,779	40,33
800,2	40,35
800,621	40,33
801,042	40,64
801,462	40,31
801,883	40,38
802,303	40,18
802,724	40,33
803,144	40,52
803,564	40,21
803,984	40,32
804,404	40,5
804,824	40,78
805,244	40,36
805,664	40,17
806,084	40,74
806,503	40,64
806,923	40,52
807,342	40,67
807,761	40,54
808,18	40,55
808,599	40,41
809,018	40,68
809,437	40,34
809,856	40,37
810,275	40,25
810,693	40,32
811,112	40,12
811,53	40,02
811,949	40,75
812,367	40,32
812,785	40,33
813,203	40,17
813,621	40,44
814,039	40,32
814,457	40,07
814,874	40,43
815,292	40,45
815,709	40,39
816,127	40,41
816,544	40,47
816,961	39,96
817,378	40,46
817,795	40,46
818,212	39,82
818,629	40,22
819,046	40,53
819,462	40,35
819,879	40,04
820,295	40,13
820,712	40
821,128	40,16
821,544	40,29
821,96	40,11
822,376	40,18
822,792	40,25
823,208	40,23
823,624	40,14
824,039	39,78
824,455	40,57
824,87	40,19
825,286	40
825,701	40,16
826,116	39,76
826,531	40,57
826,946	40,49
827,361	39,97
827,776	40,35
828,19	40,01
828,605	40,1
829,02	40,07
829,434	40,02
829,848	40,16
830,263	40,16
830,677	40,01
831,091	40,34
831,505	40,28
831,919	40,14
832,332	40
832,746	39,84
833,16	40,12
833,573	39,77
833,987	39,97
834,4	39,93
834,813	40,11
835,226	39,72
835,639	40,05
836,052	39,65
836,465	40
836,878	39,86
837,29	40,33
837,703	39,83
838,116	39,71
838,528	40,1
838,94	39,42
839,352	39,83
839,765	40,05
840,177	40,03
840,589	39,82
841	39,84
