Data from I4__Relative__2__00110.txt Node

Date: Thu Feb 01 16:28:24 CET 2024
User: diatiterra
Spectrometer: HDX00911
Trigger mode: 0
Integration Time (sec): 6,000000E-3
Scans to average: 2
Nonlinearity correction enabled: false
Boxcar width: 0
Storing dark spectrum: false
XAxis mode: Wavelengths
Number of Pixels in Spectrum: 2068
>>>>>Begin Spectral Data<<<<<
194,468	252,31
195,025	152,78
195,581	162,12
196,138	150
196,694	137,36
197,251	127,78
197,807	93,6
198,363	94,67
198,919	84,78
199,474	92,99
200,03	94,89
200,586	96,84
201,141	81,44
201,696	96,53
202,251	86,74
202,806	85,63
203,361	86,34
203,916	93,51
204,471	89,13
205,025	84,32
205,58	84,97
206,134	80,85
206,688	86,91
207,242	94,19
207,796	75,25
208,35	94,19
208,904	83,62
209,457	92,35
210,011	82,82
210,564	89,25
211,117	110,46
211,67	85,39
212,223	98,45
212,776	82,89
213,329	90,37
213,881	81,35
214,434	77,5
214,986	99,4
215,538	79,89
216,09	88,02
216,642	103,01
217,194	100,59
217,746	87,43
218,297	91,11
218,849	94,19
219,4	86,67
219,951	105,14
220,502	96,45
221,053	89,88
221,604	110,06
222,155	87,17
222,705	80,12
223,256	89,89
223,806	78,29
224,356	81,96
224,906	96,97
225,456	89,3
226,006	85,79
226,556	84,32
227,106	96,34
227,655	85,86
228,204	85,31
228,754	95,4
229,303	87,65
229,852	92,22
230,401	95,68
230,949	93,22
231,498	88,3
232,047	85,56
232,595	79,89
233,143	87,89
233,691	84,07
234,239	90,16
234,787	87,79
235,335	97,09
235,883	80
236,43	97,42
236,978	89,36
237,525	70,85
238,072	86,11
238,619	103,05
239,166	83,33
239,713	78,77
240,26	92,98
240,806	91,41
241,353	88,95
241,899	97,25
242,445	82,84
242,991	85,41
243,537	86,27
244,083	88,46
244,629	84
245,174	91,95
245,72	83,8
246,265	77,49
246,81	91,48
247,355	99,45
247,9	89,41
248,445	107,64
248,99	91,67
249,534	88,2
250,079	90,96
250,623	88,59
251,168	94,83
251,712	90,59
252,256	98,14
252,8	82,49
253,343	95,05
253,887	89,62
254,43	89,77
254,974	86,59
255,517	87,57
256,06	92,61
256,603	87,08
257,146	87,85
257,689	89,42
258,232	81,48
258,774	96,43
259,317	83,52
259,859	85,86
260,401	74,16
260,943	98,09
261,485	83,24
262,027	100,53
262,569	99,34
263,11	81,36
263,652	92,86
264,193	91,48
264,734	90,06
265,275	80,21
265,816	84,86
266,357	100
266,898	69,7
267,438	96,2
267,979	84,66
268,519	91,67
269,059	92,17
269,6	94,54
270,14	79,59
270,68	90,41
271,219	87,36
271,759	98,72
272,298	84,32
272,838	84,8
273,377	89,94
273,916	95,3
274,455	86,15
274,994	83,33
275,533	96,41
276,072	99,4
276,61	90,53
277,149	96,47
277,687	81,33
278,225	100,59
278,763	86,13
279,301	87,77
279,839	93,09
280,377	90,06
280,914	84,02
281,452	84,92
281,989	91,18
282,526	95,57
283,064	83,12
283,601	84,83
284,137	97,55
284,674	97,19
285,211	90,86
285,747	87,44
286,284	84,12
286,82	79,69
287,356	84,02
287,892	93,92
288,428	89,66
288,964	80,11
289,5	91,33
290,035	92,05
290,571	89,95
291,106	88,76
291,641	93,02
292,176	84,95
292,711	95,35
293,246	90,22
293,781	86,19
294,315	85,2
294,85	89,03
295,384	95,95
295,918	85,11
296,453	84,32
296,987	87,98
297,52	90,22
298,054	96,55
298,588	98,78
299,121	77,09
299,655	93,53
300,188	108,67
300,721	96,27
301,254	92,06
301,787	81,72
302,32	79,79
302,853	88,83
303,385	81,52
303,918	93,71
304,45	83,67
304,982	86,44
305,514	82,98
306,046	82,07
306,578	85,56
307,11	92,27
307,641	87,36
308,173	93,26
308,704	92,05
309,236	85,79
309,767	80,53
310,298	99,37
310,829	87,5
311,359	74,4
311,89	83,63
312,421	85,41
312,951	95,43
313,481	88,24
314,012	83,85
314,542	80,85
315,072	91,71
315,601	108,44
316,131	85,11
316,661	93,18
317,19	91,33
317,72	98,19
318,249	96,11
318,778	96,6
319,307	89,06
319,836	82,49
320,365	76,19
320,893	86,53
321,422	98,21
321,95	88,54
322,479	106,67
323,007	93,26
323,535	91,91
324,063	84,75
324,591	92,59
325,118	91,94
325,646	89,36
326,173	87,43
326,701	87,18
327,228	81,15
327,755	85,79
328,282	98,32
328,809	101,76
329,336	85,07
329,862	86,86
330,389	78,87
330,915	81,87
331,441	90,06
331,968	96,07
332,494	81,63
333,02	84,92
333,545	78,31
334,071	76,41
334,597	79,78
335,122	78,72
335,648	85,1
336,173	81,62
336,698	86,17
337,223	77,54
337,748	70,65
338,272	75
338,797	88,52
339,322	80,54
339,846	80,11
340,37	75,41
340,894	76,12
341,419	93,1
341,942	76,72
342,466	75,13
342,99	78,53
343,514	71,57
344,037	77,66
344,56	77,99
345,084	73,63
345,607	81,55
346,13	73,24
346,653	74,77
347,175	80,86
347,698	69,35
348,221	71,36
348,743	63,03
349,265	80,3
349,787	69,76
350,309	65,99
350,831	67,36
351,353	72,99
351,875	69,64
352,397	66,81
352,918	70
353,439	69,2
353,961	62,99
354,482	69,36
355,003	62,55
355,524	70,37
356,044	70,12
356,565	63,41
357,086	56,55
357,606	65,96
358,126	62,84
358,646	52,42
359,167	64,78
359,687	64,68
360,206	63,33
360,726	57,2
361,246	64,53
361,765	61,23
362,285	60,22
362,804	64,75
363,323	58,16
363,842	55,63
364,361	57,3
364,88	58,9
365,398	54,39
365,917	46,6
366,435	58,33
366,954	55,05
367,472	55,38
367,99	43,83
368,508	49,33
369,026	53,53
369,544	52,83
370,061	46,29
370,579	49,38
371,096	43,53
371,613	51,57
372,131	48,99
372,648	49,57
373,165	45,21
373,681	49,4
374,198	48,71
374,715	48,43
375,231	45,06
375,747	41,8
376,264	44,65
376,78	41,88
377,296	37,98
377,812	40,25
378,327	45,11
378,843	38,62
379,359	42,22
379,874	42,68
380,389	39,95
380,905	32,69
381,42	37,11
381,935	38,17
382,449	34,09
382,964	34,93
383,479	35,8
383,993	36,23
384,508	35,53
385,022	34,04
385,536	31,15
386,05	35,4
386,564	32,86
387,078	31
387,592	29,79
388,105	30,91
388,619	29,12
389,132	29,84
389,645	28
390,158	29,97
390,671	30,18
391,184	27,49
391,697	26,97
392,21	23,76
392,722	28,15
393,235	24,44
393,747	24,58
394,259	26,76
394,771	25,92
395,283	28,23
395,795	21,52
396,307	23,12
396,818	24,29
397,33	25,1
397,841	22,87
398,353	23,39
398,864	24,27
399,375	20,6
399,886	20,24
400,397	21,86
400,907	20,59
401,418	18,73
401,928	19,18
402,439	18,23
402,949	18,47
403,459	20,02
403,969	17,27
404,479	18,68
404,989	18,29
405,498	15,93
406,008	15,67
406,517	15,28
407,027	15,19
407,536	15,1
408,045	15,03
408,554	15,18
409,063	13,83
409,572	13,33
410,08	13,51
410,589	11,72
411,097	11,61
411,606	11,25
412,114	10,66
412,622	10,84
413,13	10,63
413,638	10,45
414,145	9,13
414,653	9,66
415,16	9,09
415,668	9,04
416,175	8,42
416,682	8,39
417,189	8,72
417,696	7,73
418,203	7,55
418,71	7,95
419,216	8,55
419,723	8,08
420,229	7,36
420,735	8,07
421,242	6,98
421,748	6,59
422,254	6,8
422,759	6,55
423,265	6,59
423,771	6,66
424,276	6,19
424,781	7,08
425,287	6,21
425,792	6,29
426,297	6,24
426,802	6,18
427,306	5,98
427,811	5,82
428,316	6,17
428,82	5,09
429,324	5,82
429,829	5,67
430,333	6,45
430,837	5,59
431,34	5,96
431,844	5,33
432,348	5,32
432,851	5,38
433,355	5,5
433,858	5,4
434,361	5,56
434,864	5,26
435,367	5,22
435,87	5,17
436,373	4,94
436,876	5,68
437,378	4,93
437,88	4,99
438,383	5,17
438,885	5,23
439,387	5,41
439,889	5,02
440,391	5,01
440,892	4,81
441,394	5,02
441,896	5,09
442,397	4,89
442,898	4,6
443,399	4,47
443,9	5,07
444,401	4,6
444,902	4,66
445,403	5,17
445,903	4,95
446,404	4,94
446,904	4,85
447,405	4,96
447,905	4,72
448,405	4,59
448,905	4,56
449,404	4,85
449,904	4,85
450,404	4,66
450,903	4,78
451,403	4,73
451,902	4,44
452,401	4,93
452,9	4,75
453,399	4,9
453,898	4,48
454,396	4,61
454,895	4,8
455,393	5,1
455,892	4,96
456,39	4,7
456,888	4,42
457,386	4,73
457,884	4,69
458,382	4,58
458,879	4,77
459,377	4,64
459,874	4,31
460,372	4,4
460,869	4,56
461,366	4,3
461,863	4,98
462,36	4,39
462,857	4,62
463,353	4,33
463,85	4,45
464,346	4,42
464,843	4,27
465,339	4,43
465,835	4,62
466,331	4,49
466,827	4,47
467,323	4,55
467,818	4,26
468,314	4,6
468,809	4,23
469,305	4,11
469,8	4,59
470,295	4,84
470,79	4,51
471,285	4,57
471,78	4,52
472,274	4,4
472,769	4,17
473,263	4,36
473,758	4,36
474,252	4,4
474,746	4,31
475,24	4,08
475,734	4,35
476,228	4,4
476,721	4,64
477,215	4,81
477,708	4,27
478,202	4,43
478,695	4,18
479,188	4,47
479,681	4,44
480,174	4,06
480,667	4,42
481,159	4,36
481,652	4,28
482,144	4,28
482,637	4,31
483,129	4,15
483,621	4,19
484,113	4,32
484,605	4,31
485,097	4,45
485,588	4,43
486,08	4,26
486,571	4,45
487,063	4,54
487,554	4,39
488,045	4,28
488,536	4,14
489,027	4,32
489,518	4,17
490,008	4,67
490,499	4,43
490,989	4,46
491,48	4,31
491,97	4,37
492,46	4,32
492,95	4,22
493,44	4,6
493,93	4,54
494,419	4,39
494,909	4,56
495,398	4,61
495,888	4,66
496,377	4,57
496,866	4,67
497,355	4,65
497,844	4,42
498,333	4,73
498,821	4,48
499,31	4,72
499,798	4,84
500,287	4,68
500,775	4,76
501,263	4,94
501,751	4,76
502,239	5,01
502,727	5,19
503,215	5,14
503,702	5,16
504,19	5,15
504,677	5,35
505,164	5,45
505,651	5,28
506,139	5,32
506,625	5,42
507,112	5,35
507,599	5,54
508,086	5,92
508,572	5,71
509,058	5,92
509,545	6,09
510,031	6,26
510,517	6,12
511,003	6,2
511,489	6,65
511,974	6,81
512,46	6,9
512,946	6,68
513,431	6,96
513,916	7,22
514,401	7,23
514,887	7,83
515,371	7,25
515,856	7,71
516,341	7,81
516,826	8,36
517,31	8,15
517,795	8,55
518,279	9,01
518,763	8,77
519,247	9,32
519,731	9,15
520,215	9,68
520,699	9,65
521,182	10
521,666	10,24
522,149	10,34
522,633	10,62
523,116	10,62
523,599	10,99
524,082	11,08
524,565	11,56
525,048	11,76
525,53	11,66
526,013	11,94
526,495	12,25
526,978	12,35
527,46	12,87
527,942	12,82
528,424	12,93
528,906	12,98
529,388	13,14
529,87	13,04
530,351	13,67
530,833	13,9
531,314	13,68
531,795	13,75
532,277	13,99
532,758	14,24
533,238	14,12
533,719	14,34
534,2	14,43
534,681	14,29
535,161	14,99
535,642	14,88
536,122	14,82
536,602	14,62
537,082	14,79
537,562	14,84
538,042	15,01
538,522	15,11
539,001	15,11
539,481	14,87
539,96	14,82
540,44	15,3
540,919	15,25
541,398	15,31
541,877	15,33
542,356	15,33
542,835	15,39
543,313	15,69
543,792	15,48
544,27	15,45
544,749	15,43
545,227	15,53
545,705	15,23
546,183	15,59
546,661	15,78
547,139	15,92
547,616	15,84
548,094	15,7
548,571	15,63
549,049	15,99
549,526	15,88
550,003	15,79
550,48	16,18
550,957	15,97
551,434	15,72
551,911	15,87
552,387	15,97
552,864	16,01
553,34	16,27
553,817	16,34
554,293	16,1
554,769	15,95
555,245	16,09
555,721	15,94
556,197	15,92
556,672	15,84
557,148	16,04
557,623	15,8
558,099	15,92
558,574	15,76
559,049	15,54
559,524	15,7
559,999	15,75
560,474	15,65
560,948	15,3
561,423	15,25
561,897	15,77
562,372	15,29
562,846	15,04
563,32	15,18
563,794	15,11
564,268	14,79
564,742	14,9
565,216	14,67
565,69	14,69
566,163	14,53
566,636	14,55
567,11	14,52
567,583	14,13
568,056	13,75
568,529	13,84
569,002	13,75
569,475	13,68
569,947	13,44
570,42	13,3
570,892	13,24
571,365	12,95
571,837	12,91
572,309	12,48
572,781	12,69
573,253	12,75
573,725	12,46
574,197	12,21
574,668	12,27
575,14	12,17
575,611	11,62
576,082	11,73
576,554	11,58
577,025	11,74
577,496	11,53
577,967	11,42
578,437	11,19
578,908	11,28
579,379	11,17
579,849	11,06
580,319	10,92
580,79	10,65
581,26	10,77
581,73	10,55
582,2	10,6
582,669	10,5
583,139	10,5
583,609	10,13
584,078	10,3
584,548	10,26
585,017	9,99
585,486	10,16
585,955	10,04
586,424	10,01
586,893	10,05
587,362	9,95
587,83	9,91
588,299	9,71
588,767	9,68
589,236	9,58
589,704	9,47
590,172	9,68
590,64	9,49
591,108	9,5
591,576	9,48
592,043	9,31
592,511	9,34
592,978	9,24
593,446	9,08
593,913	9,26
594,38	9,16
594,847	8,81
595,314	9,19
595,781	9,06
596,248	8,95
596,715	9,1
597,181	9,1
597,647	9,18
598,114	8,77
598,58	8,88
599,046	8,92
599,512	8,71
599,978	8,6
600,444	8,87
600,91	8,66
601,375	8,76
601,841	8,74
602,306	8,76
602,771	8,65
603,236	8,74
603,702	8,64
604,167	8,69
604,631	8,57
605,096	8,46
605,561	8,56
606,025	8,46
606,49	8,5
606,954	8,16
607,418	8,2
607,882	8,19
608,347	8,06
608,81	8,27
609,274	8,22
609,738	7,93
610,202	8,2
610,665	7,88
611,128	7,92
611,592	7,75
612,055	7,78
612,518	7,85
612,981	7,63
613,444	7,54
613,907	7,6
614,369	7,42
614,832	7,49
615,294	7,52
615,757	7,43
616,219	7,4
616,681	7,47
617,143	7,22
617,605	7,1
618,067	7,21
618,529	7,15
618,99	7,03
619,452	7,08
619,913	6,88
620,375	7,1
620,836	6,97
621,297	6,85
621,758	6,96
622,219	6,9
622,68	6,93
623,14	6,88
623,601	6,65
624,061	6,78
624,522	6,72
624,982	6,64
625,442	6,63
625,902	6,62
626,362	6,69
626,822	6,56
627,282	6,71
627,742	6,56
628,201	6,65
628,661	6,56
629,12	6,46
629,579	6,51
630,038	6,65
630,497	6,53
630,956	6,5
631,415	6,43
631,874	6,51
632,332	6,27
632,791	6,43
633,249	6,32
633,708	6,46
634,166	6,25
634,624	6,25
635,082	6,25
635,54	6,15
635,998	6,22
636,455	6,03
636,913	6,1
637,37	6
637,828	6,02
638,285	5,94
638,742	5,85
639,199	5,9
639,656	5,8
640,113	5,68
640,57	5,6
641,027	5,56
641,483	5,57
641,94	5,44
642,396	5,34
642,852	5,25
643,309	5,06
643,765	5,15
644,221	5,14
644,676	4,98
645,132	4,91
645,588	5,04
646,043	4,96
646,499	4,87
646,954	4,91
647,409	4,82
647,864	4,76
648,319	4,67
648,774	4,59
649,229	4,61
649,684	4,59
650,139	4,51
650,593	4,61
651,047	4,53
651,502	4,41
651,956	4,41
652,41	4,35
652,864	4,48
653,318	4,49
653,772	4,4
654,225	4,43
654,679	4,45
655,133	4,25
655,586	4,37
656,039	4,37
656,492	4,35
656,946	4,32
657,399	4,33
657,851	4,3
658,304	4,14
658,757	4,25
659,209	4,18
659,662	4,21
660,114	4,05
660,567	4,14
661,019	4,07
661,471	4,16
661,923	4
662,375	4,13
662,826	4,09
663,278	4
663,73	3,91
664,181	4,07
664,632	3,93
665,084	4,04
665,535	3,99
665,986	3,93
666,437	3,94
666,888	4,07
667,338	3,98
667,789	3,99
668,24	3,96
668,69	3,98
669,14	4,01
669,591	4,04
670,041	4,21
670,491	4,16
670,941	4,14
671,391	4,27
671,84	4,2
672,29	4,24
672,74	4,29
673,189	4,49
673,638	4,35
674,088	4,47
674,537	4,49
674,986	4,57
675,435	4,58
675,883	4,64
676,332	4,74
676,781	4,78
677,229	4,76
677,678	5,01
678,126	4,89
678,574	5,07
679,022	5,12
679,47	5,22
679,918	5,3
680,366	5,36
680,814	5,52
681,261	5,51
681,709	5,64
682,156	5,79
682,604	5,75
683,051	5,86
683,498	5,88
683,945	5,95
684,392	6,02
684,839	6,03
685,286	6,18
685,732	6,19
686,179	6,1
686,625	6,35
687,071	6,25
687,518	6,47
687,964	6,49
688,41	6,6
688,856	6,47
689,301	6,68
689,747	6,85
690,193	7,04
690,638	7,08
691,084	7,21
691,529	7,52
691,974	7,63
692,419	7,78
692,864	8,21
693,309	8,51
693,754	8,65
694,199	8,95
694,643	9,18
695,088	9,53
695,532	9,81
695,977	10,14
696,421	10,56
696,865	10,88
697,309	11,44
697,753	11,69
698,197	12,09
698,64	12,54
699,084	12,9
699,527	13,46
699,971	13,82
700,414	14,23
700,857	14,64
701,3	15,07
701,743	15,45
702,186	15,79
702,629	16,34
703,072	16,98
703,515	17,61
703,957	17,66
704,399	18,28
704,842	18,79
705,284	19,11
705,726	19,72
706,168	19,92
706,61	20,54
707,052	21,07
707,494	21,43
707,935	22,1
708,377	22,59
708,818	22,76
709,26	23,19
709,701	23,75
710,142	24,27
710,583	24,47
711,024	25
711,465	25,49
711,905	25,79
712,346	26,43
712,787	27,1
713,227	27,41
713,667	27,92
714,108	28,4
714,548	29
714,988	29,29
715,428	29,68
715,868	30,12
716,307	30,57
716,747	30,87
717,186	31,71
717,626	31,95
718,065	32,56
718,504	33,01
718,944	33,49
719,383	33,74
719,822	33,97
720,261	34,17
720,699	34,89
721,138	35,23
721,576	35,85
722,015	36,23
722,453	36,59
722,892	36,94
723,33	37,45
723,768	37,78
724,206	38,2
724,644	38,61
725,081	38,89
725,519	39,07
725,957	39,77
726,394	39,78
726,832	40,59
727,269	40,88
727,706	41,04
728,143	41,38
728,58	41,48
729,017	42,12
729,454	42,21
729,89	42,27
730,327	42,83
730,764	42,97
731,2	43,49
731,636	43,4
732,072	43,71
732,509	44,26
732,945	44,19
733,38	44,16
733,816	44,44
734,252	44,83
734,688	44,93
735,123	45,19
735,559	45,36
735,994	45,9
736,429	45,2
736,864	45,81
737,299	45,95
737,734	46,51
738,169	46,45
738,604	46,26
739,038	46,66
739,473	46,82
739,907	46,86
740,342	46,89
740,776	46,99
741,21	46,91
741,644	47,29
742,078	47,66
742,512	47,29
742,946	47,58
743,379	47,32
743,813	47,43
744,246	47,51
744,68	47,93
745,113	47,45
745,546	48,16
745,979	47,73
746,412	47,93
746,845	48,01
747,278	47,89
747,711	47,95
748,143	47,77
748,576	47,73
749,008	47,82
749,441	47,74
749,873	47,74
750,305	48,09
750,737	47,69
751,169	48,1
751,601	48,14
752,032	48,23
752,464	47,77
752,896	47,83
753,327	48,15
753,758	48,15
754,19	48,45
754,621	48,38
755,052	48,13
755,483	48,1
755,914	47,86
756,344	48,1
756,775	47,9
757,206	47,65
757,636	47,43
758,066	47,47
758,497	47,65
758,927	47,99
759,357	47,8
759,787	47,65
760,217	47,37
760,647	47,67
761,076	47,48
761,506	47,4
761,935	47,86
762,365	47,5
762,794	47,32
763,223	47,66
763,653	47,47
764,082	47,38
764,51	47,45
764,939	47,24
765,368	47,18
765,797	47,31
766,225	47,33
766,654	46,95
767,082	47,01
767,51	47,03
767,938	47,11
768,367	47
768,795	47,13
769,222	46,91
769,65	47,23
770,078	47,2
770,505	46,98
770,933	46,64
771,36	46,92
771,788	46,69
772,215	46,98
772,642	46,94
773,069	46,7
773,496	46,54
773,923	46,53
774,349	46,79
774,776	46,71
775,203	46,66
775,629	46,88
776,055	46,42
776,482	46,58
776,908	46,61
777,334	46,63
777,76	46,9
778,186	46,6
778,611	46,24
779,037	46,24
779,463	46,12
779,888	46,67
780,314	46,33
780,739	46,21
781,164	46,76
781,589	45,98
782,014	46,25
782,439	46,34
782,864	46,56
783,289	46,15
783,713	46,48
784,138	46,27
784,562	46,41
784,987	46,14
785,411	46,53
785,835	46,02
786,259	45,72
786,683	46,17
787,107	46,33
787,531	46,21
787,954	46,11
788,378	45,86
788,802	45,85
789,225	46,06
789,648	45,95
790,071	45,86
790,495	46,31
790,918	46,08
791,34	46,29
791,763	45,98
792,186	46,28
792,609	45,58
793,031	46,06
793,454	46,23
793,876	45,92
794,298	46,18
794,721	46,07
795,143	45,92
795,565	46,06
795,986	45,97
796,408	45,53
796,83	45,94
797,252	45,98
797,673	45,94
798,094	46,05
798,516	46,21
798,937	46,19
799,358	45,84
799,779	45,57
800,2	45,8
800,621	45,88
801,042	46,11
801,462	45,56
801,883	45,47
802,303	45,87
802,724	45,27
803,144	45,75
803,564	45,35
803,984	45,92
804,404	45,7
804,824	46,02
805,244	45,91
805,664	45,72
806,084	45,82
806,503	45,89
806,923	45,53
807,342	45,51
807,761	45,87
808,18	46,01
808,599	45,85
809,018	45,81
809,437	45,48
809,856	45,66
810,275	45,87
810,693	45,39
811,112	45,72
811,53	45,92
811,949	46
812,367	45,94
812,785	45,75
813,203	45,89
813,621	45,4
814,039	45,43
814,457	45,23
814,874	45,58
815,292	45,74
815,709	45,34
816,127	45,52
816,544	45,76
816,961	45,79
817,378	45,73
817,795	45,83
818,212	45,55
818,629	45,54
819,046	45,64
819,462	45,6
819,879	45,61
820,295	45,72
820,712	45,55
821,128	45,45
821,544	45,49
821,96	45,65
822,376	45,89
822,792	45,1
823,208	45,4
823,624	45,51
824,039	45,43
824,455	45,11
824,87	45,58
825,286	45,66
825,701	45,34
826,116	45,07
826,531	45,69
826,946	45,3
827,361	45,32
827,776	45,34
828,19	45,27
828,605	45,86
829,02	45,33
829,434	45,23
829,848	45,1
830,263	45,17
830,677	45,31
831,091	45,41
831,505	45,64
831,919	45,2
832,332	44,96
832,746	45,1
833,16	45,32
833,573	44,81
833,987	45,32
834,4	44,83
834,813	45,55
835,226	44,81
835,639	45,27
836,052	45,36
836,465	45,22
836,878	45,24
837,29	45,74
837,703	45,07
838,116	45,02
838,528	45,06
838,94	44,67
839,352	45,29
839,765	45,42
840,177	45,08
840,589	45,03
841	44,93
841,412	44,92
841,824	44,86
842,235	44,89
842,647	44,99
843,058	44,95
843,47	45,24
843,881	45,38
844,292	45,29
844,703	45,2
845,114	45,15
845,525	45,13
845,935	45,21
846,346	45,13
