Data from L5__Relative__5__00121.txt Node

Date: Thu Feb 01 16:29:19 CET 2024
User: diatiterra
Spectrometer: HDX00911
Trigger mode: 0
Integration Time (sec): 6,000000E-3
Scans to average: 2
Nonlinearity correction enabled: false
Boxcar width: 0
Storing dark spectrum: false
XAxis mode: Wavelengths
Number of Pixels in Spectrum: 2068
>>>>>Begin Spectral Data<<<<<
194,468	236,92
195,025	131,94
195,581	172,73
196,138	161,76
196,694	152,75
197,251	125,4
197,807	94,77
198,363	88,76
198,919	91,3
199,474	87,9
200,03	100,57
200,586	101,9
201,141	82,47
201,696	89,02
202,251	79,01
202,806	100
203,361	93,44
203,916	90,81
204,471	88,59
205,025	86,49
205,58	86,13
206,134	89,89
206,688	88,48
207,242	93,6
207,796	85,35
208,35	104,65
208,904	93,79
209,457	97,65
210,011	96,32
210,564	85,48
211,117	104,58
211,67	94,38
212,223	89,69
212,776	87,17
213,329	85,03
213,881	79,27
214,434	89
214,986	93,98
215,538	86,41
216,09	94,27
216,642	103,61
217,194	92,94
217,746	86,29
218,297	86,11
218,849	88,37
219,4	85,56
219,951	97,14
220,502	93,49
221,053	92,26
221,604	105,92
222,155	86,1
222,705	83,63
223,256	89,33
223,806	85,71
224,356	76,8
224,906	99,39
225,456	85,56
226,006	84,7
226,556	83,78
227,106	84,15
227,655	87,43
228,204	89,27
228,754	101,72
229,303	91,18
229,852	95,56
230,401	98,15
230,949	101,13
231,498	96,28
232,047	93,89
232,595	89,66
233,143	89,47
233,691	93,96
234,239	82,51
234,787	90,12
235,335	97,09
235,883	81,05
236,43	100
236,978	89,89
237,525	78,89
238,072	76,11
238,619	93,29
239,166	83,33
239,713	90,5
240,26	94,15
240,806	101,23
241,353	81,98
241,899	83,52
242,445	88,76
242,991	82,16
243,537	88,89
244,083	82,42
244,629	85,5
245,174	87,36
245,72	87,15
246,265	78,53
246,81	92,05
247,355	87,91
247,9	82,35
248,445	90,45
248,99	85,56
249,534	82,02
250,079	83,13
250,623	84,78
251,168	96,55
251,712	86,47
252,256	85,71
252,8	88,7
253,343	90,66
253,887	85,25
254,43	77,27
254,974	92,18
255,517	80,23
256,06	94,32
256,603	90,45
257,146	81,22
257,689	85,71
258,232	75,13
258,774	94,64
259,317	80,22
259,859	84,82
260,401	92,7
260,943	85,99
261,485	91,89
262,027	84,66
262,569	88,08
263,11	84,18
263,652	88,46
264,193	91,48
264,734	88,3
265,275	83,85
265,816	78,38
266,357	85,71
266,898	73,23
267,438	98,1
267,979	81,25
268,519	85,12
269,059	94,58
269,6	79,78
270,14	77,55
270,68	95,89
271,219	82,18
271,759	101,28
272,298	88,65
272,838	93,57
273,377	75,98
273,916	96,64
274,455	78,46
274,994	83,89
275,533	92,22
276,072	84,43
276,61	91,12
277,149	82,94
277,687	83,73
278,225	92,35
278,763	78,61
279,301	87,77
279,839	80,85
280,377	76,4
280,914	82,99
281,452	86,03
281,989	79,41
282,526	94,94
283,064	91,25
283,601	83,71
284,137	90,18
284,674	82,02
285,211	78,49
285,747	80,4
286,284	75,88
286,82	79,69
287,356	78,35
287,892	95,03
288,428	82,76
288,964	78,49
289,5	82,08
290,035	80,11
290,571	79,37
291,106	81,46
291,641	79,07
292,176	82,26
292,711	79,65
293,246	88,59
293,781	77,9
294,315	83,16
294,85	91,61
295,384	86,71
295,918	81,38
296,453	80,54
296,987	68,85
297,52	80,43
298,054	85,63
298,588	86,59
299,121	73,18
299,655	84,12
300,188	90,67
300,721	91,3
301,254	79,89
301,787	85,48
302,32	79,27
302,853	91,62
303,385	88,04
303,918	83,43
304,45	80,61
304,982	74,58
305,514	84,57
306,046	79,89
306,578	91,44
307,11	86,74
307,641	78,02
308,173	84,27
308,704	86,93
309,236	84,77
309,767	72,11
310,298	91,82
310,829	80,5
311,359	76,33
311,89	91,23
312,421	78,38
312,951	89,71
313,481	87,06
314,012	75,52
314,542	82,45
315,072	88,95
315,601	94,16
316,131	84,04
316,661	84,66
317,19	79,77
317,72	84,34
318,249	85
318,778	105,44
319,307	86,98
319,836	94,92
320,365	79,37
320,893	87,05
321,422	92,26
321,95	90,62
322,479	99,39
323,007	86,52
323,535	98,84
324,063	94,92
324,591	82,54
325,118	89,78
325,646	90,96
326,173	89,07
326,701	72,82
327,228	90,05
327,755	90,36
328,282	88,83
328,809	95,88
329,336	79,1
329,862	86,86
330,389	79,9
330,915	78,24
331,441	90,06
331,968	97,19
332,494	78,57
333,02	88,27
333,545	87,83
334,071	65,64
334,597	73,6
335,122	87,77
335,648	89,9
336,173	84,32
336,698	86,17
337,223	82,89
337,748	79,6
338,272	76,6
338,797	77,05
339,322	81,62
339,846	88,17
340,37	76,5
340,894	71,64
341,419	84,48
341,942	80,42
342,466	78,24
342,99	80,1
343,514	73,04
344,037	77,13
344,56	73,68
345,084	70,15
345,607	74,27
346,13	76,53
346,653	79,44
347,175	72,25
347,698	75,88
348,221	74,18
348,743	74,79
349,265	68,47
349,787	61,46
350,309	63,97
350,831	65,69
351,353	72,04
351,875	72,06
352,397	59,48
352,918	73,33
353,439	65,4
353,961	68,11
354,482	68,51
355,003	56,38
355,524	63,79
356,044	62,66
356,565	61,38
357,086	58,43
357,606	53,19
358,126	61,69
358,646	56,88
359,167	61,74
359,687	63,94
360,206	57,41
360,726	63,04
361,246	57,74
361,765	60,14
362,285	60,97
362,804	58,63
363,323	54,26
363,842	55,28
364,361	55,47
364,88	55,02
365,398	57,89
365,917	54,01
366,435	55,33
366,954	56,68
367,472	57,28
367,99	49,03
368,508	54
369,026	58,01
369,544	48,11
370,061	49,85
370,579	52,47
371,096	40,22
371,613	48,15
372,131	48,41
372,648	44,73
373,165	49,04
373,681	46,08
374,198	46,13
374,715	51
375,231	45,57
375,747	46,03
376,264	45,95
376,78	42,39
377,296	40,14
377,812	43,54
378,327	40,85
378,843	45,01
379,359	40,33
379,874	43,67
380,389	39,05
380,905	39,14
381,42	37,56
381,935	39,02
382,449	35,54
382,964	34,93
383,479	33,74
383,993	37,47
384,508	36,09
385,022	35,4
385,536	32,92
386,05	35,97
386,564	32,15
387,078	33,87
387,592	29,45
388,105	29,75
388,619	26,56
389,132	26,56
389,645	29,28
390,158	28,22
390,671	30,95
391,184	30,58
391,697	28,09
392,21	26,79
392,722	28,29
393,235	26,82
393,747	24,31
394,259	29,15
394,771	29,2
395,283	26,78
395,795	26,16
396,307	26,01
396,818	26,48
397,33	25,87
397,841	25,3
398,353	21,94
398,864	24,27
399,375	23,27
399,886	20,57
400,397	21,55
400,907	19,9
401,418	19,49
401,928	21,65
402,439	20,53
402,949	21,05
403,459	21,96
403,969	18,25
404,479	19,02
404,989	17,12
405,498	15,02
406,008	15,67
406,517	15,81
407,027	15,92
407,536	14,67
408,045	14,83
408,554	14,78
409,063	14,43
409,572	12,59
410,08	12,84
410,589	11,95
411,097	11,66
411,606	11,67
412,114	11,89
412,622	10,05
413,13	11,01
413,638	9,51
414,145	9,75
414,653	9,15
415,16	9,34
415,668	9,4
416,175	9,09
416,682	8,98
417,189	9,22
417,696	8,12
418,203	8,01
418,71	7,04
419,216	8,1
419,723	7,43
420,229	7,39
420,735	7,59
421,242	7,02
421,748	7,2
422,254	6,71
422,759	6,05
423,265	7,11
423,771	6,6
424,276	6,24
424,781	6,84
425,287	6,4
425,792	6,58
426,297	6,8
426,802	6,99
427,306	6,37
427,811	5,77
428,316	6,56
428,82	6,51
429,324	5,86
429,829	6,1
430,333	6,55
430,837	5,66
431,34	6,15
431,844	5,67
432,348	5,88
432,851	5,44
433,355	4,91
433,858	5,49
434,361	6,12
434,864	5,24
435,367	5,2
435,87	5,33
436,373	5,27
436,876	6,1
437,378	5,45
437,88	5,3
438,383	5,39
438,885	5,06
439,387	5,24
439,889	5,02
440,391	5,39
440,892	5,22
441,394	5,28
441,896	5,24
442,397	5,55
442,898	5,08
443,399	5,36
443,9	4,82
444,401	5,06
444,902	5,47
445,403	5,32
445,903	5,05
446,404	5,63
446,904	5,35
447,405	4,93
447,905	5,28
448,405	4,91
448,905	4,8
449,404	5,23
449,904	4,99
450,404	5,71
450,903	4,95
451,403	5,33
451,902	5,26
452,401	4,89
452,9	5,21
453,399	5,16
453,898	5,1
454,396	5,35
454,895	4,64
455,393	5,29
455,892	5,46
456,39	5,17
456,888	4,86
457,386	5,28
457,884	4,97
458,382	5,2
458,879	5,36
459,377	5,27
459,874	5,32
460,372	5,12
460,869	5,11
461,366	5,07
461,863	5,39
462,36	5,3
462,857	5,2
463,353	5,16
463,85	4,99
464,346	5,26
464,843	5,23
465,339	5,06
465,835	5,15
466,331	5,45
466,827	5,04
467,323	4,82
467,818	5,19
468,314	5,06
468,809	4,62
469,305	5,06
469,8	4,67
470,295	4,95
470,79	4,92
471,285	5,08
471,78	4,95
472,274	4,96
472,769	4,79
473,263	5,01
473,758	4,72
474,252	5,07
474,746	4,89
475,24	4,88
475,734	4,82
476,228	4,68
476,721	4,97
477,215	5,14
477,708	5,1
478,202	4,97
478,695	5,3
479,188	5,09
479,681	5,17
480,174	4,89
480,667	4,94
481,159	5,09
481,652	4,79
482,144	4,92
482,637	5,09
483,129	5,16
483,621	4,91
484,113	4,94
484,605	4,95
485,097	4,95
485,588	5,07
486,08	4,84
486,571	5,15
487,063	4,92
487,554	5,15
488,045	5,13
488,536	4,92
489,027	5,27
489,518	5,18
490,008	5,16
490,499	4,98
490,989	5,39
491,48	5,14
491,97	5,18
492,46	5,24
492,95	5,13
493,44	5,76
493,93	5,1
494,419	5,4
494,909	5,33
495,398	5,49
495,888	5,71
496,377	5,62
496,866	5,68
497,355	5,62
497,844	5,95
498,333	6,02
498,821	5,84
499,31	6
499,798	6,11
500,287	6,06
500,775	6,12
501,263	6,44
501,751	6,21
502,239	6,63
502,727	6,44
503,215	6,61
503,702	6,9
504,19	7,08
504,677	7,24
505,164	7,27
505,651	6,98
506,139	7,6
506,625	7,61
507,112	7,6
507,599	7,99
508,086	8,34
508,572	8,11
509,058	8,24
509,545	8,61
510,031	8,66
510,517	8,62
511,003	9,11
511,489	9,41
511,974	9,17
512,46	9,9
512,946	9,97
513,431	9,95
513,916	10,32
514,401	10,45
514,887	10,75
515,371	10,99
515,856	11,12
516,341	11,34
516,826	11,76
517,31	11,88
517,795	12,01
518,279	12,77
518,763	12,48
519,247	12,68
519,731	13,15
520,215	13,48
520,699	13,84
521,182	13,79
521,666	14,39
522,149	14,8
522,633	15,2
523,116	15,05
523,599	15,4
524,082	15,33
524,565	16,05
525,048	15,61
525,53	16,5
526,013	16,53
526,495	16,87
526,978	17,07
527,46	17,44
527,942	17,51
528,424	17,54
528,906	17,91
529,388	17,9
529,87	18
530,351	18,8
530,833	18,63
531,314	18,84
531,795	18,66
532,277	18,93
532,758	19,3
533,238	18,96
533,719	19,17
534,2	19,89
534,681	19,49
535,161	19,81
535,642	19,98
536,122	20,19
536,602	20,5
537,082	20,1
537,562	19,98
538,042	20,41
538,522	20,37
539,001	20,55
539,481	20,15
539,96	20,61
540,44	20,21
540,919	20,27
541,398	21,27
541,877	20,71
542,356	20,88
542,835	20,87
543,313	20,77
543,792	21,14
544,27	21,09
544,749	21,06
545,227	20,68
545,705	20,79
546,183	20,9
546,661	20,93
547,139	21,07
547,616	21,25
548,094	21,25
548,571	21,02
549,049	21,11
549,526	21,1
550,003	21,22
550,48	21,59
550,957	21,02
551,434	21,13
551,911	21,5
552,387	21,55
552,864	21,2
553,34	21,5
553,817	21,58
554,293	21,49
554,769	21,64
555,245	21,39
555,721	21,66
556,197	21,51
556,672	21,71
557,148	21,45
557,623	21,42
558,099	21,6
558,574	21,38
559,049	21,09
559,524	21,06
559,999	21,25
560,474	20,78
560,948	20,69
561,423	20,68
561,897	20,74
562,372	20,71
562,846	20,98
563,32	20,45
563,794	20,68
564,268	20,32
564,742	20,13
565,216	20,42
565,69	20,12
566,163	19,83
566,636	20,19
567,11	19,32
567,583	19,88
568,056	19,39
568,529	19,2
569,002	19,02
569,475	18,98
569,947	18,88
570,42	18,76
570,892	18,28
571,365	18,47
571,837	18,17
572,309	17,64
572,781	18,06
573,253	17,36
573,725	17,55
574,197	17,16
574,668	17,29
575,14	17,27
575,611	17
576,082	16,95
576,554	16,44
577,025	16,42
577,496	16,65
577,967	15,99
578,437	15,95
578,908	16,08
579,379	16,15
579,849	15,81
580,319	15,78
580,79	15,68
581,26	15,13
581,73	15,61
582,2	15,17
582,669	15,62
583,139	14,99
583,609	14,98
584,078	14,66
584,548	14,98
585,017	14,68
585,486	14,34
585,955	14,81
586,424	14,48
586,893	14,33
587,362	14,25
587,83	14,28
588,299	14,07
588,767	14,26
589,236	14,08
589,704	13,87
590,172	13,9
590,64	14,17
591,108	13,65
591,576	13,71
592,043	13,65
592,511	13,47
592,978	13,72
593,446	13,35
593,913	13,68
594,38	13,38
594,847	13,51
595,314	13,37
595,781	13,23
596,248	13,27
596,715	13,2
597,181	13
597,647	13,15
598,114	13,25
598,58	13,11
599,046	13,17
599,512	12,91
599,978	12,7
600,444	12,98
600,91	12,97
601,375	12,84
601,841	12,75
602,306	12,74
602,771	12,83
603,236	12,73
603,702	12,54
604,167	12,73
604,631	12,77
605,096	12,52
605,561	12,37
606,025	12,4
606,49	12,48
606,954	12,27
607,418	12,07
607,882	12,14
608,347	11,93
608,81	12,07
609,274	11,99
609,738	11,86
610,202	11,98
610,665	11,81
611,128	11,65
611,592	11,44
612,055	11,66
612,518	11,49
612,981	11,44
613,444	11,29
613,907	11,32
614,369	11,12
614,832	10,95
615,294	10,95
615,757	10,77
616,219	10,92
616,681	10,86
617,143	10,52
617,605	10,78
618,067	10,64
618,529	10,64
618,99	10,56
619,452	10,37
619,913	10,47
620,375	10,3
620,836	10,3
621,297	10,39
621,758	10,2
622,219	10,19
622,68	10,14
623,14	10,2
623,601	10,14
624,061	9,99
624,522	10,02
624,982	9,93
625,442	9,79
625,902	9,74
626,362	9,99
626,822	9,75
627,282	9,88
627,742	9,93
628,201	9,74
628,661	9,9
629,12	9,76
629,579	9,9
630,038	9,61
630,497	9,73
630,956	9,63
631,415	9,64
631,874	9,65
632,332	9,62
632,791	9,56
633,249	9,48
633,708	9,54
634,166	9,42
634,624	9,41
635,082	9,25
635,54	9,07
635,998	9,2
636,455	9,13
636,913	9,01
637,37	9,04
637,828	8,91
638,285	8,82
638,742	8,74
639,199	8,57
639,656	8,52
640,113	8,39
640,57	8,45
641,027	8,36
641,483	8,09
641,94	8,08
642,396	8,13
642,852	7,86
643,309	7,8
643,765	7,52
644,221	7,59
644,676	7,47
645,132	7,37
645,588	7,35
646,043	7,17
646,499	7,21
646,954	7,05
647,409	7,08
647,864	6,88
648,319	6,95
648,774	6,7
649,229	6,87
649,684	6,59
650,139	6,54
650,593	6,59
651,047	6,35
651,502	6,37
651,956	6,34
652,41	6,35
652,864	6,45
653,318	6,32
653,772	6,25
654,225	6,17
654,679	6,2
655,133	5,95
655,586	6,08
656,039	5,92
656,492	5,98
656,946	5,88
657,399	5,96
657,851	5,91
658,304	5,84
658,757	5,86
659,209	5,77
659,662	5,59
660,114	5,64
660,567	5,47
661,019	5,47
661,471	5,4
661,923	5,29
662,375	5,36
662,826	5,29
663,278	5,22
663,73	5,05
664,181	4,98
664,632	5,06
665,084	5,12
665,535	4,91
665,986	4,79
666,437	4,87
666,888	4,82
667,338	4,86
667,789	4,91
668,24	4,89
668,69	4,74
669,14	4,8
669,591	4,86
670,041	4,84
670,491	4,77
670,941	4,83
671,391	4,91
671,84	4,88
672,29	5,01
672,74	4,87
673,189	4,91
673,638	5,06
674,088	5,11
674,537	5,14
674,986	5,25
675,435	5,13
675,883	5,26
676,332	5,37
676,781	5,35
677,229	5,49
677,678	5,54
678,126	5,61
678,574	5,62
679,022	5,73
679,47	5,97
679,918	6,01
680,366	6,02
680,814	6,03
681,261	6,18
681,709	6,3
682,156	6,43
682,604	6,57
683,051	6,65
683,498	6,73
683,945	6,73
684,392	6,81
684,839	6,98
685,286	7,08
685,732	7,19
686,179	7,4
686,625	7,43
687,071	7,68
687,518	7,65
687,964	7,87
688,41	8,19
688,856	8,19
689,301	8,56
689,747	8,71
690,193	8,94
690,638	9,34
691,084	9,56
691,529	9,98
691,974	10,35
692,419	10,74
692,864	11,01
693,309	11,4
693,754	11,85
694,199	12,07
694,643	12,65
695,088	13,15
695,532	13,69
695,977	13,9
696,421	14,49
696,865	14,91
697,309	15,61
697,753	15,84
698,197	16,27
698,64	16,89
699,084	17,31
699,527	17,48
699,971	18,29
700,414	18,88
700,857	19,25
701,3	19,67
701,743	20
702,186	20,61
702,629	21,25
703,072	21,57
703,515	22,21
703,957	22,38
704,399	22,86
704,842	23,29
705,284	23,83
705,726	24,21
706,168	24,63
706,61	25,09
707,052	25,49
707,494	25,84
707,935	26,65
708,377	26,74
708,818	26,99
709,26	27,48
709,701	27,79
710,142	28,09
710,583	28,31
711,024	28,78
711,465	28,99
711,905	29,49
712,346	30,07
712,787	30,3
713,227	30,62
713,667	31,19
714,108	31,39
714,548	31,52
714,988	32,13
715,428	32,49
715,868	32,68
716,307	32,86
716,747	33,25
717,186	33,63
717,626	34,08
718,065	34,2
718,504	34,35
718,944	34,82
719,383	34,94
719,822	34,83
720,261	35,41
720,699	36
721,138	36,01
721,576	35,99
722,015	36,52
722,453	36,9
722,892	37,11
723,33	36,73
723,768	37,19
724,206	37,51
724,644	38,01
725,081	37,8
725,519	37,82
725,957	38,58
726,394	38,53
726,832	38,9
727,269	39,27
727,706	38,98
728,143	39,36
728,58	38,96
729,017	39,45
729,454	39,29
729,89	39,16
730,327	39,9
730,764	39,76
731,2	40,01
731,636	40,17
732,072	40,2
732,509	40,48
732,945	40,67
733,38	40,17
733,816	40,4
734,252	40,71
734,688	40,61
735,123	40,89
735,559	41,15
735,994	41,04
736,429	41,03
736,864	41,19
737,299	40,92
737,734	41,56
738,169	41,38
738,604	40,79
739,038	41,42
739,473	41,35
739,907	41,41
740,342	41,7
740,776	41,4
741,21	41,5
741,644	41,48
742,078	41,63
742,512	41,61
742,946	41,35
743,379	41,49
743,813	41,51
744,246	41,44
744,68	41,69
745,113	41,29
745,546	41,95
745,979	41,41
746,412	41,59
746,845	41,66
747,278	41,78
747,711	41,48
748,143	41,56
748,576	40,92
749,008	41,51
749,441	41,84
749,873	41,33
750,305	41,46
750,737	41,35
751,169	41,23
751,601	41,46
752,032	41,28
752,464	41,38
752,896	41,09
753,327	41,23
753,758	41,24
754,19	41,41
754,621	41,32
755,052	40,9
755,483	41,05
755,914	41,11
756,344	41,03
756,775	40,98
757,206	40,83
757,636	40,92
758,066	40,97
758,497	40,92
758,927	40,72
759,357	40,91
759,787	41,26
760,217	40,51
760,647	40,59
761,076	40,47
761,506	40,68
761,935	40,59
762,365	40,81
762,794	40,59
763,223	40,49
763,653	40,43
764,082	40,53
764,51	40,71
764,939	40,1
765,368	40,59
765,797	40,32
766,225	40,35
766,654	40,08
767,082	40,33
767,51	40,04
767,938	39,95
768,367	39,98
768,795	40,2
769,222	40,07
769,65	40,2
770,078	40,02
770,505	39,95
770,933	39,82
771,36	39,92
771,788	40,11
772,215	40,11
772,642	39,77
773,069	39,35
773,496	39,82
773,923	40,08
774,349	39,96
774,776	39,63
775,203	39,88
775,629	40,17
776,055	39,61
776,482	39,75
776,908	39,49
777,334	39,59
777,76	39,96
778,186	39,63
778,611	39,55
779,037	39,61
779,463	39,52
779,888	39,41
780,314	39,73
780,739	39,74
781,164	39,61
781,589	39,47
782,014	39,13
782,439	39,57
782,864	39,58
783,289	39,29
783,713	39,84
784,138	39,64
784,562	39,5
784,987	39,35
785,411	39,72
785,835	39,4
786,259	39,25
786,683	39,39
787,107	39,55
787,531	39,5
787,954	39,06
788,378	39,22
788,802	39,39
789,225	39,32
789,648	39,2
790,071	39,48
790,495	39,39
790,918	39,4
791,34	39,3
791,763	39,35
792,186	39,31
792,609	39,1
793,031	39,52
793,454	39,14
793,876	39,34
794,298	39,32
794,721	39,05
795,143	39,48
795,565	39,21
795,986	39,34
796,408	39,11
796,83	39,01
797,252	39,12
797,673	39,38
798,094	38,76
798,516	39,42
798,937	39,55
799,358	39,3
799,779	38,97
800,2	38,95
800,621	39,12
801,042	39,24
801,462	38,9
801,883	38,92
802,303	39,08
802,724	39
803,144	39,02
803,564	38,96
803,984	39,29
804,404	38,86
804,824	39,08
805,244	39,1
805,664	38,87
806,084	39,2
806,503	38,97
806,923	39,3
807,342	39,16
807,761	39,04
808,18	39,1
808,599	39,02
809,018	39,13
809,437	39,09
809,856	38,7
810,275	38,89
810,693	38,97
811,112	38,83
811,53	39,31
811,949	39,43
812,367	39
812,785	39,15
813,203	38,84
813,621	38,84
814,039	38,97
814,457	38,53
814,874	38,92
815,292	38,92
815,709	38,9
816,127	38,92
816,544	39,02
816,961	38,48
817,378	39,14
817,795	38,67
818,212	38,88
818,629	38,94
819,046	39,39
819,462	38,67
819,879	38,66
820,295	38,97
820,712	38,5
821,128	38,69
821,544	38,73
821,96	38,79
822,376	38,84
822,792	38,98
823,208	38,74
823,624	38,74
824,039	38,76
824,455	39
824,87	38,57
825,286	39,07
825,701	38,79
826,116	38,6
826,531	39,05
826,946	38,66
827,361	38,48
827,776	38,86
828,19	38,45
828,605	38,97
829,02	39,19
829,434	38,73
829,848	38,6
830,263	38,38
830,677	38,74
831,091	38,93
831,505	38,67
831,919	38,51
832,332	38,46
832,746	38,76
833,16	38,62
833,573	38,64
833,987	38,58
834,4	38,26
834,813	38,6
835,226	38,27
835,639	38,58
836,052	38,59
836,465	38,46
836,878	38,61
837,29	38,62
837,703	38,59
838,116	38,39
838,528	38,59
838,94	38,82
839,352	38,34
839,765	38,64
840,177	38,58
840,589	38,41
841	38,55
841,412	38,24
841,824	38,53
842,235	38,24
842,647	38,44
843,058	38,72
843,47	38,41
