Data from L5__Relative__6__00122.txt Node

Date: Thu Feb 01 16:29:21 CET 2024
User: diatiterra
Spectrometer: HDX00911
Trigger mode: 0
Integration Time (sec): 6,000000E-3
Scans to average: 2
Nonlinearity correction enabled: false
Boxcar width: 0
Storing dark spectrum: false
XAxis mode: Wavelengths
Number of Pixels in Spectrum: 2068
>>>>>Begin Spectral Data<<<<<
194,468	243,08
195,025	116,67
195,581	183,33
196,138	138,24
196,694	151,65
197,251	125,4
197,807	88,37
198,363	88,76
198,919	78,26
199,474	87,9
200,03	91,48
200,586	98,1
201,141	85,57
201,696	88,44
202,251	82,87
202,806	84,48
203,361	89,62
203,916	83,78
204,471	74,46
205,025	88,65
205,58	82,66
206,134	78,19
206,688	89,01
207,242	86,63
207,796	74,75
208,35	88,95
208,904	84,18
209,457	93,53
210,011	93,25
210,564	91,4
211,117	102,61
211,67	101,69
212,223	86,6
212,776	83,96
213,329	86,1
213,881	79,79
214,434	81,5
214,986	94,58
215,538	84,24
216,09	90,62
216,642	101,2
217,194	93,53
217,746	90,29
218,297	76,11
218,849	93,6
219,4	80,56
219,951	95,43
220,502	91,12
221,053	89,88
221,604	98,22
222,155	91,44
222,705	85,96
223,256	98,31
223,806	90,86
224,356	84,02
224,906	95,15
225,456	84,49
226,006	88,52
226,556	82,16
227,106	84,76
227,655	87,43
228,204	81,92
228,754	100,57
229,303	84,12
229,852	83,89
230,401	91,36
230,949	90,4
231,498	85,11
232,047	74,44
232,595	83,33
233,143	90,53
233,691	78,57
234,239	77,6
234,787	87,79
235,335	100
235,883	76,32
236,43	101,94
236,978	86,17
237,525	77,89
238,072	77,78
238,619	98,78
239,166	84,31
239,713	81,56
240,26	88,89
240,806	87,12
241,353	90,7
241,899	82,42
242,445	85,8
242,991	81,62
243,537	98,69
244,083	86,26
244,629	81,5
245,174	88,51
245,72	79,89
246,265	73,82
246,81	86,93
247,355	94,51
247,9	87,06
248,445	85,99
248,99	91,67
249,534	91,01
250,079	100
250,623	82,61
251,168	86,21
251,712	92,94
252,256	86,96
252,8	80,79
253,343	98,9
253,887	86,89
254,43	89,2
254,974	83,8
255,517	91,53
256,06	88,64
256,603	95,51
257,146	85,64
257,689	85,19
258,232	83,07
258,774	88,69
259,317	93,96
259,859	71,73
260,401	88,76
260,943	98,73
261,485	87,57
262,027	79,89
262,569	96,03
263,11	84,18
263,652	86,26
264,193	90,34
264,734	87,13
265,275	82,81
265,816	81,08
266,357	78,84
266,898	73,74
267,438	91,77
267,979	79,55
268,519	91,67
269,059	91,57
269,6	102,73
270,14	82,14
270,68	105,48
271,219	81,61
271,759	98,72
272,298	93,51
272,838	84,8
273,377	85,47
273,916	96,64
274,455	86,15
274,994	89,44
275,533	102,4
276,072	98,8
276,61	98,82
277,149	92,94
277,687	91,57
278,225	94,71
278,763	92,49
279,301	83,51
279,839	81,91
280,377	91,3
280,914	82,99
281,452	90,5
281,989	83,53
282,526	104,43
283,064	90,62
283,601	85,96
284,137	87,73
284,674	91,01
285,211	79,57
285,747	94,97
286,284	78,24
286,82	80,73
287,356	75,26
287,892	96,13
288,428	77,01
288,964	93,55
289,5	89,6
290,035	92,05
290,571	82,01
291,106	84,27
291,641	93,02
292,176	90,86
292,711	90,7
293,246	85,33
293,781	84,53
294,315	71,43
294,85	89,03
295,384	102,31
295,918	90,43
296,453	85,95
296,987	80,33
297,52	80,43
298,054	106,9
298,588	94,51
299,121	90,5
299,655	89,41
300,188	100
300,721	99,38
301,254	87,3
301,787	91,4
302,32	80,83
302,853	96,65
303,385	90,76
303,918	93,71
304,45	89,8
304,982	83,62
305,514	97,34
306,046	96,74
306,578	86,63
307,11	90,61
307,641	96,15
308,173	101,69
308,704	93,75
309,236	80,2
309,767	94,74
310,298	100,63
310,829	85
311,359	89,37
311,89	93,57
312,421	89,73
312,951	89,71
313,481	87,06
314,012	78,12
314,542	93,62
315,072	86,74
315,601	106,49
316,131	85,64
316,661	94,89
317,19	91,33
317,72	95,78
318,249	94,44
318,778	100
319,307	95,31
319,836	101,13
320,365	88,89
320,893	97,93
321,422	101,79
321,95	86,46
322,479	106,67
323,007	87,64
323,535	93,06
324,063	94,92
324,591	100,53
325,118	87,1
325,646	88,3
326,173	101,64
326,701	71,28
327,228	89,01
327,755	87,31
328,282	89,94
328,809	98,24
329,336	72,64
329,862	78,86
330,389	76,8
330,915	86,01
331,441	98,83
331,968	92,13
332,494	76,02
333,02	83,8
333,545	75,66
334,071	83,08
334,597	91,01
335,122	84,57
335,648	82,21
336,173	78,38
336,698	86,17
337,223	80,21
337,748	70,15
338,272	79,79
338,797	77,6
339,322	85,95
339,846	85,48
340,37	76,5
340,894	84,08
341,419	80,46
341,942	72,49
342,466	74,09
342,99	75,39
343,514	75
344,037	81,38
344,56	69,86
345,084	74,63
345,607	80,58
346,13	77,46
346,653	71,96
347,175	72,73
347,698	83,92
348,221	72,77
348,743	63,87
349,265	77,83
349,787	62,44
350,309	61,54
350,831	64,44
351,353	76,78
351,875	68,83
352,397	54,74
352,918	64,17
353,439	73,42
353,961	65,75
354,482	68,51
355,003	64,2
355,524	62,14
356,044	65,15
356,565	60,98
357,086	59,55
357,606	54,04
358,126	54,79
358,646	62,83
359,167	65,22
359,687	65,06
360,206	62,22
360,726	60,31
361,246	58,49
361,765	52,54
362,285	62,08
362,804	59,35
363,323	54,26
363,842	57,75
364,361	52,92
364,88	52,1
365,398	55,09
365,917	48,15
366,435	52,33
366,954	54,72
367,472	52,53
367,99	47,08
368,508	49
369,026	51,28
369,544	44,65
370,061	45,7
370,579	54,94
371,096	52,34
371,613	52,14
372,131	45,22
372,648	47,58
373,165	46,3
373,681	47,59
374,198	51,29
374,715	44,16
375,231	46,33
375,747	42,59
376,264	47
376,78	45,69
377,296	35,34
377,812	48,61
378,327	42,86
378,843	47,83
379,359	43,16
379,874	42,43
380,389	43,57
380,905	36,56
381,42	38,89
381,935	38,38
382,449	35,12
382,964	34,72
383,479	34,98
383,993	36,65
384,508	37,03
385,022	33,27
385,536	33,45
386,05	37,66
386,564	35,7
387,078	38,35
387,592	29,62
388,105	28,6
388,619	30,24
389,132	30,31
389,645	31,36
390,158	33,04
390,671	31,4
391,184	31,98
391,697	29,35
392,21	28,3
392,722	29,61
393,235	26,55
393,747	30,2
394,259	27,75
394,771	29,88
395,283	27,57
395,795	29,77
396,307	25,88
396,818	24,04
397,33	27,54
397,841	24,94
398,353	24,97
398,864	25,12
399,375	24,5
399,886	23,83
400,397	23,01
400,907	21,08
401,418	20,44
401,928	20,23
402,439	18,97
402,949	20,5
403,459	19,37
403,969	20,46
404,479	20,79
404,989	16,96
405,498	15,6
406,008	17,48
406,517	16,2
407,027	17,82
407,536	16,18
408,045	16,41
408,554	13,92
409,063	14,69
409,572	13,27
410,08	13,15
410,589	11,25
411,097	11,72
411,606	11,93
412,114	11,33
412,622	11,53
413,13	10,82
413,638	10
414,145	9,49
414,653	9,62
415,16	9,46
415,668	9,28
416,175	9,25
416,682	9,77
417,189	9,18
417,696	8,31
418,203	8,75
418,71	8,95
419,216	7,8
419,723	7,95
420,229	7,43
420,735	8,26
421,242	7,39
421,748	7,51
422,254	7,44
422,759	6,75
423,265	7
423,771	7,5
424,276	6,83
424,781	7,79
425,287	6,64
425,792	7,4
426,297	6,75
426,802	6,57
427,306	6,73
427,811	6,74
428,316	6,44
428,82	6,39
429,324	6,25
429,829	6,54
430,333	7,1
430,837	6,28
431,34	6,31
431,844	5,95
432,348	6,33
432,851	6,17
433,355	6,11
433,858	5,88
434,361	6,1
434,864	6,09
435,367	5,49
435,87	5,44
436,373	5,56
436,876	6,22
437,378	5,72
437,88	5,57
438,383	5,25
438,885	5,58
439,387	5,9
439,889	5,55
440,391	5,22
440,892	5,3
441,394	5,62
441,896	5,86
442,397	5,87
442,898	5,56
443,399	5,57
443,9	5,49
444,401	5,5
444,902	5,3
445,403	5,44
445,903	5,27
446,404	5,34
446,904	5,55
447,405	5,63
447,905	5,96
448,405	5,54
448,905	5,69
449,404	5,39
449,904	5,41
450,404	5,28
450,903	5,71
451,403	5,85
451,902	5,91
452,401	5,97
452,9	5,94
453,399	5,8
453,898	5,59
454,396	5,74
454,895	5,28
455,393	5,91
455,892	5,74
456,39	6,15
456,888	5,59
457,386	6,07
457,884	5,56
458,382	5,72
458,879	5,68
459,377	5,5
459,874	5,81
460,372	5,74
460,869	5,57
461,366	5,6
461,863	5,74
462,36	5,55
462,857	5,37
463,353	5,6
463,85	5,58
464,346	5,34
464,843	5,53
465,339	5,26
465,835	5,96
466,331	5,99
466,827	5,61
467,323	5,64
467,818	5,46
468,314	5,67
468,809	5,52
469,305	5,38
469,8	5,72
470,295	5,49
470,79	5,44
471,285	5,44
471,78	5,46
472,274	5,43
472,769	5,53
473,263	5,54
473,758	5,33
474,252	5,17
474,746	5,56
475,24	5,47
475,734	5,17
476,228	4,92
476,721	5,43
477,215	5,58
477,708	5,2
478,202	5,57
478,695	5,85
479,188	5,4
479,681	5,38
480,174	5,28
480,667	5,66
481,159	5,57
481,652	5,27
482,144	5,56
482,637	5,58
483,129	5,63
483,621	5,78
484,113	5,53
484,605	5,4
485,097	5,37
485,588	5,54
486,08	5,71
486,571	5,58
487,063	5,22
487,554	5,62
488,045	5,5
488,536	5,73
489,027	5,43
489,518	5,3
490,008	5,71
490,499	5,84
490,989	5,84
491,48	5,66
491,97	5,71
492,46	5,83
492,95	5,93
493,44	6
493,93	5,9
494,419	6,21
494,909	5,97
495,398	6,21
495,888	5,96
496,377	6,4
496,866	6,35
497,355	6,67
497,844	6,4
498,333	6,56
498,821	6,46
499,31	6,75
499,798	7,1
500,287	6,69
500,775	7,18
501,263	7,06
501,751	7,02
502,239	7,31
502,727	7,54
503,215	7,44
503,702	7,97
504,19	7,58
504,677	7,89
505,164	8,51
505,651	8,36
506,139	8,47
506,625	8,62
507,112	8,75
507,599	8,88
508,086	9,16
508,572	9,18
509,058	9,32
509,545	9,77
510,031	10,01
510,517	10,05
511,003	10,03
511,489	10,7
511,974	10,6
512,46	10,92
512,946	10,75
513,431	11,1
513,916	12,01
514,401	12
514,887	12,4
515,371	12,36
515,856	12,66
516,341	12,86
516,826	13,17
517,31	13,17
517,795	13,71
518,279	14,26
518,763	14,4
519,247	14,71
519,731	15,06
520,215	15,14
520,699	15,42
521,182	15,85
521,666	16,14
522,149	16,17
522,633	17,07
523,116	17,09
523,599	16,95
524,082	17,62
524,565	18,19
525,048	17,83
525,53	18,62
526,013	18,64
526,495	18,49
526,978	18,88
527,46	19,46
527,942	19,64
528,424	19,39
528,906	19,77
529,388	19,96
529,87	20,32
530,351	21,33
530,833	20,63
531,314	20,59
531,795	20,89
532,277	21,28
532,758	21,46
533,238	21,46
533,719	21,39
534,2	21,64
534,681	21,84
535,161	21,84
535,642	21,92
536,122	22,29
536,602	22,41
537,082	22,28
537,562	22,53
538,042	22,63
538,522	22,5
539,001	22,56
539,481	22,28
539,96	22,95
540,44	23,26
540,919	22,62
541,398	22,72
541,877	22,92
542,356	22,75
542,835	22,68
543,313	23,09
543,792	23,17
544,27	23,11
544,749	22,69
545,227	22,99
545,705	23,17
546,183	23,1
546,661	23,14
547,139	23,31
547,616	23,24
548,094	23,78
548,571	23,1
549,049	23,53
549,526	23,63
550,003	23,76
550,48	23,65
550,957	23,24
551,434	23,55
551,911	23,5
552,387	23,65
552,864	23,4
553,34	23,79
553,817	24,27
554,293	23,71
554,769	23,72
555,245	23,92
555,721	23,97
556,197	23,65
556,672	23,55
557,148	23,86
557,623	23,42
558,099	23,67
558,574	23,88
559,049	23,64
559,524	23,3
559,999	23,25
560,474	23,22
560,948	23,05
561,423	22,78
561,897	23,18
562,372	23,01
562,846	22,93
563,32	22,61
563,794	22,8
564,268	22,32
564,742	22,64
565,216	22,31
565,69	22,42
566,163	21,97
566,636	22,37
567,11	21,9
567,583	21,86
568,056	21,29
568,529	21,35
569,002	21,35
569,475	20,82
569,947	21,17
570,42	20,59
570,892	20,4
571,365	20,56
571,837	20,27
572,309	19,67
572,781	20,07
573,253	19,9
573,725	19,57
574,197	19,6
574,668	19,31
575,14	19,14
575,611	18,75
576,082	18,85
576,554	18,72
577,025	18,17
577,496	18,35
577,967	18,5
578,437	18,08
578,908	18,15
579,379	17,82
579,849	17,71
580,319	17,5
580,79	17,72
581,26	17,55
581,73	16,93
582,2	17,09
582,669	17,2
583,139	16,81
583,609	17,33
584,078	16,61
584,548	16,56
585,017	16,67
585,486	16,69
585,955	16,87
586,424	16,23
586,893	16,33
587,362	16,07
587,83	16,28
588,299	15,97
588,767	15,71
589,236	15,91
589,704	15,62
590,172	15,94
590,64	15,73
591,108	15,68
591,576	15,54
592,043	15,52
592,511	15,19
592,978	15,28
593,446	15,42
593,913	15,19
594,38	14,96
594,847	14,99
595,314	15,13
595,781	15,01
596,248	15,08
596,715	14,69
597,181	14,81
597,647	14,92
598,114	14,74
598,58	15,12
599,046	14,88
599,512	14,74
599,978	14,55
600,444	14,66
600,91	14,49
601,375	14,39
601,841	14,65
602,306	14,6
602,771	14,24
603,236	14,16
603,702	14,27
604,167	14,4
604,631	14,16
605,096	14,18
605,561	14,34
606,025	14,02
606,49	14,28
606,954	13,79
607,418	13,79
607,882	13,85
608,347	13,63
608,81	13,71
609,274	13,51
609,738	13,51
610,202	13,63
610,665	13,16
611,128	13,43
611,592	13,27
612,055	12,95
612,518	12,91
612,981	12,91
613,444	12,74
613,907	12,84
614,369	12,64
614,832	12,51
615,294	12,69
615,757	12,39
616,219	12,23
616,681	12,08
617,143	11,95
617,605	12,07
618,067	12,01
618,529	12,13
618,99	11,99
619,452	12,16
619,913	11,82
620,375	11,94
620,836	11,9
621,297	11,73
621,758	11,64
622,219	11,5
622,68	11,67
623,14	11,46
623,601	11,26
624,061	11,32
624,522	11,15
624,982	11,33
625,442	11,49
625,902	11,22
626,362	11,12
626,822	11,35
627,282	11,06
627,742	11,14
628,201	11,17
628,661	11,18
629,12	11,13
629,579	10,93
630,038	11,14
630,497	11,13
630,956	10,88
631,415	11,19
631,874	11,09
632,332	10,8
632,791	10,76
633,249	10,85
633,708	10,96
634,166	10,49
634,624	10,82
635,082	10,82
635,54	10,45
635,998	10,53
636,455	10,46
636,913	10,49
637,37	10,17
637,828	10,17
638,285	10,24
638,742	9,95
639,199	9,87
639,656	9,74
640,113	9,67
640,57	9,6
641,027	9,45
641,483	9,27
641,94	9,28
642,396	9,18
642,852	9,06
643,309	8,78
643,765	8,84
644,221	8,62
644,676	8,56
645,132	8,48
645,588	8,34
646,043	8,18
646,499	8,18
646,954	8,15
647,409	7,97
647,864	7,8
648,319	7,9
648,774	7,72
649,229	7,51
649,684	7,58
650,139	7,49
650,593	7,61
651,047	7,29
651,502	7,42
651,956	7,37
652,41	7,22
652,864	7,22
653,318	7,25
653,772	7,21
654,225	7,24
654,679	7,13
655,133	6,97
655,586	6,88
656,039	6,94
656,492	6,87
656,946	6,71
657,399	6,84
657,851	6,72
658,304	6,73
658,757	6,58
659,209	6,49
659,662	6,37
660,114	6,53
660,567	6,17
661,019	6,26
661,471	6,11
661,923	6,22
662,375	5,96
662,826	5,95
663,278	5,83
663,73	5,96
664,181	5,79
664,632	5,79
665,084	5,69
665,535	5,76
665,986	5,5
666,437	5,54
666,888	5,51
667,338	5,48
667,789	5,4
668,24	5,45
668,69	5,42
669,14	5,31
669,591	5,57
670,041	5,4
670,491	5,5
670,941	5,5
671,391	5,44
671,84	5,49
672,29	5,51
672,74	5,58
673,189	5,66
673,638	5,68
674,088	5,62
674,537	5,72
674,986	5,83
675,435	5,95
675,883	5,96
676,332	5,95
676,781	6,06
677,229	6,05
677,678	6,23
678,126	6,26
678,574	6,35
679,022	6,42
679,47	6,72
679,918	6,72
680,366	6,8
680,814	6,85
681,261	6,97
681,709	7,11
682,156	7,02
682,604	7,28
683,051	7,3
683,498	7,38
683,945	7,71
684,392	7,74
684,839	7,89
685,286	7,9
685,732	8,18
686,179	8,28
686,625	8,33
687,071	8,63
687,518	8,68
687,964	8,88
688,41	9,14
688,856	9,32
689,301	9,63
689,747	9,75
690,193	10,3
690,638	10,61
691,084	10,98
691,529	10,98
691,974	11,68
692,419	11,82
692,864	12,33
693,309	12,8
693,754	13,17
694,199	13,86
694,643	14,25
695,088	14,84
695,532	15,18
695,977	15,69
696,421	16,23
696,865	16,57
697,309	17,15
697,753	17,53
698,197	18,2
698,64	18,94
699,084	19,34
699,527	19,78
699,971	20,44
700,414	20,97
700,857	21,48
701,3	21,83
701,743	22,37
702,186	22,86
702,629	23,15
703,072	23,8
703,515	24,5
703,957	24,39
704,399	25,11
704,842	25,71
705,284	25,83
705,726	26,23
706,168	26,8
706,61	27,21
707,052	27,66
707,494	28,22
707,935	28,71
708,377	29,1
708,818	29,19
709,26	29,83
709,701	30,02
710,142	30,39
710,583	30,88
711,024	31,05
711,465	31,38
711,905	31,78
712,346	32,12
712,787	32,7
713,227	32,86
713,667	33,42
714,108	33,44
714,548	34,08
714,988	33,9
715,428	34,33
715,868	34,76
716,307	35,06
716,747	35,34
717,186	35,85
717,626	35,93
718,065	36,13
718,504	36,48
718,944	37,1
719,383	37,32
719,822	37,23
720,261	37,51
720,699	37,53
721,138	38,14
721,576	38,48
722,015	38,54
722,453	38,64
722,892	38,69
723,33	38,97
723,768	39,3
724,206	39,47
724,644	39,83
725,081	39,6
725,519	40,14
725,957	40,14
726,394	40,1
726,832	40,82
727,269	41,22
727,706	40,78
728,143	40,69
728,58	41,12
729,017	41,63
729,454	41,46
729,89	41,22
730,327	41,87
730,764	41,76
731,2	41,75
731,636	41,67
732,072	41,62
732,509	42,2
732,945	42,28
733,38	41,79
733,816	42,43
734,252	42,61
734,688	42,58
735,123	42,82
735,559	42,69
735,994	42,98
736,429	42,99
736,864	43,17
737,299	42,78
737,734	42,83
738,169	43,04
738,604	42,71
739,038	42,89
739,473	43,39
739,907	43,11
740,342	42,92
740,776	43,01
741,21	42,94
741,644	42,87
742,078	43,14
742,512	42,91
742,946	43,37
743,379	43,43
743,813	43,19
744,246	43,23
744,68	43,27
745,113	43,03
745,546	43,15
745,979	43,09
746,412	43,11
746,845	43,3
747,278	43,21
747,711	43,07
748,143	43,26
748,576	42,66
749,008	43,27
749,441	43,03
749,873	42,87
750,305	43,03
750,737	42,83
751,169	42,57
751,601	43,22
752,032	42,83
752,464	42,66
752,896	42,4
753,327	42,81
753,758	42,72
754,19	42,79
754,621	42,82
755,052	42,51
755,483	42,62
755,914	42,79
756,344	42,59
756,775	42,42
757,206	42,38
757,636	42,34
758,066	42,16
758,497	42,52
758,927	42,31
759,357	42,12
759,787	42,28
760,217	42,11
760,647	42,54
761,076	42,01
761,506	42,12
761,935	42,37
762,365	42,28
762,794	42,21
763,223	41,85
763,653	42,01
764,082	41,83
764,51	42,04
764,939	41,88
765,368	41,92
765,797	41,63
766,225	41,83
766,654	41,61
767,082	41,81
767,51	41,82
767,938	41,53
768,367	41,94
768,795	41,69
769,222	41,78
769,65	41,36
770,078	41,5
770,505	41,28
770,933	41,12
771,36	41,62
771,788	41,46
772,215	41,37
772,642	41,46
773,069	41,54
773,496	41,17
773,923	41,62
774,349	41,15
774,776	41,46
775,203	41,3
775,629	41,64
776,055	41,04
776,482	41,17
776,908	41,16
777,334	41,31
777,76	41,21
778,186	41,16
778,611	41,25
779,037	40,97
779,463	41,17
779,888	41,14
780,314	41,11
780,739	41,07
781,164	41
781,589	40,98
782,014	40,72
782,439	41,03
782,864	41,12
783,289	40,71
783,713	41,06
784,138	40,74
784,562	41,03
784,987	40,87
785,411	41,22
785,835	40,96
786,259	40,6
786,683	40,92
787,107	40,82
787,531	40,97
787,954	40,54
788,378	40,9
788,802	41,02
789,225	41,04
789,648	40,82
790,071	40,57
790,495	40,45
790,918	41,07
791,34	40,96
791,763	40,77
792,186	40,94
792,609	40,64
793,031	40,83
793,454	40,72
793,876	40,49
794,298	40,76
794,721	40,88
795,143	40,57
795,565	40,71
795,986	40,44
796,408	40,4
796,83	40,54
797,252	40,83
797,673	40,76
798,094	40,64
798,516	40,84
798,937	40,53
799,358	40,95
799,779	40,67
800,2	40,5
800,621	40,34
801,042	40,63
801,462	40,18
801,883	40,31
802,303	40,33
802,724	40,56
803,144	40,28
803,564	40,27
803,984	40,8
804,404	40,63
804,824	40,42
805,244	40,42
805,664	40,39
806,084	40,47
806,503	40,11
806,923	40,29
807,342	40,38
807,761	40,5
808,18	40,41
808,599	40,27
809,018	40,39
809,437	40,47
809,856	40,29
810,275	40,56
810,693	40,34
811,112	40,06
811,53	40,19
811,949	40,58
812,367	40,41
812,785	40,03
813,203	40,38
813,621	40,22
814,039	40,16
814,457	40,1
814,874	40,57
815,292	40,49
815,709	40,43
816,127	40,11
816,544	40,51
816,961	40,32
817,378	40,29
817,795	40,38
818,212	40,41
818,629	40,12
819,046	40,5
819,462	40,42
819,879	40,04
820,295	40,31
820,712	40,11
821,128	40,16
821,544	40,39
821,96	39,95
822,376	40,34
822,792	40,3
823,208	40,18
823,624	40,16
824,039	39,96
824,455	40,25
824,87	40,1
825,286	40,44
825,701	40,09
826,116	39,78
826,531	40,1
826,946	40,16
827,361	40,02
827,776	39,86
828,19	39,7
828,605	39,95
829,02	39,99
829,434	40,17
829,848	40,07
830,263	39,98
830,677	40,44
831,091	40,19
831,505	40,21
831,919	40,02
832,332	39,81
832,746	39,8
833,16	39,97
833,573	39,94
833,987	40,48
834,4	39,89
834,813	40,03
835,226	39,6
835,639	39,93
836,052	40,12
836,465	39,86
836,878	40
837,29	40,01
837,703	40,01
838,116	39,99
838,528	39,97
838,94	39,55
839,352	40,22
839,765	39,96
840,177	39,99
840,589	39,84
841	40,1
841,412	40,11
841,824	39,91
842,235	40,04
