Data from A_2_0_Relative__8__00008.txt Node

Date: Mon Jan 29 12:44:56 CET 2024
User: diatiterra
Spectrometer: HDX00911
Trigger mode: 0
Integration Time (sec): 6,000000E-3
Scans to average: 4
Nonlinearity correction enabled: false
Boxcar width: 0
Storing dark spectrum: false
XAxis mode: Wavelengths
Number of Pixels in Spectrum: 2068
>>>>>Begin Spectral Data<<<<<
194,468	75,34
195,025	87,32
195,581	77,27
196,138	53,45
196,694	80
197,251	79,14
197,807	69,73
198,363	68,6
198,919	64,49
199,474	68,95
200,03	55,3
200,586	75,45
201,141	47,84
201,696	61,04
202,251	72,41
202,806	64,19
203,361	56,16
203,916	76,07
204,471	75,86
205,025	76,39
205,58	67,48
206,134	54,95
206,688	61,11
207,242	56,3
207,796	70,48
208,35	64,09
208,904	65,38
209,457	56,42
210,011	64,84
210,564	78,26
211,117	70,16
211,67	67,22
212,223	70,93
212,776	64,96
213,329	79,92
213,881	51,75
214,434	72,37
214,986	59,57
215,538	67,62
216,09	86,93
216,642	72,61
217,194	69,11
217,746	72,38
218,297	70,98
218,849	68,46
219,4	79,67
219,951	79,5
220,502	65,18
221,053	63,03
221,604	73,93
222,155	69,37
222,705	66,24
223,256	64,94
223,806	83,56
224,356	70,08
224,906	56,41
225,456	76,32
226,006	71,02
226,556	66,06
227,106	70,04
227,655	68,12
228,204	60,65
228,754	66,53
229,303	64,04
229,852	74,6
230,401	69,37
230,949	75,65
231,498	72,8
232,047	67,63
232,595	68,48
233,143	68,24
233,691	72,87
234,239	60,09
234,787	77,27
235,335	58,85
235,883	84,75
236,43	77,31
236,978	69,16
237,525	73,17
238,072	73,01
238,619	72,44
239,166	76,39
239,713	74,32
240,26	70,2
240,806	76,49
241,353	71,7
241,899	73,88
242,445	72,43
242,991	71,88
243,537	78,57
244,083	73
244,629	67,53
245,174	87,5
245,72	74,47
246,265	62,17
246,81	71,63
247,355	67,07
247,9	71,97
248,445	68,82
248,99	67,08
249,534	63,67
250,079	79,61
250,623	57,87
251,168	65,32
251,712	61,6
252,256	64,39
252,8	64,35
253,343	72,41
253,887	72,29
254,43	69,57
254,974	79,38
255,517	58,92
256,06	72
256,603	62,19
257,146	79,27
257,689	58,14
258,232	68,12
258,774	52,97
259,317	71,18
259,859	58,45
260,401	69,64
260,943	59,24
261,485	73,3
262,027	55,94
262,569	73,74
263,11	67,95
263,652	73,53
264,193	71,14
264,734	60,89
265,275	65,45
265,816	68,42
266,357	64,71
266,898	85,03
267,438	91,47
267,979	68,26
268,519	77,05
269,059	58,85
269,6	72,02
270,14	81,73
270,68	75,42
271,219	60,63
271,759	70
272,298	68,82
272,838	69,67
273,377	82,81
273,916	77,06
274,455	65,6
274,994	76,79
275,533	69,86
276,072	81,14
276,61	71,57
277,149	69,23
277,687	73,33
278,225	65,4
278,763	64,66
279,301	62,71
279,839	77,63
280,377	61,93
280,914	62,07
281,452	90,31
281,989	85,29
282,526	72,43
283,064	73,04
283,601	64,57
284,137	85,52
284,674	65,69
285,211	79,57
285,747	55,98
286,284	65,14
286,82	66,24
287,356	78,6
287,892	68
288,428	60,09
288,964	87,17
289,5	62,26
290,035	79,53
290,571	64,9
291,106	89,44
291,641	70,05
292,176	76,08
292,711	74,36
293,246	76
293,781	66,67
294,315	84,29
294,85	80,1
295,384	72,27
295,918	73,56
296,453	66,67
296,987	46,37
297,52	64,76
298,054	71,36
298,588	65,8
299,121	68,66
299,655	68,14
300,188	79,89
300,721	71,37
301,254	68,75
301,787	63,64
302,32	82,69
302,853	85,29
303,385	67,8
303,918	66,33
304,45	69,57
304,982	68,02
305,514	78,84
306,046	62,14
306,578	68,4
307,11	71,01
307,641	76,89
308,173	63,87
308,704	71,68
309,236	71,84
309,767	54,7
310,298	70,35
310,829	65,22
311,359	63,4
311,89	77,78
312,421	70,05
312,951	71,83
313,481	66,04
314,012	60,91
314,542	78,84
315,072	68,65
315,601	79,36
316,131	78,22
316,661	53,64
317,19	67
317,72	70,98
318,249	65,44
318,778	72,95
319,307	69,08
319,836	67,26
320,365	71,15
320,893	75
321,422	61,93
321,95	63,6
322,479	75,44
323,007	69,41
323,535	79,29
324,063	57,34
324,591	65,09
325,118	70,43
325,646	66,37
326,173	69,38
326,701	62,56
327,228	62,61
327,755	69,31
328,282	81,42
328,809	76,85
329,336	75,65
329,862	70,28
330,389	61,16
330,915	62,88
331,441	73,85
331,968	71,04
332,494	59,24
333,02	63,89
333,545	69,6
334,071	62,26
334,597	66,18
335,122	71,04
335,648	74,6
336,173	64,22
336,698	75,78
337,223	67,2
337,748	57,94
338,272	68,95
338,797	65,5
339,322	64,94
339,846	67,88
340,37	74,01
340,894	56,54
341,419	66,67
341,942	62,72
342,466	61,89
342,99	71,12
343,514	74,06
344,037	69,39
344,56	60,19
345,084	52,17
345,607	64,23
346,13	63,2
346,653	58,85
347,175	64,62
347,698	73,39
348,221	68,5
348,743	64,53
349,265	69,92
349,787	63,82
350,309	56,36
350,831	61,54
351,353	76,7
351,875	69,87
352,397	67,99
352,918	62,5
353,439	61,72
353,961	72,07
354,482	60,85
355,003	54,1
355,524	66,12
356,044	70,75
356,565	71,18
357,086	65,61
357,606	64,01
358,126	69,66
358,646	71,38
359,167	60,86
359,687	58,46
360,206	58,39
360,726	65,06
361,246	66,86
361,765	71,14
362,285	63,5
362,804	66,3
363,323	69,07
363,842	66,94
364,361	64
364,88	68,63
365,398	59,82
365,917	67,74
366,435	70,83
366,954	65,25
367,472	69,29
367,99	61,05
368,508	66,57
369,026	64,41
369,544	64,8
370,061	73,52
370,579	64,89
371,096	78,85
371,613	61,97
372,131	65,54
372,648	68,29
373,165	74,35
373,681	65,83
374,198	65,9
374,715	66,9
375,231	74,43
375,747	62,56
376,264	64,72
376,78	75,06
377,296	67,08
377,812	63,34
378,327	66,31
378,843	67,04
379,359	63,89
379,874	65,51
380,389	69,76
380,905	63,19
381,42	61,86
381,935	66,84
382,449	63,38
382,964	61,43
383,479	56,89
383,993	65,8
384,508	62,39
385,022	63,01
385,536	57,43
386,05	65,61
386,564	61,7
387,078	64,86
387,592	60,19
388,105	62,67
388,619	58,78
389,132	52,37
389,645	56,2
390,158	53,5
390,671	55,39
391,184	55,1
391,697	57,24
392,21	53,91
392,722	54,57
393,235	52,88
393,747	51,7
394,259	56,17
394,771	51,18
395,283	52,69
395,795	54,05
396,307	52,22
396,818	52,96
397,33	48,95
397,841	49,43
398,353	45,47
398,864	48,24
399,375	48,52
399,886	50,85
400,397	43,67
400,907	49,12
401,418	44,93
401,928	43,68
402,439	43,23
402,949	44,48
403,459	42,32
403,969	40,24
404,479	37,98
404,989	39,68
405,498	37,91
406,008	39,85
406,517	36,88
407,027	34,01
407,536	36
408,045	35,09
408,554	33,33
409,063	33,82
409,572	32,8
410,08	31,19
410,589	29,98
411,097	29,35
411,606	28,35
412,114	28,13
412,622	26,82
413,13	26,43
413,638	26,84
414,145	26,25
414,653	23,76
415,16	23,51
415,668	24,05
416,175	23,25
416,682	24,31
417,189	22,87
417,696	22,97
418,203	22,99
418,71	21,94
419,216	21,18
419,723	21,48
420,229	21,27
420,735	20,77
421,242	21,01
421,748	20,75
422,254	21,7
422,759	19,77
423,265	19,37
423,771	19,87
424,276	19,98
424,781	19,57
425,287	19,52
425,792	19,21
426,297	18,96
426,802	19,34
427,306	19,78
427,811	19,45
428,316	20,13
428,82	18,95
429,324	19,12
429,829	18,6
430,333	18,95
430,837	18,38
431,34	18,45
431,844	18,35
432,348	18,84
432,851	19,43
433,355	18,6
433,858	18,67
434,361	18,47
434,864	18,43
435,367	19,34
435,87	18,39
436,373	17,98
436,876	18,79
437,378	18,13
437,88	19,35
438,383	18,85
438,885	18,95
439,387	18,41
439,889	18,83
440,391	17,94
440,892	18,38
441,394	18,51
441,896	18,24
442,397	17,76
442,898	18,61
443,399	18,46
443,9	18,52
444,401	18,94
444,902	18,89
445,403	18,46
445,903	19,17
446,404	18,71
446,904	18,03
447,405	18,67
447,905	19,51
448,405	19,14
448,905	18,43
449,404	19,43
449,904	19,18
450,404	19,12
450,903	18,83
451,403	19,1
451,902	18,92
452,401	19,67
452,9	19,49
453,399	19,75
453,898	19,93
454,396	20,09
454,895	20,21
455,393	20,11
455,892	19,58
456,39	19,8
456,888	19,93
457,386	20,14
457,884	19,92
458,382	20,79
458,879	19,82
459,377	19,88
459,874	20,24
460,372	20,07
460,869	19,92
461,366	20,04
461,863	19,74
462,36	19,58
462,857	20,16
463,353	19,84
463,85	20,05
464,346	20,03
464,843	19,68
465,339	20,02
465,835	20,12
466,331	20,49
466,827	20,83
467,323	20,47
467,818	20,15
468,314	19,66
468,809	20,56
469,305	20,53
469,8	20,89
470,295	19,92
470,79	20,28
471,285	19,68
471,78	20,26
472,274	20,2
472,769	20,86
473,263	20,63
473,758	20,71
474,252	20,7
474,746	20,8
475,24	20,06
475,734	20,35
476,228	19,98
476,721	19,39
477,215	20,69
477,708	20,36
478,202	21,09
478,695	20,72
479,188	20,11
479,681	20,09
480,174	20,35
480,667	20,6
481,159	20,46
481,652	20,05
482,144	20,27
482,637	20,59
483,129	20,57
483,621	20,46
484,113	21,23
484,605	20,94
485,097	21,09
485,588	20,69
486,08	20,85
486,571	20,74
487,063	21,14
487,554	21,17
488,045	21,42
488,536	21,22
489,027	21,28
489,518	21
490,008	20,72
490,499	21,89
490,989	21,75
491,48	21,85
491,97	21,81
492,46	21,13
492,95	22,3
493,44	21,95
493,93	21,66
494,419	21,86
494,909	22,36
495,398	21,93
495,888	22,44
496,377	22,24
496,866	22,34
497,355	23,18
497,844	22,94
498,333	23,12
498,821	23,81
499,31	23,53
499,798	23,49
500,287	23,54
500,775	24,01
501,263	23,81
501,751	23,82
502,239	24,07
502,727	24,29
503,215	24,45
503,702	25,13
504,19	25,23
504,677	24,99
505,164	25,1
505,651	25,33
506,139	25,68
506,625	26,61
507,112	26,6
507,599	26,91
508,086	27,11
508,572	27,58
509,058	27,25
509,545	27,26
510,031	28,05
510,517	28,31
511,003	28,76
511,489	29,17
511,974	29,64
512,46	29,49
512,946	30,41
513,431	30,35
513,916	31,45
514,401	31,59
514,887	31,46
515,371	32,06
515,856	33,09
516,341	32,72
516,826	33,21
517,31	33,58
517,795	33,73
518,279	34,91
518,763	35,05
519,247	34,86
519,731	35,71
520,215	36,8
520,699	37,13
521,182	37,51
521,666	37,55
522,149	37,87
522,633	38,65
523,116	39,53
523,599	39,41
524,082	40
524,565	40,73
525,048	40,54
525,53	41,19
526,013	41,3
526,495	41,28
526,978	41,93
527,46	42,34
527,942	42,98
528,424	43,12
528,906	43,22
529,388	43,78
529,87	43,8
530,351	43,91
530,833	44,89
531,314	45,01
531,795	44,67
532,277	45,76
532,758	45,11
533,238	45,85
533,719	45,74
534,2	45,51
534,681	46,07
535,161	45,75
535,642	46,44
536,122	47,05
536,602	46,89
537,082	46,68
537,562	46,86
538,042	46,28
538,522	46,35
539,001	46,77
539,481	46,79
539,96	47,48
540,44	47,68
540,919	48,2
541,398	47,63
541,877	47,7
542,356	47,74
542,835	48,42
543,313	47,79
543,792	47,49
544,27	48,02
544,749	47,69
545,227	48,3
545,705	48,16
546,183	48,36
546,661	48,1
547,139	47,58
547,616	48,25
548,094	48,16
548,571	48,39
549,049	48,57
549,526	48,4
550,003	48,53
550,48	48,41
550,957	48,8
551,434	48,18
551,911	48,48
552,387	49,1
552,864	49,09
553,34	48,59
553,817	49,16
554,293	48,87
554,769	48,78
555,245	47,91
555,721	48,61
556,197	48,03
556,672	48,54
557,148	47,93
557,623	48,34
558,099	48,1
558,574	48,12
559,049	48,4
559,524	48,44
559,999	48,07
560,474	47,75
560,948	48
561,423	47,72
561,897	47,79
562,372	47,43
562,846	47,37
563,32	47,71
563,794	47,29
564,268	46,79
564,742	47,31
565,216	46,81
565,69	46,48
566,163	46,23
566,636	46,69
567,11	45,69
567,583	45,8
568,056	45,21
568,529	45,25
569,002	44,95
569,475	44,84
569,947	44,78
570,42	44,27
570,892	44,41
571,365	44,05
571,837	43,51
572,309	43,34
572,781	42,89
573,253	43,12
573,725	42,47
574,197	42,73
574,668	42,3
575,14	41,51
575,611	41,83
576,082	42,11
576,554	41,18
577,025	41,2
577,496	41,38
577,967	40,76
578,437	40,7
578,908	40,35
579,379	39,92
579,849	40
580,319	39,91
580,79	39,67
581,26	39,5
581,73	39,12
582,2	39,1
582,669	38,94
583,139	38,61
583,609	38,14
584,078	38,52
584,548	38,87
585,017	38,19
585,486	38,08
585,955	37,83
586,424	37,9
586,893	37,77
587,362	38,01
587,83	37,31
588,299	37,27
588,767	37,28
589,236	37,01
589,704	37,06
590,172	36,88
590,64	36,84
591,108	36,79
591,576	36,74
592,043	36,5
592,511	36,67
592,978	36,49
593,446	35,9
593,913	36,38
594,38	36,25
594,847	36,2
595,314	36,19
595,781	35,66
596,248	35,82
596,715	35,62
597,181	35,37
597,647	35,44
598,114	36,03
598,58	35,97
599,046	34,95
599,512	35,53
599,978	35,5
600,444	34,93
600,91	35,24
601,375	34,87
601,841	35,15
602,306	34,96
602,771	35,21
603,236	35,44
603,702	35
604,167	34,95
604,631	34,85
605,096	34,67
605,561	34,34
606,025	34,24
606,49	34,48
606,954	34,15
607,418	34,46
607,882	34,1
608,347	34,27
608,81	33,76
609,274	33,66
609,738	33,68
610,202	33,07
610,665	33,28
611,128	32,97
611,592	32,77
612,055	32,73
612,518	32,65
612,981	32,87
613,444	32,39
613,907	32,26
614,369	32,34
614,832	32,09
615,294	32,14
615,757	31,83
616,219	32,38
616,681	31,61
617,143	32,02
617,605	31,35
618,067	31,2
618,529	31,21
618,99	31,25
619,452	31,21
619,913	30,93
620,375	30,73
620,836	30,89
621,297	30,72
621,758	30,75
622,219	30,69
622,68	29,88
623,14	30,51
623,601	30,72
624,061	30,51
624,522	30,04
624,982	30,21
625,442	30,23
625,902	30,02
626,362	30,21
626,822	29,79
627,282	30,03
627,742	29,97
628,201	29,61
628,661	29,79
629,12	29,99
629,579	29,61
630,038	29,71
630,497	30,01
630,956	29,84
631,415	29,65
631,874	29,77
632,332	29,23
632,791	29,44
633,249	29,52
633,708	29,27
634,166	29,32
634,624	29,23
635,082	29,32
635,54	28,94
635,998	28,57
636,455	28,99
636,913	28,41
637,37	28,45
637,828	28,37
638,285	28,51
638,742	28,08
639,199	28,02
639,656	27,73
640,113	27,85
640,57	27,65
641,027	27,28
641,483	27,35
641,94	26,79
642,396	26,81
642,852	27,18
643,309	26,65
643,765	26,63
644,221	26,41
644,676	26,53
645,132	25,98
645,588	25,81
646,043	25,46
646,499	25,44
646,954	25,45
647,409	24,93
647,864	24,96
648,319	25,02
648,774	24,75
649,229	24,46
649,684	24,34
650,139	24,48
650,593	24,26
651,047	24,34
651,502	24,25
651,956	23,88
652,41	23,58
652,864	23,8
653,318	24,14
653,772	23,48
654,225	23,58
654,679	23,52
655,133	23,33
655,586	23,49
656,039	23,29
656,492	22,91
656,946	23,09
657,399	22,99
657,851	22,9
658,304	22,67
658,757	22,48
659,209	22,36
659,662	22,12
660,114	21,92
660,567	21,93
661,019	21,79
661,471	21,82
661,923	21,6
662,375	21,45
662,826	21,42
663,278	21,26
663,73	20,81
664,181	20,84
664,632	20,77
665,084	20,72
665,535	20,52
665,986	20,46
666,437	20,53
666,888	20,28
667,338	20,19
667,789	20,21
668,24	20,16
668,69	20,01
669,14	20,16
669,591	19,94
670,041	20,05
670,491	20,12
670,941	20,17
671,391	20,28
671,84	19,98
672,29	19,98
672,74	20,34
673,189	20,32
673,638	20,19
674,088	20,37
674,537	20,36
674,986	20,36
675,435	20,57
675,883	20,53
676,332	20,62
676,781	20,64
677,229	20,82
677,678	20,69
678,126	20,91
678,574	21,01
679,022	20,95
679,47	21,3
679,918	21,44
680,366	21,55
680,814	21,78
681,261	21,72
681,709	21,89
682,156	22,41
682,604	22,61
683,051	22,67
683,498	23,07
683,945	22,97
684,392	23,23
684,839	23,36
685,286	23,7
685,732	24,01
686,179	24,22
686,625	24,51
687,071	24,75
687,518	24,96
687,964	25,44
688,41	25,89
688,856	26,2
689,301	26,52
689,747	26,96
690,193	27,47
690,638	27,89
691,084	28,56
691,529	29,14
691,974	29,52
692,419	30,14
692,864	30,93
693,309	31,43
693,754	32,48
694,199	32,78
694,643	34,01
695,088	34,51
695,532	35,36
695,977	36,06
696,421	36,9
696,865	37,58
697,309	38,22
697,753	39,28
698,197	39,81
698,64	40,92
699,084	41,68
699,527	42,85
699,971	43,22
700,414	43,94
700,857	44,86
701,3	45,66
701,743	46,36
702,186	47,22
702,629	47,33
703,072	48,42
703,515	49,23
703,957	49,79
704,399	50,92
704,842	51,51
705,284	51,99
705,726	52,7
706,168	53,4
706,61	53,88
707,052	54,96
707,494	55,44
707,935	55,92
708,377	56,54
708,818	57,52
709,26	58,25
709,701	58,61
710,142	59,21
710,583	59,89
711,024	60,25
711,465	60,69
711,905	61,15
712,346	62,19
712,787	62,92
713,227	62,88
713,667	63,62
714,108	64,51
714,548	65,24
714,988	65,75
715,428	65,69
715,868	65,87
716,307	66,59
716,747	67,02
717,186	67,81
717,626	68,12
718,065	68,89
718,504	69,18
718,944	69,65
719,383	69,62
719,822	70,02
720,261	70,83
720,699	71,66
721,138	71,83
721,576	71,82
722,015	72,66
722,453	72,78
722,892	73,42
723,33	73,91
723,768	73,84
724,206	74,44
724,644	74,4
725,081	75,14
725,519	74,99
725,957	76,01
726,394	76,07
726,832	76,26
727,269	76,19
727,706	77,34
728,143	76,7
728,58	77,29
729,017	77,57
729,454	77,5
729,89	77,77
730,327	78,16
730,764	78,64
731,2	78,46
731,636	78,26
732,072	78,21
732,509	79,54
732,945	79,32
733,38	79,83
733,816	79,7
734,252	80,2
734,688	80,16
735,123	80,1
735,559	80,39
735,994	80,52
736,429	79,98
736,864	80,63
737,299	80,64
737,734	80,75
738,169	81,02
738,604	81,1
739,038	81,3
739,473	80,56
739,907	81
740,342	81,45
740,776	81,53
741,21	81,61
741,644	81,93
742,078	81,55
742,512	81,8
742,946	82,13
743,379	81,45
743,813	81,84
744,246	81,71
744,68	82,29
745,113	82,28
745,546	82,28
745,979	82,42
746,412	82,18
746,845	82,07
747,278	82,36
747,711	82,18
748,143	81,68
748,576	82,16
749,008	82,21
749,441	81,98
749,873	82,07
750,305	82,18
750,737	82,05
751,169	82,02
751,601	81,9
752,032	82,47
752,464	82,13
752,896	81,53
753,327	82,39
753,758	81,95
754,19	81,85
754,621	82,08
755,052	82,07
755,483	82,33
755,914	82,01
756,344	82,01
756,775	81,56
757,206	81,28
757,636	81,82
758,066	81,93
758,497	81,6
758,927	81,92
759,357	81,92
759,787	82,05
760,217	81,92
760,647	81,23
761,076	81,92
761,506	81,81
761,935	81,93
762,365	81,65
762,794	81,83
763,223	80,79
763,653	81,91
764,082	81,63
764,51	81,37
764,939	81,43
765,368	81,71
765,797	81,75
766,225	81,49
766,654	81,36
767,082	81,12
767,51	81,66
767,938	81,46
768,367	81,32
768,795	81,58
769,222	81,27
769,65	81,32
770,078	81,06
770,505	81,07
770,933	81,02
771,36	81,27
771,788	81,1
772,215	80,97
772,642	81,07
773,069	81,33
773,496	81,35
773,923	81,28
774,349	81,22
774,776	81,64
775,203	80,54
775,629	81,39
776,055	80,82
776,482	81,54
776,908	80,75
777,334	81,24
777,76	80,97
778,186	81,05
778,611	81,11
779,037	80,52
779,463	80,67
779,888	80,74
780,314	81,25
780,739	81,24
781,164	80,78
781,589	80,94
782,014	80,6
782,439	80,83
782,864	80,94
783,289	81,02
783,713	80,42
784,138	80,88
784,562	81,3
784,987	80,92
785,411	80,72
785,835	81,35
786,259	80,85
786,683	80,97
787,107	81,15
787,531	80,67
787,954	81,2
788,378	80,83
788,802	81,02
789,225	81,1
789,648	80,83
790,071	80,87
790,495	81,13
790,918	80,57
791,34	81,03
791,763	81,12
792,186	80,69
792,609	80,72
793,031	80,82
793,454	80,49
793,876	80,42
794,298	80,47
794,721	80,84
795,143	80,88
795,565	80,71
795,986	80,22
796,408	80,54
796,83	81,06
797,252	80,8
797,673	81
798,094	81,02
798,516	80,48
798,937	80,75
799,358	80,48
799,779	80,47
800,2	80,45
800,621	80,79
801,042	81,13
801,462	80,79
801,883	81,09
802,303	80,29
802,724	80,09
803,144	80,05
803,564	80,67
803,984	80,83
804,404	81,12
804,824	80,6
805,244	80,96
805,664	80,71
806,084	81,21
806,503	80,86
806,923	80,57
807,342	80,29
807,761	81,1
808,18	81,12
808,599	80,27
809,018	80,12
809,437	80,36
809,856	80,81
810,275	80,92
810,693	80,7
811,112	80,66
811,53	80,04
811,949	80,75
812,367	80,68
812,785	80,34
813,203	80,47
813,621	80,49
814,039	80,22
814,457	80,77
814,874	80,36
815,292	80,46
815,709	81,02
816,127	80,1
816,544	80,51
816,961	80,35
817,378	80,56
817,795	81,12
818,212	80,96
818,629	80,68
819,046	80,56
819,462	80,69
819,879	80,4
820,295	80,78
820,712	80,74
821,128	80,9
821,544	80,94
821,96	80,9
822,376	80,02
822,792	79,91
823,208	80,45
823,624	79,94
824,039	80,5
824,455	79,93
824,87	80,98
825,286	80,91
825,701	80,19
826,116	80,39
826,531	80,53
826,946	80,25
827,361	80,16
827,776	80,02
828,19	80,35
828,605	80,69
829,02	80,7
829,434	80,34
829,848	80,54
830,263	80,28
830,677	80,38
831,091	80,43
831,505	80,15
831,919	80,3
832,332	80,03
832,746	80,58
833,16	80,79
833,573	80,33
833,987	80,18
