Data from A_2_0_Relative__5__00005.txt Node

Date: Mon Jan 29 12:44:45 CET 2024
User: diatiterra
Spectrometer: HDX00911
Trigger mode: 0
Integration Time (sec): 6,000000E-3
Scans to average: 4
Nonlinearity correction enabled: false
Boxcar width: 0
Storing dark spectrum: false
XAxis mode: Wavelengths
Number of Pixels in Spectrum: 2068
>>>>>Begin Spectral Data<<<<<
194,468	93,15
195,025	97,18
195,581	89,39
196,138	132,76
196,694	87,59
197,251	85,03
197,807	94,59
198,363	73,43
198,919	79,18
199,474	77,17
200,03	60,83
200,586	76,82
201,141	70,26
201,696	72,29
202,251	92,12
202,806	62,33
203,361	78,08
203,916	86,75
204,471	77,34
205,025	79,4
205,58	79,61
206,134	73,87
206,688	81,62
207,242	70,17
207,796	76,21
208,35	80,91
208,904	71,15
209,457	68,48
210,011	74,43
210,564	77,83
211,117	80,23
211,67	75,1
212,223	77,97
212,776	71,37
213,329	77,95
213,881	70,82
214,434	96,49
214,986	72,77
215,538	76,64
216,09	89,45
216,642	79,57
217,194	78,46
217,746	87,87
218,297	65,62
218,849	73,44
219,4	81,33
219,951	81
220,502	82,14
221,053	68,07
221,604	78,21
222,155	72,07
222,705	74,26
223,256	71
223,806	90,41
224,356	70,49
224,906	73,99
225,456	67,11
226,006	69,8
226,556	75,69
227,106	86,5
227,655	83,84
228,204	70,83
228,754	75,1
229,303	76,32
229,852	88,31
230,401	73,87
230,949	81,74
231,498	64,44
232,047	78,42
232,595	76,65
233,143	77,68
233,691	71,66
234,239	65,67
234,787	65
235,335	71,6
235,883	77,13
236,43	74,07
236,978	70,56
237,525	74,15
238,072	81,86
238,619	85,78
239,166	81,55
239,713	70,72
240,26	84,31
240,806	76,89
241,353	79,25
241,899	72,65
242,445	67,9
242,991	75
243,537	84,38
244,083	78,06
244,629	72,32
245,174	96,59
245,72	77,45
246,265	74,35
246,81	80,47
247,355	63,41
247,9	74,9
248,445	83,33
248,99	73,75
249,534	70,2
250,079	66,02
250,623	71,07
251,168	63,51
251,712	72,4
252,256	91,22
252,8	69,57
253,343	74,38
253,887	83,55
254,43	63,77
254,974	73,71
255,517	70,12
256,06	66,67
256,603	72,64
257,146	73,06
257,689	67,05
258,232	68,12
258,774	70,27
259,317	70,74
259,859	67,12
260,401	72,32
260,943	74,46
261,485	90,29
262,027	77,23
262,569	63,64
263,11	78,63
263,652	74,51
264,193	68,29
264,734	66,34
265,275	82,27
265,816	60,53
266,357	60,63
266,898	90,42
267,438	86,26
267,979	78,26
268,519	75,82
269,059	67,46
269,6	76,61
270,14	70,19
270,68	81,25
271,219	67,72
271,759	84,55
272,298	84,95
272,838	71,56
273,377	79,19
273,916	72,02
274,455	65,6
274,994	83,48
275,533	83,56
276,072	78,07
276,61	78,92
277,149	71,28
277,687	75,56
278,225	71,56
278,763	70,28
279,301	74,15
279,839	66,23
280,377	69,54
280,914	73,28
281,452	74,49
281,989	76,47
282,526	80,37
283,064	82,35
283,601	54,71
284,137	66,52
284,674	70,59
285,211	67,66
285,747	63,68
286,284	77,98
286,82	65,38
287,356	84,72
287,892	71,5
288,428	74,68
288,964	76,99
289,5	68,87
290,035	80
290,571	77,88
291,106	85
291,641	77,78
292,176	65,55
292,711	56,84
293,246	67,2
293,781	75,59
294,315	69,11
294,85	62,69
295,384	64,55
295,918	67,79
296,453	74,13
296,987	62,1
297,52	73,33
298,054	76,21
298,588	53,25
299,121	76,12
299,655	63,24
300,188	72,28
300,721	67,63
301,254	60,58
301,787	69,55
302,32	71,15
302,853	64,71
303,385	63,98
303,918	69,35
304,45	72,95
304,982	62,61
305,514	77,25
306,046	57,61
306,578	74,06
307,11	75,85
307,641	66,67
308,173	55,46
308,704	65,93
309,236	71,84
309,767	58,12
310,298	74,34
310,829	60,43
311,359	51,91
311,89	83,6
312,421	64,17
312,951	66,2
313,481	64,62
314,012	65,45
314,542	69,84
315,072	75,68
315,601	72,94
316,131	74,26
316,661	44,55
317,19	72,41
317,72	69,43
318,249	54,84
318,778	63,77
319,307	64,25
319,836	66,37
320,365	66,35
320,893	72,83
321,422	67,89
321,95	69,04
322,479	61,84
323,007	72,35
323,535	63,13
324,063	64,68
324,591	71,7
325,118	68,26
325,646	60,99
326,173	58,37
326,701	73,57
327,228	73,42
327,755	59,41
328,282	66,67
328,809	67
329,336	68,39
329,862	69,34
330,389	61,16
330,915	58,08
331,441	78,97
331,968	69,4
332,494	62,56
333,02	65,87
333,545	78,41
334,071	66,98
334,597	55,07
335,122	74,66
335,648	63,49
336,173	56,88
336,698	63,23
337,223	80,95
337,748	66,52
338,272	68,95
338,797	44,5
339,322	51,95
339,846	62,69
340,37	74,01
340,894	64,95
341,419	47,08
341,942	59,65
342,466	65,98
342,99	69,83
343,514	62,76
344,037	62,24
344,56	63,43
345,084	68,48
345,607	67,89
346,13	59,6
346,653	63,85
347,175	61,15
347,698	66,53
348,221	61,42
348,743	63,4
349,265	63,91
349,787	69,11
350,309	58,08
350,831	67,03
351,353	65,95
351,875	66,95
352,397	58,27
352,918	60,66
353,439	62,5
353,961	69,66
354,482	53,38
355,003	56,72
355,524	66,45
356,044	70,07
356,565	73,96
357,086	67,37
357,606	44,98
358,126	61,61
358,646	60,69
359,167	59,33
359,687	52,31
360,206	59,35
360,726	69,55
361,246	61,29
361,765	57,72
362,285	60,83
362,804	50,54
363,323	63,06
363,842	58,89
364,361	65,23
364,88	63,03
365,398	56,89
365,917	62,46
366,435	61,61
366,954	62,33
367,472	58,79
367,99	59,12
368,508	52,66
369,026	60,9
369,544	58,16
370,061	61,18
370,579	55,93
371,096	68,41
371,613	61,27
372,131	63,61
372,648	58,78
373,165	57,88
373,681	56,72
374,198	61,1
374,715	52,41
375,231	63,35
375,747	59,03
376,264	58,88
376,78	59,78
377,296	48,88
377,812	58,86
378,327	57,14
378,843	54,63
379,359	55,19
379,874	52,02
380,389	54,73
380,905	54,21
381,42	55,71
381,935	48,5
382,449	49,16
382,964	54,78
383,479	50,64
383,993	46,68
384,508	46,69
385,022	49,92
385,536	45,79
386,05	51,73
386,564	47,39
387,078	46,81
387,592	52,28
388,105	53,41
388,619	47,03
389,132	44,59
389,645	46,4
390,158	40,76
390,671	48,71
391,184	43,26
391,697	49,23
392,21	45,53
392,722	44,78
393,235	41,45
393,747	40,31
394,259	43,06
394,771	42,92
395,283	40,41
395,795	43,66
396,307	39,51
396,818	41,91
397,33	40,02
397,841	39,18
398,353	38,73
398,864	39,87
399,375	37,62
399,886	38,07
400,397	37,1
400,907	34,82
401,418	35,39
401,928	34
402,439	33,61
402,949	35,04
403,459	31,24
403,969	32,36
404,479	31,31
404,989	31,47
405,498	27,31
406,008	28,81
406,517	28,4
407,027	27,79
407,536	29,15
408,045	27,04
408,554	23,97
409,063	22,75
409,572	24,46
410,08	24,87
410,589	22,52
411,097	21,33
411,606	21,87
412,114	20,42
412,622	20,56
413,13	19,83
413,638	18,02
414,145	19,85
414,653	18,18
415,16	17,67
415,668	18,61
416,175	17,77
416,682	17,19
417,189	17,57
417,696	16,92
418,203	15,85
418,71	15,74
419,216	15,59
419,723	16,16
420,229	15,85
420,735	15,27
421,242	15,48
421,748	14,85
422,254	15,7
422,759	15,47
423,265	14,3
423,771	15,14
424,276	14,63
424,781	15,06
425,287	14,81
425,792	14,95
426,297	13,77
426,802	14,46
427,306	14,73
427,811	14,59
428,316	14,36
428,82	14,09
429,324	14,59
429,829	14,62
430,333	13,81
430,837	13,94
431,34	13,39
431,844	13,11
432,348	13,37
432,851	14,79
433,355	13,91
433,858	14,37
434,361	13,28
434,864	13,07
435,367	14,04
435,87	13,71
436,373	12,98
436,876	13,72
437,378	13,81
437,88	14,17
438,383	13,31
438,885	14,51
439,387	13,39
439,889	13,67
440,391	13,38
440,892	13,87
441,394	13,43
441,896	13,53
442,397	13,36
442,898	13,16
443,399	14,11
443,9	13,61
444,401	13,73
444,902	13,63
445,403	13,87
445,903	13,42
446,404	13,76
446,904	13,55
447,405	13,96
447,905	13,95
448,405	13,96
448,905	13,87
449,404	14,08
449,904	13,72
450,404	13,69
450,903	13,32
451,403	13,37
451,902	14,07
452,401	13,9
452,9	14,14
453,399	14,46
453,898	14,51
454,396	14,26
454,895	14,6
455,393	14,5
455,892	14,07
456,39	14,23
456,888	14,68
457,386	14,06
457,884	14,45
458,382	14,72
458,879	13,99
459,377	14,27
459,874	14,35
460,372	14,59
460,869	14,26
461,366	14,2
461,863	14,02
462,36	13,78
462,857	14,54
463,353	14,17
463,85	14,66
464,346	13,94
464,843	14,55
465,339	14,31
465,835	14,8
466,331	14,83
466,827	14,1
467,323	14,29
467,818	14,48
468,314	13,9
468,809	14,8
469,305	14,18
469,8	14,37
470,295	14,8
470,79	14,34
471,285	14,17
471,78	14,62
472,274	14,34
472,769	14,7
473,263	14,35
473,758	14,74
474,252	14,64
474,746	14,09
475,24	14,64
475,734	15,03
476,228	14,3
476,721	14,33
477,215	14,69
477,708	14,98
478,202	14,9
478,695	14,58
479,188	14,85
479,681	14,98
480,174	14,38
480,667	14,53
481,159	14,83
481,652	15,13
482,144	14,34
482,637	15,31
483,129	14,6
483,621	14,57
484,113	14,62
484,605	14,8
485,097	14,51
485,588	14,92
486,08	15,15
486,571	14,93
487,063	15,03
487,554	15,21
488,045	14,74
488,536	15,21
489,027	14,85
489,518	15,18
490,008	15,33
490,499	15,04
490,989	15,41
491,48	15,05
491,97	15,49
492,46	15,6
492,95	15,64
493,44	15,44
493,93	15,57
494,419	15,77
494,909	15,94
495,398	15,71
495,888	16,27
496,377	15,71
496,866	16,04
497,355	15,76
497,844	16,63
498,333	16,28
498,821	16,78
499,31	17,03
499,798	16,81
500,287	17,15
500,775	17,4
501,263	17,23
501,751	17,38
502,239	18,02
502,727	17,98
503,215	17,57
503,702	18,65
504,19	18,85
504,677	18,51
505,164	18,82
505,651	18,9
506,139	19,18
506,625	19,73
507,112	19,63
507,599	20
508,086	20,55
508,572	20,57
509,058	20,92
509,545	21,31
510,031	21,78
510,517	22,1
511,003	22,52
511,489	22,66
511,974	23,04
512,46	22,84
512,946	23,52
513,431	23,54
513,916	24,24
514,401	24,59
514,887	25,4
515,371	25,95
515,856	26,4
516,341	26,66
516,826	26,77
517,31	27,56
517,795	27,79
518,279	28,66
518,763	29,02
519,247	29,14
519,731	29,63
520,215	30,8
520,699	30,77
521,182	31,67
521,666	31,5
522,149	32,82
522,633	33,03
523,116	33,32
523,599	33,85
524,082	34,01
524,565	35,09
525,048	35,05
525,53	36,03
526,013	35,89
526,495	36,84
526,978	36,64
527,46	37,62
527,942	37,93
528,424	38,49
528,906	38,62
529,388	38,85
529,87	39,24
530,351	40,16
530,833	39,69
531,314	40,65
531,795	40,61
532,277	41,11
532,758	40,67
533,238	41,17
533,719	41,16
534,2	41,24
534,681	42,03
535,161	42,06
535,642	42,29
536,122	42,59
536,602	42,95
537,082	42,3
537,562	42,7
538,042	42,14
538,522	42,95
539,001	43,21
539,481	43,03
539,96	43,51
540,44	43,56
540,919	43,77
541,398	44,01
541,877	43,36
542,356	43,53
542,835	43,68
543,313	43,77
543,792	44,2
544,27	44,05
544,749	43,64
545,227	44,02
545,705	44,31
546,183	43,99
546,661	44,77
547,139	43,91
547,616	44,61
548,094	44,69
548,571	45,14
549,049	45,42
549,526	44,69
550,003	45,1
550,48	44,44
550,957	44,97
551,434	45,17
551,911	44,7
552,387	45,6
552,864	45,17
553,34	44,96
553,817	45,34
554,293	45,61
554,769	44,85
555,245	45,25
555,721	45,41
556,197	44,88
556,672	44,39
557,148	44,16
557,623	44,9
558,099	44,7
558,574	44,4
559,049	44,79
559,524	44,28
559,999	44,23
560,474	44,19
560,948	44,26
561,423	43,87
561,897	44,02
562,372	43,87
562,846	43,5
563,32	43,26
563,794	42,91
564,268	43,02
564,742	42,67
565,216	42,73
565,69	42,49
566,163	41,92
566,636	41,95
567,11	41,42
567,583	41,23
568,056	40,45
568,529	40,89
569,002	40,42
569,475	40,6
569,947	39,51
570,42	39,89
570,892	39,91
571,365	38,96
571,837	38,66
572,309	38,25
572,781	38,1
573,253	38,01
573,725	37,9
574,197	37,23
574,668	37,13
575,14	36,63
575,611	36,23
576,082	36,47
576,554	36
577,025	36,28
577,496	35,69
577,967	35,28
578,437	35,2
578,908	35,03
579,379	34,61
579,849	34,74
580,319	34,41
580,79	34,28
581,26	33,83
581,73	33,09
582,2	33,93
582,669	33,34
583,139	33,63
583,609	33,03
584,078	32,97
584,548	32,87
585,017	32,78
585,486	32,52
585,955	32,16
586,424	32,17
586,893	32,04
587,362	31,6
587,83	31,65
588,299	31,57
588,767	31,67
589,236	31,63
589,704	31,27
590,172	31,51
590,64	31,16
591,108	31,22
591,576	31,14
592,043	30,52
592,511	30,72
592,978	30,93
593,446	30,56
593,913	30,7
594,38	30,24
594,847	30,37
595,314	30,23
595,781	29,97
596,248	30,16
596,715	30
597,181	29,9
597,647	29,58
598,114	30
598,58	29,98
599,046	29,49
599,512	29,75
599,978	29,5
600,444	29,22
600,91	29,46
601,375	29,25
601,841	29,49
602,306	29,01
602,771	29,29
603,236	29,28
603,702	28,91
604,167	29,05
604,631	28,86
605,096	28,68
605,561	28,6
606,025	28,32
606,49	28,59
606,954	28,14
607,418	27,88
607,882	27,75
608,347	28,19
608,81	27,81
609,274	27,44
609,738	27,59
610,202	27,35
610,665	27,08
611,128	27,19
611,592	26,91
612,055	26,76
612,518	26,66
612,981	26,61
613,444	26,14
613,907	26,02
614,369	26,13
614,832	25,8
615,294	25,65
615,757	25,76
616,219	25,55
616,681	25,24
617,143	25,16
617,605	25,05
618,067	25,01
618,529	25,1
618,99	24,73
619,452	24,86
619,913	24,41
620,375	24,49
620,836	24,57
621,297	24,21
621,758	24,52
622,219	24,24
622,68	24,17
623,14	24,09
623,601	23,83
624,061	23,8
624,522	23,92
624,982	23,62
625,442	23,91
625,902	23,59
626,362	23,81
626,822	23,45
627,282	23,61
627,742	23,35
628,201	23,35
628,661	23,54
629,12	23,46
629,579	23,3
630,038	23,5
630,497	23,5
630,956	23,39
631,415	23,44
631,874	23,43
632,332	22,93
632,791	23,1
633,249	23,3
633,708	23,34
634,166	22,96
634,624	22,9
635,082	22,51
635,54	22,6
635,998	22,28
636,455	22,56
636,913	21,94
637,37	21,99
637,828	22,02
638,285	21,7
638,742	21,65
639,199	21,27
639,656	21,36
640,113	21,48
640,57	20,85
641,027	20,4
641,483	20,55
641,94	20,26
642,396	20,27
642,852	20,25
643,309	20
643,765	19,86
644,221	19,66
644,676	19,53
645,132	19,23
645,588	18,9
646,043	19
646,499	18,61
646,954	18,52
647,409	18,45
647,864	18,2
648,319	18,22
648,774	17,92
649,229	17,86
649,684	17,89
650,139	17,65
650,593	17,49
651,047	17,65
651,502	17,34
651,956	17,38
652,41	17,26
652,864	17,07
653,318	17,05
653,772	17,04
654,225	16,91
654,679	16,81
655,133	16,91
655,586	16,72
656,039	16,68
656,492	16,46
656,946	16,39
657,399	16,5
657,851	16,32
658,304	16,26
658,757	16,08
659,209	16,08
659,662	16,04
660,114	15,56
660,567	15,96
661,019	15,47
661,471	15,63
661,923	15,32
662,375	15,19
662,826	15,18
663,278	15,01
663,73	15,05
664,181	14,73
664,632	14,95
665,084	14,83
665,535	14,64
665,986	14,62
666,437	14,6
666,888	14,44
667,338	14,29
667,789	14,4
668,24	14,5
668,69	14,48
669,14	14,29
669,591	14,33
670,041	14,32
670,491	14,45
670,941	14,47
671,391	14,6
671,84	14,44
672,29	14,56
672,74	14,78
673,189	14,71
673,638	14,74
674,088	14,91
674,537	14,96
674,986	14,94
675,435	15,09
675,883	15,19
676,332	15,34
676,781	15,45
677,229	15,47
677,678	15,75
678,126	15,79
678,574	15,9
679,022	16,04
679,47	16,14
679,918	16,2
680,366	16,76
680,814	16,47
681,261	16,67
681,709	16,86
682,156	16,98
682,604	17,45
683,051	17,35
683,498	17,76
683,945	17,69
684,392	18,01
684,839	18,21
685,286	18,36
685,732	18,46
686,179	18,91
686,625	18,97
687,071	19,28
687,518	19,42
687,964	19,92
688,41	20,22
688,856	20,6
689,301	21,29
689,747	21,57
690,193	21,97
690,638	22,67
691,084	23,11
691,529	23,59
691,974	24,44
692,419	25,05
692,864	25,79
693,309	26,67
693,754	27,47
694,199	27,96
694,643	29,25
695,088	29,98
695,532	30,65
695,977	31,72
696,421	32,48
696,865	33,37
697,309	34,3
697,753	35,22
698,197	36,08
698,64	37,55
699,084	38,08
699,527	39,14
699,971	40,13
700,414	41,12
700,857	41,85
701,3	43,1
701,743	43,65
702,186	44,61
702,629	45,09
703,072	46,39
703,515	47,24
703,957	47,91
704,399	49,36
704,842	49,48
705,284	50,57
705,726	51,46
706,168	52,25
706,61	53,22
707,052	54,03
707,494	55,07
707,935	55,29
708,377	56,39
708,818	57,08
709,26	57,79
709,701	59,06
710,142	59,31
710,583	59,8
711,024	60,67
711,465	61,41
711,905	62,35
712,346	62,75
712,787	63,86
713,227	64,09
713,667	64,71
714,108	65,75
714,548	66,75
714,988	67,32
715,428	67,43
715,868	68,2
716,307	69,16
716,747	69,56
717,186	70,22
717,626	70,78
718,065	71,51
718,504	71,95
718,944	72,19
719,383	72,86
719,822	73,89
720,261	74,16
720,699	74,71
721,138	74,77
721,576	75,47
722,015	76,13
722,453	76,24
722,892	76,64
723,33	77,69
723,768	77,25
724,206	78,64
724,644	78,67
725,081	79,26
725,519	78,94
725,957	79,9
726,394	80,46
726,832	80,76
727,269	80,64
727,706	82,09
728,143	81,53
728,58	81,81
729,017	81,83
729,454	82,5
729,89	82,87
730,327	83,19
730,764	83,49
731,2	84,05
731,636	83,87
732,072	83,9
732,509	84,69
732,945	84,6
733,38	85,28
733,816	85,14
734,252	85,89
734,688	85,59
735,123	85,93
735,559	86,19
735,994	86,39
736,429	86,21
736,864	86,74
737,299	86,56
737,734	86,08
738,169	87,03
738,604	87,01
739,038	87,42
739,473	86,54
739,907	87,31
740,342	87,56
740,776	87,46
741,21	87,78
741,644	87,87
742,078	88,01
742,512	87,94
742,946	88,49
743,379	88,01
743,813	88,5
744,246	88,23
744,68	88,47
745,113	88,74
745,546	88,27
745,979	88,81
746,412	88,55
746,845	87,98
747,278	87,98
747,711	88,44
748,143	88,65
748,576	88,69
749,008	88,39
749,441	88,17
749,873	88,78
750,305	89
750,737	88,63
751,169	88,82
751,601	88,57
752,032	88,92
752,464	88,82
752,896	88,55
753,327	88,62
753,758	88,56
754,19	88,78
754,621	88,82
755,052	88,5
755,483	88,72
755,914	88,6
756,344	88,36
756,775	87,94
757,206	88,39
757,636	88,77
758,066	88,46
758,497	88,1
758,927	87,71
759,357	88,32
759,787	88,05
760,217	88,47
760,647	87,8
761,076	88,36
761,506	87,9
761,935	88,66
762,365	88,27
762,794	87,99
763,223	87,65
763,653	87,98
764,082	88,04
764,51	87,58
764,939	87,75
765,368	88,14
765,797	88
766,225	87,8
766,654	87,9
767,082	87,2
767,51	88,11
767,938	87,95
768,367	88,15
768,795	87,83
769,222	87,4
769,65	87,97
770,078	87,47
770,505	87,55
770,933	87,88
771,36	87,19
771,788	87,59
772,215	87,6
772,642	87,28
773,069	87,46
773,496	87,58
773,923	87,53
774,349	87,79
774,776	87,98
775,203	86,91
775,629	87,74
776,055	87,61
776,482	87,6
776,908	87,01
777,334	86,98
777,76	87,49
778,186	86,92
778,611	87,28
779,037	87,51
779,463	87,52
779,888	87,41
780,314	87,32
780,739	87
781,164	87,09
781,589	87,12
782,014	87,36
782,439	87,33
782,864	87,08
783,289	87,86
783,713	86,71
784,138	87,08
784,562	87,43
784,987	86,81
785,411	87,24
785,835	86,95
786,259	87,07
786,683	87,04
787,107	87,24
787,531	87,18
787,954	87,22
788,378	86,95
788,802	87,43
789,225	87,4
789,648	87,13
790,071	87,32
790,495	87,14
790,918	86,75
791,34	87,02
791,763	87,75
792,186	87,35
792,609	86,63
793,031	86,86
793,454	87,5
793,876	86,58
794,298	86,77
794,721	87,1
795,143	87,08
795,565	87,27
795,986	86,99
796,408	86,83
796,83	87,67
797,252	87,17
797,673	87,36
798,094	87,15
798,516	86,62
798,937	86,98
799,358	86,87
799,779	86,49
800,2	86,97
800,621	87,07
801,042	87,45
801,462	87,02
801,883	87,05
802,303	87,03
802,724	86,4
803,144	87,05
803,564	87,15
803,984	86,68
804,404	87,52
804,824	86,84
805,244	87,33
805,664	87,24
806,084	87,01
806,503	87,13
806,923	87,12
807,342	87,19
807,761	87,03
808,18	86,99
808,599	87,18
809,018	86,04
809,437	87,05
809,856	87,19
810,275	87,53
810,693	86,86
811,112	86,78
811,53	86,58
811,949	86,64
812,367	87,22
812,785	87,13
813,203	86,89
813,621	86,93
814,039	87,11
814,457	86,91
814,874	86,99
815,292	86,9
815,709	87,03
816,127	86,63
816,544	87,33
816,961	86,36
817,378	86,91
817,795	87,38
818,212	87,02
818,629	86,92
819,046	87,17
819,462	86,79
819,879	87,26
820,295	87,85
820,712	86,61
821,128	86,93
821,544	86,82
821,96	87,02
822,376	86,78
822,792	86,3
823,208	86,91
823,624	86,62
824,039	86,55
824,455	86,68
824,87	87,14
825,286	87,42
825,701	86,78
826,116	86,56
826,531	87,7
826,946	87,07
827,361	86,73
827,776	86,26
828,19	86,88
828,605	86,97
829,02	87,51
829,434	86,52
829,848	86,94
830,263	86,76
830,677	86,42
831,091	87,19
831,505	86,79
831,919	86,4
832,332	86,39
832,746	86,97
833,16	86,93
833,573	86,95
833,987	86,53
