Data from A_2_0_Relative__1__00001.txt Node

Date: Mon Jan 29 12:44:23 CET 2024
User: diatiterra
Spectrometer: HDX00911
Trigger mode: 0
Integration Time (sec): 6,000000E-3
Scans to average: 4
Nonlinearity correction enabled: false
Boxcar width: 0
Storing dark spectrum: false
XAxis mode: Wavelengths
Number of Pixels in Spectrum: 2068
>>>>>Begin Spectral Data<<<<<
194,468	75,34
195,025	95,77
195,581	69,7
196,138	72,41
196,694	105,52
197,251	63,1
197,807	84,86
198,363	79,71
198,919	74,29
199,474	79,45
200,03	68,2
200,586	73,18
201,141	75,86
201,696	80,09
202,251	76,35
202,806	70,7
203,361	70,32
203,916	70,51
204,471	80,79
205,025	75,54
205,58	78,16
206,134	81,98
206,688	70,51
207,242	52,94
207,796	75,77
208,35	81,36
208,904	74,62
209,457	69,65
210,011	76,26
210,564	71,74
211,117	78,29
211,67	73,03
212,223	72,25
212,776	73,93
213,329	74,02
213,881	66,15
214,434	84,65
214,986	71,49
215,538	68,44
216,09	96,48
216,642	66,96
217,194	64,63
217,746	66,11
218,297	73,66
218,849	71,37
219,4	73,86
219,951	86
220,502	75,89
221,053	69,33
221,604	79,91
222,155	71,17
222,705	77,22
223,256	73,16
223,806	89,95
224,356	65,16
224,906	72,53
225,456	80,26
226,006	62,04
226,556	83,03
227,106	72,15
227,655	77,29
228,204	62,5
228,754	80,41
229,303	78,07
229,852	62,9
230,401	69,82
230,949	70,87
231,498	69,87
232,047	67,63
232,595	66,93
233,143	78,11
233,691	74,49
234,239	80,69
234,787	67,27
235,335	74,9
235,883	72,65
236,43	77,78
236,978	78,04
237,525	60,98
238,072	68,14
238,619	80,89
239,166	78,11
239,713	79,28
240,26	76,86
240,806	65,74
241,353	75,47
241,899	73,88
242,445	74,9
242,991	77,23
243,537	67,41
244,083	73,84
244,629	71,59
245,174	84,66
245,72	74,04
246,265	70,43
246,81	62,33
247,355	71,14
247,9	76,57
248,445	73,66
248,99	69,58
249,534	57,96
250,079	67,96
250,623	72,08
251,168	68,47
251,712	67,2
252,256	75,61
252,8	73,48
253,343	59,61
253,887	66,67
254,43	79,71
254,974	75,26
255,517	77,18
256,06	77,33
256,603	65,17
257,146	80,31
257,689	52,33
258,232	60,26
258,774	58,38
259,317	70,31
259,859	63,93
260,401	71,88
260,943	82,07
261,485	68,45
262,027	63,86
262,569	67,68
263,11	64,53
263,652	56,37
264,193	66,67
264,734	65,84
265,275	74,09
265,816	69,3
266,357	69,68
266,898	76,65
267,438	72,99
267,979	58,7
268,519	70,08
269,059	65,55
269,6	74,77
270,14	69,71
270,68	75
271,219	54,33
271,759	70,45
272,298	72,58
272,838	85,78
273,377	74,21
273,916	72,48
274,455	64,22
274,994	79,46
275,533	72,15
276,072	89,04
276,61	75,98
277,149	77,44
277,687	64,44
278,225	72,51
278,763	76,31
279,301	63,14
279,839	75
280,377	71,57
280,914	73,71
281,452	83,16
281,989	83,82
282,526	78,97
283,064	79,41
283,601	60,09
284,137	64,71
284,674	59,8
285,211	73,19
285,747	60,26
286,284	81,65
286,82	63,68
287,356	76,42
287,892	67,5
288,428	65,67
288,964	86,28
289,5	70,28
290,035	80
290,571	74,04
291,106	88,89
291,641	75,85
292,176	81,34
292,711	71,79
293,246	68
293,781	70,42
294,315	69,63
294,85	72,14
295,384	76,36
295,918	72,12
296,453	77,61
296,987	62,5
297,52	77,14
298,054	73,79
298,588	70,56
299,121	91,54
299,655	80,88
300,188	80,98
300,721	71,37
301,254	74,04
301,787	78,18
302,32	88,46
302,853	75
303,385	73,31
303,918	70,35
304,45	60,87
304,982	65,77
305,514	80,42
306,046	66,26
306,578	67,92
307,11	73,91
307,641	71,11
308,173	69,33
308,704	77,43
309,236	78,64
309,767	68,38
310,298	69,47
310,829	63,91
311,359	59,57
311,89	85,71
312,421	63,64
312,951	77,46
313,481	75,94
314,012	70,91
314,542	83,6
315,072	71,35
315,601	61,93
316,131	81,68
316,661	69,09
317,19	73,4
317,72	66,84
318,249	72,35
318,778	58,45
319,307	65,22
319,836	69,51
320,365	73,56
320,893	80,98
321,422	64,68
321,95	69,87
322,479	69,74
323,007	97,65
323,535	72,73
324,063	69,72
324,591	78,3
325,118	75,65
325,646	64,13
326,173	69,86
326,701	77,53
327,228	72,07
327,755	68,81
328,282	72,68
328,809	80,3
329,336	65,8
329,862	72,17
330,389	67,86
330,915	59,83
331,441	75,9
331,968	73,77
332,494	61,61
333,02	59,13
333,545	77,09
334,071	81,13
334,597	71,98
335,122	65,16
335,648	73,02
336,173	68,35
336,698	61,88
337,223	83,6
337,748	57,08
338,272	87,37
338,797	64,5
339,322	61,47
339,846	72,02
340,37	66,67
340,894	58,41
341,419	70
341,942	59,65
342,466	64,75
342,99	68,97
343,514	68,62
344,037	73,98
344,56	67,59
345,084	57,61
345,607	67,89
346,13	60,8
346,653	54,23
347,175	59,23
347,698	62,1
348,221	72,05
348,743	58,87
349,265	67,29
349,787	70,73
350,309	67,01
350,831	58,97
351,353	70,25
351,875	70,71
352,397	65,47
352,918	65,07
353,439	65,23
353,961	65,17
354,482	43,42
355,003	62,31
355,524	66,12
356,044	68,37
356,565	64,93
357,086	65,61
357,606	59,17
358,126	69,04
358,646	64,48
359,167	61,77
359,687	59,08
360,206	70,32
360,726	60,26
361,246	67,16
361,765	70,47
362,285	60,83
362,804	61,14
363,323	65,77
363,842	63,89
364,361	62,77
364,88	58,54
365,398	65,98
365,917	68,62
366,435	63,1
366,954	57,29
367,472	60,37
367,99	58,01
368,508	65,98
369,026	57,14
369,544	59,44
370,061	72,24
370,579	59,81
371,096	61,88
371,613	58,22
372,131	59,76
372,648	65,12
373,165	61,65
373,681	57,18
374,198	60,41
374,715	61,84
375,231	61,54
375,747	57,27
376,264	65,17
376,78	64,04
377,296	54,19
377,812	57,23
378,327	65,88
378,843	61,85
379,359	47,41
379,874	53,37
380,389	57,33
380,905	55,49
381,42	57,47
381,935	51,32
382,449	54,85
382,964	59,9
383,479	54,01
383,993	53,32
384,508	51,59
385,022	51,88
385,536	51,91
386,05	48,84
386,564	50,67
387,078	50,14
387,592	48,53
388,105	50,14
388,619	45,57
389,132	46,78
389,645	44,91
390,158	44,89
390,671	48,48
391,184	46,66
391,697	45,35
392,21	45,97
392,722	43,92
393,235	43,27
393,747	43,15
394,259	47,91
394,771	47,1
395,283	43,64
395,795	43,45
396,307	44,93
396,818	41,11
397,33	40,11
397,841	41,84
398,353	38,63
398,864	41,58
399,375	39,65
399,886	40,12
400,397	37,66
400,907	38,82
401,418	34,8
401,928	36,68
402,439	34,14
402,949	35,33
403,459	31,67
403,969	36,05
404,479	33,2
404,989	30,87
405,498	30,89
406,008	32,61
406,517	30,87
407,027	28,9
407,536	29,1
408,045	27,95
408,554	26,31
409,063	25,21
409,572	25,47
410,08	26,59
410,589	24,61
411,097	23,64
411,606	23,94
412,114	23,82
412,622	24,05
413,13	22,02
413,638	22,5
414,145	20,59
414,653	18,99
415,16	19,91
415,668	18,61
416,175	18,59
416,682	19,38
417,189	18,63
417,696	19,15
418,203	17,92
418,71	16,95
419,216	16,74
419,723	17,17
420,229	16,85
420,735	16,78
421,242	16,26
421,748	16,48
422,254	16,37
422,759	16,86
423,265	15,72
423,771	16,05
424,276	16,7
424,781	15,98
425,287	15,45
425,792	15,73
426,297	15,77
426,802	15,69
427,306	15,28
427,811	14,84
428,316	15,39
428,82	14,58
429,324	15,6
429,829	15,72
430,333	14,9
430,837	15,2
431,34	15,04
431,844	14,26
432,348	15,32
432,851	15,39
433,355	14,13
433,858	14,63
434,361	14,68
434,864	14,97
435,367	14,56
435,87	15,24
436,373	14,84
436,876	15,26
437,378	14,75
437,88	14,06
438,383	14,7
438,885	15,17
439,387	14,47
439,889	14,82
440,391	14,64
440,892	14,49
441,394	14,53
441,896	14,03
442,397	13,97
442,898	14,18
443,399	14,92
443,9	14,46
444,401	14,67
444,902	14,5
445,403	14,95
445,903	14,84
446,404	14,53
446,904	14,42
447,405	14,87
447,905	14,8
448,405	14,6
448,905	15,03
449,404	15,57
449,904	14,93
450,404	15,05
450,903	14,67
451,403	14,61
451,902	15,36
452,401	15,58
452,9	15,17
453,399	15,1
453,898	15,7
454,396	15,62
454,895	15,55
455,393	15,51
455,892	15,89
456,39	15,33
456,888	16,22
457,386	15,42
457,884	15,92
458,382	15,41
458,879	16,53
459,377	15,31
459,874	15,63
460,372	16,28
460,869	15,66
461,366	15,69
461,863	15,14
462,36	15,28
462,857	15,97
463,353	16,3
463,85	15,62
464,346	15,15
464,843	15,26
465,339	15,72
465,835	16,17
466,331	15,49
466,827	15,54
467,323	15,68
467,818	15,7
468,314	15,31
468,809	15,78
469,305	15,76
469,8	15,9
470,295	15,84
470,79	15,96
471,285	15,86
471,78	15,67
472,274	15,63
472,769	16,05
473,263	15,68
473,758	15,95
474,252	16,19
474,746	16,06
475,24	15,39
475,734	15,51
476,228	15,21
476,721	15,4
477,215	15,85
477,708	15,87
478,202	15,92
478,695	15,86
479,188	15,57
479,681	15,52
480,174	16,4
480,667	16,37
481,159	15,35
481,652	15,52
482,144	15,81
482,637	16,29
483,129	16,37
483,621	16,13
484,113	16,04
484,605	16,91
485,097	15,98
485,588	16,12
486,08	16,16
486,571	15,95
487,063	16,3
487,554	16,67
488,045	16,56
488,536	16,26
489,027	16,55
489,518	16,44
490,008	16,1
490,499	17,1
490,989	16,53
491,48	17,04
491,97	16,99
492,46	17,04
492,95	17,07
493,44	17,17
493,93	16,98
494,419	17,48
494,909	17,11
495,398	17,14
495,888	17,16
496,377	17,48
496,866	17,71
497,355	17,5
497,844	18,12
498,333	18,66
498,821	18,58
499,31	18,81
499,798	18,72
500,287	18,27
500,775	19,1
501,263	19
501,751	19,42
502,239	19,43
502,727	19,55
503,215	19,56
503,702	20,15
504,19	20,62
504,677	20,71
505,164	20,26
505,651	20,43
506,139	20,88
506,625	21,37
507,112	22,11
507,599	21,65
508,086	22,07
508,572	22,13
509,058	22,83
509,545	23,16
510,031	23,32
510,517	23,79
511,003	24,22
511,489	24,27
511,974	24,54
512,46	25,27
512,946	25,25
513,431	25,31
513,916	25,82
514,401	26,47
514,887	26,76
515,371	27,48
515,856	28,2
516,341	28,44
516,826	28,7
517,31	29,29
517,795	29,57
518,279	30,35
518,763	30,3
519,247	30,67
519,731	31,56
520,215	31,72
520,699	32,36
521,182	32,84
521,666	33,59
522,149	33,64
522,633	33,94
523,116	34,86
523,599	35,81
524,082	35,99
524,565	36,68
525,048	36,62
525,53	37,65
526,013	37,42
526,495	37,89
526,978	38,36
527,46	38,39
527,942	39,71
528,424	39,61
528,906	40,12
529,388	40,17
529,87	39,84
530,351	40,52
530,833	40,73
531,314	41,23
531,795	41,3
532,277	42,29
532,758	42,11
533,238	41,94
533,719	42,57
534,2	42,12
534,681	43,47
535,161	42,77
535,642	43,89
536,122	44,22
536,602	43,73
537,082	43,29
537,562	43,62
538,042	43,49
538,522	44,54
539,001	44,46
539,481	44,05
539,96	44,58
540,44	44,93
540,919	44,45
541,398	44,6
541,877	44,4
542,356	44,79
542,835	44,94
543,313	44,91
543,792	45,01
544,27	44,79
544,749	44,74
545,227	45,17
545,705	45,07
546,183	44,75
546,661	45,28
547,139	45,08
547,616	45,44
548,094	45,33
548,571	45
549,049	45,84
549,526	46,03
550,003	45,71
550,48	45,33
550,957	45,5
551,434	45,87
551,911	45,86
552,387	46,23
552,864	46
553,34	45,36
553,817	45,9
554,293	45,87
554,769	45,63
555,245	45,45
555,721	45,81
556,197	45,7
556,672	44,87
557,148	45,01
557,623	45,63
558,099	45,07
558,574	45,64
559,049	45,3
559,524	45,06
559,999	44,91
560,474	44,86
560,948	44,87
561,423	44,76
561,897	43,94
562,372	44,82
562,846	44,65
563,32	44,32
563,794	43,69
564,268	43,91
564,742	43,76
565,216	43,22
565,69	42,97
566,163	42,66
566,636	42,7
567,11	42,42
567,583	42,06
568,056	41,57
568,529	41,76
569,002	41,43
569,475	41,19
569,947	40,9
570,42	40,38
570,892	40,31
571,365	40,12
571,837	39,66
572,309	39,46
572,781	39,17
573,253	38,73
573,725	39,09
574,197	38,23
574,668	38,23
575,14	37,67
575,611	37,57
576,082	37,44
576,554	37,22
577,025	37,05
577,496	36,44
577,967	36,21
578,437	36,15
578,908	36,32
579,379	35,27
579,849	35,77
580,319	35,6
580,79	34,96
581,26	35,23
581,73	34,55
582,2	34,78
582,669	34,43
583,139	34,5
583,609	33,99
584,078	33,78
584,548	33,84
585,017	33,59
585,486	33,38
585,955	33,18
586,424	33,37
586,893	33,31
587,362	33,14
587,83	32,98
588,299	32,9
588,767	32,83
589,236	32,5
589,704	32,53
590,172	32,48
590,64	32,36
591,108	32,33
591,576	32,14
592,043	31,85
592,511	31,81
592,978	31,78
593,446	31,2
593,913	31,66
594,38	31,4
594,847	31,66
595,314	31,51
595,781	31,43
596,248	31,17
596,715	31,11
597,181	31,35
597,647	30,81
598,114	31,21
598,58	31,36
599,046	30,35
599,512	30,96
599,978	30,76
600,444	30,8
600,91	30,71
601,375	30,74
601,841	30,65
602,306	30,65
602,771	30,55
603,236	30,3
603,702	30,3
604,167	30,54
604,631	29,94
605,096	30,09
605,561	29,73
606,025	29,68
606,49	29,86
606,954	29,59
607,418	29,06
607,882	28,92
608,347	29,17
608,81	29,04
609,274	29
609,738	28,45
610,202	28,66
610,665	28,37
611,128	28,29
611,592	28,34
612,055	27,96
612,518	27,86
612,981	27,89
613,444	27,6
613,907	27,58
614,369	27,44
614,832	27,35
615,294	27,07
615,757	26,99
616,219	27,03
616,681	26,59
617,143	26,46
617,605	26,75
618,067	26,44
618,529	26,65
618,99	26,34
619,452	25,88
619,913	26
620,375	25,56
620,836	25,82
621,297	25,8
621,758	25,59
622,219	25,5
622,68	25,44
623,14	25,57
623,601	25,31
624,061	25,48
624,522	25,24
624,982	25,26
625,442	25,21
625,902	24,95
626,362	25,24
626,822	24,96
627,282	25,03
627,742	25,19
628,201	24,72
628,661	24,9
629,12	24,93
629,579	24,94
630,038	24,75
630,497	24,89
630,956	24,63
631,415	24,88
631,874	24,78
632,332	24,54
632,791	24,62
633,249	24,41
633,708	24,73
634,166	24,39
634,624	24,04
635,082	24,07
635,54	24,01
635,998	23,61
636,455	24,09
636,913	23,66
637,37	23,35
637,828	23,5
638,285	23,44
638,742	23,05
639,199	23,04
639,656	22,8
640,113	22,86
640,57	22,4
641,027	22,3
641,483	22,21
641,94	21,72
642,396	21,63
642,852	21,75
643,309	21,65
643,765	21,33
644,221	21,1
644,676	21,22
645,132	20,75
645,588	20,91
646,043	20,46
646,499	20,31
646,954	20,51
647,409	20
647,864	20
648,319	19,71
648,774	19,59
649,229	19,43
649,684	19,52
650,139	19,37
650,593	19,1
651,047	19,26
651,502	19,18
651,956	18,87
652,41	18,83
652,864	18,65
653,318	18,87
653,772	18,63
654,225	18,38
654,679	18,24
655,133	18,35
655,586	18,49
656,039	18,35
656,492	18,17
656,946	17,87
657,399	18,15
657,851	17,79
658,304	17,64
658,757	17,9
659,209	17,43
659,662	17,12
660,114	17,28
660,567	17,17
661,019	16,93
661,471	16,91
661,923	16,86
662,375	16,86
662,826	16,75
663,278	16,66
663,73	16,04
664,181	16,25
664,632	16,21
665,084	16,1
665,535	15,94
665,986	16,13
666,437	15,86
666,888	15,91
667,338	15,82
667,789	15,84
668,24	15,72
668,69	15,68
669,14	15,66
669,591	15,59
670,041	15,45
670,491	15,59
670,941	15,82
671,391	15,84
671,84	15,58
672,29	15,95
672,74	16,01
673,189	16,03
673,638	16
674,088	16,11
674,537	15,94
674,986	16,14
675,435	16,08
675,883	16,16
676,332	16,36
676,781	16,61
677,229	16,54
677,678	16,66
678,126	16,73
678,574	16,82
679,022	17,06
679,47	17,09
679,918	17,25
680,366	17,35
680,814	17,56
681,261	17,55
681,709	17,92
682,156	18,03
682,604	18,12
683,051	18,53
683,498	18,46
683,945	18,76
684,392	18,83
684,839	19,16
685,286	19,35
685,732	19,53
686,179	19,72
686,625	20,02
687,071	20,42
687,518	20,58
687,964	21,11
688,41	21,37
688,856	21,67
689,301	22,11
689,747	22,72
690,193	22,99
690,638	23,57
691,084	24,02
691,529	24,61
691,974	25,28
692,419	26,03
692,864	26,51
693,309	27,25
693,754	28,11
694,199	28,77
694,643	30,19
695,088	30,66
695,532	31,26
695,977	32,4
696,421	33,22
696,865	34,06
697,309	34,74
697,753	35,66
698,197	36,54
698,64	37,98
699,084	38,87
699,527	39,47
699,971	40,46
700,414	41,67
700,857	42,14
701,3	43,18
701,743	43,93
702,186	45,08
702,629	45,74
703,072	46,68
703,515	47,92
703,957	47,94
704,399	49,5
704,842	49,96
705,284	50,78
705,726	51,52
706,168	52,53
706,61	53,06
707,052	54,07
707,494	55,01
707,935	55,83
708,377	56,25
708,818	57,32
709,26	58,12
709,701	58,76
710,142	59,4
710,583	59,96
711,024	61,04
711,465	61,61
711,905	61,96
712,346	62,6
712,787	63,53
713,227	63,89
713,667	64,77
714,108	65,65
714,548	65,99
714,988	66,88
715,428	66,88
715,868	67,92
716,307	68,57
716,747	69,32
717,186	70,28
717,626	70,23
718,065	71,28
718,504	71,73
718,944	72,24
719,383	72,87
719,822	73,59
720,261	73,87
720,699	74,67
721,138	74,93
721,576	75,32
722,015	76,47
722,453	76,3
722,892	76,93
723,33	77,67
723,768	77,48
724,206	78,06
724,644	78,36
725,081	79,4
725,519	78,77
725,957	80,03
726,394	80,64
726,832	80,59
727,269	80,71
727,706	81,65
728,143	81,65
728,58	81,92
729,017	82,33
729,454	82,52
729,89	83,33
730,327	83,25
730,764	83,57
731,2	83,79
731,636	83,67
732,072	83,98
732,509	84,7
732,945	84,5
733,38	85,07
733,816	85,27
734,252	85,87
734,688	85,5
735,123	86,2
735,559	86,3
735,994	86,06
736,429	85,83
736,864	86,64
737,299	86,23
737,734	86,14
738,169	86,6
738,604	87,19
739,038	87,29
739,473	87,01
739,907	87,03
740,342	86,96
740,776	87,33
741,21	87,76
741,644	87,53
742,078	87,88
742,512	87,96
742,946	88,3
743,379	88,2
743,813	88,37
744,246	88,27
744,68	88,71
745,113	88,73
745,546	88,45
745,979	88,68
746,412	88,68
746,845	88,57
747,278	88,86
747,711	88,47
748,143	88,53
748,576	88,85
749,008	89,08
749,441	88,72
749,873	88,85
750,305	88,67
750,737	88,93
751,169	88,57
751,601	88,62
752,032	89,04
752,464	88,86
752,896	88,38
753,327	88,66
753,758	88,44
754,19	88,88
754,621	89,1
755,052	88,97
755,483	88,8
755,914	89,09
756,344	88,85
756,775	88,3
757,206	88,62
757,636	88,7
758,066	88,95
758,497	88,39
758,927	88,81
759,357	88,94
759,787	88,74
760,217	88,55
760,647	88,25
761,076	89,02
761,506	88,48
761,935	88,82
762,365	88,42
762,794	88,69
763,223	88,08
763,653	88,52
764,082	88,28
764,51	88,25
764,939	88,22
765,368	88,9
765,797	88,24
766,225	88,06
766,654	88,19
767,082	87,87
767,51	88,46
767,938	88,18
768,367	88,38
768,795	88,14
769,222	87,94
769,65	88,42
770,078	88,13
770,505	88,15
770,933	88,24
771,36	88,51
771,788	87,92
772,215	87,96
772,642	88,41
773,069	88,33
773,496	88,34
773,923	87,94
774,349	88,52
774,776	88,45
775,203	87,69
775,629	88,14
776,055	88,07
776,482	88
776,908	87,43
777,334	87,77
777,76	87,99
778,186	87,87
778,611	88,04
779,037	87,74
779,463	87,99
779,888	87,94
780,314	88,06
780,739	88,5
781,164	87,89
781,589	87,6
782,014	88,01
782,439	87,73
782,864	87,94
783,289	88,08
783,713	87,81
784,138	87,65
784,562	88,37
784,987	87,58
785,411	88,21
785,835	87,71
786,259	87,42
786,683	87,85
787,107	87,74
787,531	87,62
787,954	88,23
788,378	87,48
788,802	87,91
789,225	88
789,648	88,22
790,071	88,1
790,495	87,98
790,918	87,78
791,34	87,83
791,763	87,96
792,186	88,02
792,609	87,55
793,031	87,83
793,454	87,82
793,876	87,91
794,298	87,74
794,721	87,55
795,143	87,62
795,565	88
795,986	88,17
796,408	87,54
796,83	87,79
797,252	88,17
797,673	87,36
798,094	88,03
798,516	87,83
798,937	87,36
799,358	87,89
799,779	87,67
800,2	87,98
800,621	87,62
801,042	87,92
801,462	87,81
801,883	87,85
802,303	87,46
802,724	87,13
803,144	87,6
803,564	87,52
803,984	87,7
804,404	88,5
804,824	87,62
805,244	87,92
805,664	88,1
806,084	87,23
806,503	87,92
806,923	88,09
807,342	87,77
807,761	88,28
808,18	87,98
808,599	87,44
809,018	87,52
809,437	87,51
809,856	88,01
810,275	88,13
810,693	87,57
811,112	87,44
811,53	86,99
811,949	87,67
812,367	87,51
812,785	87,45
813,203	87,77
813,621	87,61
814,039	87,3
814,457	87,88
814,874	87,55
815,292	87,3
815,709	87,91
816,127	87,72
816,544	88,09
816,961	87,42
817,378	88,13
817,795	87,62
818,212	87,51
818,629	87,86
819,046	87,93
819,462	87,3
819,879	87,96
820,295	88,15
820,712	87,81
821,128	87,75
821,544	87,62
821,96	87,69
822,376	87,47
822,792	87,43
823,208	87,51
823,624	87,38
824,039	87,74
824,455	87,41
824,87	88,2
825,286	87,93
825,701	87,38
826,116	87,46
826,531	87,42
826,946	86,96
827,361	87,52
827,776	87,25
828,19	87,48
828,605	87,48
829,02	88,33
829,434	87,61
829,848	87,63
830,263	87,28
830,677	87,73
831,091	87,24
831,505	87,44
831,919	87,25
832,332	87,38
832,746	87,48
833,16	87,44
833,573	87,44
833,987	87,43
