Data from A_6_0_Relative__7__00017.txt Node

Date: Mon Jan 29 12:46:25 CET 2024
User: diatiterra
Spectrometer: HDX00911
Trigger mode: 0
Integration Time (sec): 6,000000E-3
Scans to average: 4
Nonlinearity correction enabled: false
Boxcar width: 0
Storing dark spectrum: false
XAxis mode: Wavelengths
Number of Pixels in Spectrum: 2068
>>>>>Begin Spectral Data<<<<<
194,468	83,56
195,025	98,59
195,581	84,85
196,138	94,83
196,694	85,52
197,251	81,82
197,807	76,22
198,363	66,67
198,919	71,02
199,474	75,8
200,03	61,75
200,586	70,91
201,141	56,03
201,696	61,47
202,251	60,59
202,806	64,65
203,361	68,49
203,916	54,27
204,471	63,05
205,025	69,53
205,58	65,05
206,134	54,95
206,688	53,85
207,242	55,04
207,796	63,44
208,35	67,73
208,904	67,31
209,457	69,65
210,011	68,49
210,564	75,65
211,117	65,12
211,67	72,61
212,223	78,41
212,776	72,65
213,329	72,83
213,881	56,42
214,434	73,25
214,986	69,36
215,538	68,03
216,09	76,88
216,642	60,43
217,194	67,48
217,746	80,75
218,297	71,43
218,849	74,27
219,4	70,95
219,951	84
220,502	71,88
221,053	71,43
221,604	72,22
222,155	76,58
222,705	75,53
223,256	81,82
223,806	97,26
224,356	68,85
224,906	61,9
225,456	72,37
226,006	56,73
226,556	77,98
227,106	69,2
227,655	78,6
228,204	69,44
228,754	69,8
229,303	73,68
229,852	74,19
230,401	71,17
230,949	75,22
231,498	66,95
232,047	78,01
232,595	69,65
233,143	63,52
233,691	71,26
234,239	52,79
234,787	71,82
235,335	76,54
235,883	72,2
236,43	65,74
236,978	76,17
237,525	68,78
238,072	80,09
238,619	72,89
239,166	71,67
239,713	72,52
240,26	76,47
240,806	62,15
241,353	68,4
241,899	72,65
242,445	65,43
242,991	77,23
243,537	70,54
244,083	78,06
244,629	65,68
245,174	86,36
245,72	66,81
246,265	66,52
246,81	63,26
247,355	65,04
247,9	73,22
248,445	73,66
248,99	75
249,534	58,37
250,079	81,07
250,623	75,13
251,168	56,31
251,712	66,4
252,256	80
252,8	62,17
253,343	61,58
253,887	71,86
254,43	67,63
254,974	67,53
255,517	68,05
256,06	67,56
256,603	66,67
257,146	74,09
257,689	53,88
258,232	63,32
258,774	72,97
259,317	60,7
259,859	66,21
260,401	64,73
260,943	70,65
261,485	66,99
262,027	52,97
262,569	59,09
263,11	67,52
263,652	63,73
264,193	65,04
264,734	64,36
265,275	55,45
265,816	63,6
266,357	71,95
266,898	80,24
267,438	80,09
267,979	62,61
268,519	73,77
269,059	71,29
269,6	57,34
270,14	69,23
270,68	70,42
271,219	59,84
271,759	72,73
272,298	59,14
272,838	62,56
273,377	66,06
273,916	59,63
274,455	61,01
274,994	62,95
275,533	63,47
276,072	68,42
276,61	68,63
277,149	72,31
277,687	52
278,225	61,14
278,763	65,06
279,301	55,93
279,839	70,18
280,377	64,47
280,914	63,79
281,452	68,88
281,989	70,1
282,526	68,22
283,064	83,33
283,601	55,16
284,137	52,94
284,674	65,69
285,211	57,87
285,747	42,31
286,284	67,43
286,82	66,24
287,356	72,49
287,892	56,5
288,428	61,37
288,964	64,16
289,5	61,79
290,035	58,14
290,571	63,46
291,106	71,11
291,641	72,95
292,176	62,68
292,711	56,84
293,246	57,6
293,781	68,08
294,315	60,21
294,85	72,64
295,384	69,09
295,918	64,9
296,453	70,65
296,987	54,84
297,52	65,71
298,054	66,99
298,588	69,26
299,121	70,15
299,655	59,31
300,188	79,35
300,721	65,56
301,254	57,69
301,787	66,36
302,32	67,31
302,853	68,63
303,385	63,98
303,918	70,35
304,45	59,42
304,982	71,17
305,514	63,49
306,046	62,96
306,578	58,96
307,11	66,67
307,641	58,67
308,173	63,87
308,704	57,96
309,236	61,17
309,767	53,85
310,298	61,95
310,829	63,91
311,359	49,79
311,89	76,72
312,421	67,91
312,951	67,14
313,481	65,09
314,012	60,91
314,542	71,43
315,072	58,92
315,601	64,22
316,131	64,85
316,661	45,91
317,19	67
317,72	64,77
318,249	56,22
318,778	63,77
319,307	67,63
319,836	62,78
320,365	74,04
320,893	79,35
321,422	58,26
321,95	59
322,479	58,33
323,007	68,24
323,535	67,68
324,063	55,5
324,591	66,98
325,118	62,61
325,646	67,71
326,173	63,64
326,701	71,81
327,228	62,16
327,755	61,39
328,282	75,41
328,809	69,46
329,336	58,03
329,862	63,21
330,389	54,46
330,915	60,7
331,441	73,33
331,968	63,93
332,494	64,45
333,02	51,19
333,545	77,53
334,071	59,43
334,597	54,11
335,122	69,68
335,648	65,08
336,173	48,17
336,698	62,78
337,223	69,84
337,748	65,24
338,272	67,37
338,797	50,5
339,322	54,55
339,846	55,44
340,37	65,54
340,894	48,6
341,419	58,33
341,942	60,96
342,466	52,05
342,99	57,76
343,514	59
344,037	79,08
344,56	54,63
345,084	51,81
345,607	55,69
346,13	45,6
346,653	56,15
347,175	52,31
347,698	56,85
348,221	53,54
348,743	40,75
349,265	53,76
349,787	60,98
350,309	49,83
350,831	52,01
351,353	59,5
351,875	65,69
352,397	52,88
352,918	51,84
353,439	53,91
353,961	53,1
354,482	45,91
355,003	53,36
355,524	47,56
356,044	53,74
356,565	56,6
357,086	51,93
357,606	55,71
358,126	49,85
358,646	53,1
359,167	50,46
359,687	46,46
360,206	49,68
360,726	52,56
361,246	52,2
361,765	52,35
362,285	46,59
362,804	43,21
363,323	53,15
363,842	51,39
364,361	48,31
364,88	49,3
365,398	52,79
365,917	46,33
366,435	44,05
366,954	48,54
367,472	46,98
367,99	51,38
368,508	43,2
369,026	47,12
369,544	44,9
370,061	49,1
370,579	49,88
371,096	47
371,613	46,24
372,131	41,93
372,648	43,17
373,165	44,24
373,681	47,84
374,198	47,6
374,715	41,15
375,231	49,55
375,747	45,59
376,264	46,52
376,78	42,02
377,296	41,92
377,812	38,7
378,327	45,42
378,843	44,44
379,359	41,48
379,874	42,2
380,389	36,92
380,905	45,97
381,42	43,06
381,935	39,33
382,449	31,61
382,964	41,13
383,479	36,06
383,993	38,41
384,508	39,19
385,022	39,44
385,536	36,29
386,05	35,84
386,564	31,89
387,078	34,86
387,592	35,52
388,105	32,43
388,619	35,14
389,132	32,81
389,645	33,5
390,158	31,69
390,671	35,13
391,184	35,17
391,697	34,98
392,21	31,77
392,722	30,68
393,235	30,56
393,747	28,15
394,259	33,7
394,771	29,51
395,283	28,12
395,795	30,67
396,307	30,34
396,818	29,75
397,33	30,61
397,841	31,97
398,353	30,54
398,864	27,02
399,375	30,13
399,886	27,43
400,397	26,74
400,907	26,83
401,418	24,44
401,928	24,85
402,439	23,68
402,949	24,58
403,459	23,45
403,969	23,22
404,479	22,09
404,989	20,78
405,498	21,57
406,008	19,8
406,517	21,24
407,027	20,23
407,536	19,9
408,045	20,6
408,554	18,56
409,063	16,46
409,572	19,1
410,08	17,2
410,589	16,91
411,097	14,91
411,606	15,64
412,114	16,32
412,622	14,82
413,13	14,19
413,638	12,33
414,145	15,07
414,653	12,94
415,16	12,93
415,668	12,43
416,175	13,27
416,682	12,43
417,189	11,62
417,696	11,55
418,203	11,81
418,71	10,35
419,216	10,64
419,723	11,18
420,229	11,28
420,735	9,99
421,242	10,44
421,748	10,3
422,254	11,29
422,759	10,62
423,265	9,71
423,771	10,05
424,276	10,47
424,781	9,95
425,287	10,56
425,792	9,11
426,297	9,53
426,802	10,11
427,306	9,85
427,811	9,73
428,316	9,81
428,82	9,58
429,324	9,6
429,829	10
430,333	9,67
430,837	9,13
431,34	9,54
431,844	8,35
432,348	9,13
432,851	9,74
433,355	9,13
433,858	9,39
434,361	9,23
434,864	8,66
435,367	9,54
435,87	8,9
436,373	8,55
436,876	9,36
437,378	8,82
437,88	9,84
438,383	9,03
438,885	9,34
439,387	9,53
439,889	9,02
440,391	8,78
440,892	9,23
441,394	8,63
441,896	8,68
442,397	9,07
442,898	9,16
443,399	9,05
443,9	9,17
444,401	9,01
444,902	9,77
445,403	9,17
445,903	9,2
446,404	9,02
446,904	9,22
447,405	9,49
447,905	9,31
448,405	8,71
448,905	9,37
449,404	9,62
449,904	9,33
450,404	9,72
450,903	9,23
451,403	8,81
451,902	9,71
452,401	9,8
452,9	9,44
453,399	9,44
453,898	10,08
454,396	10,17
454,895	9,78
455,393	10,61
455,892	9,91
456,39	9,75
456,888	10,07
457,386	9,69
457,884	10,16
458,382	10,11
458,879	9,91
459,377	10,12
459,874	10,42
460,372	10,27
460,869	10,62
461,366	10,21
461,863	10,01
462,36	9,53
462,857	10,03
463,353	10,28
463,85	9,74
464,346	9,91
464,843	10,39
465,339	9,67
465,835	10,08
466,331	10,68
466,827	10,07
467,323	10,04
467,818	10,22
468,314	9,95
468,809	10,52
469,305	9,59
469,8	9,9
470,295	9,97
470,79	9,91
471,285	9,67
471,78	9,68
472,274	9,62
472,769	10,29
473,263	10,08
473,758	10,24
474,252	10,31
474,746	10,16
475,24	9,85
475,734	10,6
476,228	10,36
476,721	10,04
477,215	10,39
477,708	10,4
478,202	10,1
478,695	10,27
479,188	10,26
479,681	10,18
480,174	10,51
480,667	10,4
481,159	10,22
481,652	10,48
482,144	10,1
482,637	10,6
483,129	10,68
483,621	10,85
484,113	10,38
484,605	10,64
485,097	10,7
485,588	10,68
486,08	10,62
486,571	10,61
487,063	10,99
487,554	11,02
488,045	10,5
488,536	10,93
489,027	10,99
489,518	11,06
490,008	10,87
490,499	11,18
490,989	10,88
491,48	11,19
491,97	11,3
492,46	10,95
492,95	11,86
493,44	11,35
493,93	11,52
494,419	11,4
494,909	11,83
495,398	12,15
495,888	11,97
496,377	12,24
496,866	11,79
497,355	12,33
497,844	12,94
498,333	12,99
498,821	13,59
499,31	13,39
499,798	13,33
500,287	13,72
500,775	14,11
501,263	13,79
501,751	14,12
502,239	14,33
502,727	15,01
503,215	14,76
503,702	15,35
504,19	15,51
504,677	15,56
505,164	15,81
505,651	16,46
506,139	16,6
506,625	17,24
507,112	17,02
507,599	17,54
508,086	17,68
508,572	18,33
509,058	18,34
509,545	19,15
510,031	19,48
510,517	19,66
511,003	20,1
511,489	20,49
511,974	20,66
512,46	21,27
512,946	21,61
513,431	21,85
513,916	22,49
514,401	23,44
514,887	23,8
515,371	24,16
515,856	25,05
516,341	24,67
516,826	25,39
517,31	25,82
517,795	26,14
518,279	27,14
518,763	27,6
519,247	27,7
519,731	28,57
520,215	29,54
520,699	29,76
521,182	30,3
521,666	30,92
522,149	30,92
522,633	31,02
523,116	32,2
523,599	32,79
524,082	33,08
524,565	33,54
525,048	34,38
525,53	34,73
526,013	34,69
526,495	35,42
526,978	35,48
527,46	36,12
527,942	36,46
528,424	36,64
528,906	37,21
529,388	37,76
529,87	37,69
530,351	38,19
530,833	38,41
531,314	38,93
531,795	39,04
532,277	39,29
532,758	39,02
533,238	39,51
533,719	39,69
534,2	39,93
534,681	40,96
535,161	40,11
535,642	41
536,122	40,86
536,602	41,2
537,082	41
537,562	40,54
538,042	41,07
538,522	40,83
539,001	40,97
539,481	41,23
539,96	41,97
540,44	42,08
540,919	41,87
541,398	42,05
541,877	41,63
542,356	41,85
542,835	41,78
543,313	42,3
543,792	42,39
544,27	42,65
544,749	41,96
545,227	42,44
545,705	42,78
546,183	42,65
546,661	42,51
547,139	42,31
547,616	42,9
548,094	42,85
548,571	42,87
549,049	42,79
549,526	42,92
550,003	43,4
550,48	42,83
550,957	43,51
551,434	43,09
551,911	43,73
552,387	43,49
552,864	42,92
553,34	43,02
553,817	43,11
554,293	43,21
554,769	42,93
555,245	43,08
555,721	42,65
556,197	43,3
556,672	43,08
557,148	42,66
557,623	43,14
558,099	42,79
558,574	42,71
559,049	42,59
559,524	42,71
559,999	42,41
560,474	42,28
560,948	42,26
561,423	41,68
561,897	42,05
562,372	41,92
562,846	41,75
563,32	41,63
563,794	41,74
564,268	41,22
564,742	41,09
565,216	40,95
565,69	40,31
566,163	40,6
566,636	40,84
567,11	39,59
567,583	39,95
568,056	38,94
568,529	39,39
569,002	38,66
569,475	38,81
569,947	38,53
570,42	38,02
570,892	38,26
571,365	37,84
571,837	37,31
572,309	37,3
572,781	36,93
573,253	36,64
573,725	36,7
574,197	35,84
574,668	36,1
575,14	35,6
575,611	35,16
576,082	35,28
576,554	34,53
577,025	34,88
577,496	34,75
577,967	34,07
578,437	33,98
578,908	33,98
579,379	33,55
579,849	33,3
580,319	33,46
580,79	33,02
581,26	32,37
581,73	32,22
582,2	32,38
582,669	32,21
583,139	31,94
583,609	31,94
584,078	31,74
584,548	31,65
585,017	31,21
585,486	31,03
585,955	30,99
586,424	31,15
586,893	30,7
587,362	30,8
587,83	30,82
588,299	30,5
588,767	30,51
589,236	30,46
589,704	30,48
590,172	29,99
590,64	30,31
591,108	30,02
591,576	29,2
592,043	29,22
592,511	29,52
592,978	29,37
593,446	28,87
593,913	29,03
594,38	28,83
594,847	29,17
595,314	28,96
595,781	28,75
596,248	28,75
596,715	28,56
597,181	28,92
597,647	28,65
598,114	28,84
598,58	28,72
599,046	28,17
599,512	28,44
599,978	28,36
600,444	28,13
600,91	28,22
601,375	28,09
601,841	28,17
602,306	27,85
602,771	28,03
603,236	27,88
603,702	27,51
604,167	27,81
604,631	27,33
605,096	27,52
605,561	27,1
606,025	27,24
606,49	27,13
606,954	26,9
607,418	26,58
607,882	26,43
608,347	26,76
608,81	26,51
609,274	26,63
609,738	26,16
610,202	26,18
610,665	25,88
611,128	25,98
611,592	25,87
612,055	25,47
612,518	25,34
612,981	25,27
613,444	25,1
613,907	24,6
614,369	24,95
614,832	24,66
615,294	24,55
615,757	24,37
616,219	24,14
616,681	23,96
617,143	24,12
617,605	23,78
618,067	23,78
618,529	23,6
618,99	23,57
619,452	23,39
619,913	23,02
620,375	23,12
620,836	23,17
621,297	22,83
621,758	22,97
622,219	22,88
622,68	22,43
623,14	22,51
623,601	22,46
624,061	22,59
624,522	22,51
624,982	22,33
625,442	22,08
625,902	22,12
626,362	22,38
626,822	22,19
627,282	22,2
627,742	22,34
628,201	22,16
628,661	21,98
629,12	21,86
629,579	21,77
630,038	22,06
630,497	22,3
630,956	21,93
631,415	21,89
631,874	21,85
632,332	21,87
632,791	21,93
633,249	21,52
633,708	21,81
634,166	21,48
634,624	21,39
635,082	21,31
635,54	21,3
635,998	20,94
636,455	21,06
636,913	20,63
637,37	20,6
637,828	20,5
638,285	20,24
638,742	19,88
639,199	19,87
639,656	19,73
640,113	19,53
640,57	19,47
641,027	19,25
641,483	18,63
641,94	18,6
642,396	18,52
642,852	18,38
643,309	18,01
643,765	17,99
644,221	17,59
644,676	17,48
645,132	17,12
645,588	16,99
646,043	16,9
646,499	16,6
646,954	16,48
647,409	16,3
647,864	16,05
648,319	15,98
648,774	15,57
649,229	15,57
649,684	15,39
650,139	15,44
650,593	15,29
651,047	15,21
651,502	15,18
651,956	14,88
652,41	14,79
652,864	14,93
653,318	14,79
653,772	14,66
654,225	14,55
654,679	14,6
655,133	14,36
655,586	14,35
656,039	14,35
656,492	14,32
656,946	14,2
657,399	13,88
657,851	13,89
658,304	13,53
658,757	13,59
659,209	13,45
659,662	13,25
660,114	13,28
660,567	13,07
661,019	12,83
661,471	12,99
661,923	12,66
662,375	12,49
662,826	12,37
663,278	12,36
663,73	12,01
664,181	11,99
664,632	11,79
665,084	11,78
665,535	11,5
665,986	11,62
666,437	11,54
666,888	11,45
667,338	11,21
667,789	11,33
668,24	11,21
668,69	11,28
669,14	11,33
669,591	11,08
670,041	10,99
670,491	11,14
670,941	11,32
671,391	11,18
671,84	11,23
672,29	11,22
672,74	11,29
673,189	11,4
673,638	11,54
674,088	11,68
674,537	11,69
674,986	11,76
675,435	11,79
675,883	11,86
676,332	11,96
676,781	12,23
677,229	12,23
677,678	12,33
678,126	12,58
678,574	12,74
679,022	12,87
679,47	12,84
679,918	13,21
680,366	13,16
680,814	13,64
681,261	13,58
681,709	13,9
682,156	14,14
682,604	14,16
683,051	14,52
683,498	14,77
683,945	14,75
684,392	15,47
684,839	15,52
685,286	15,61
685,732	16,03
686,179	16,31
686,625	16,65
687,071	16,93
687,518	17,24
687,964	17,84
688,41	18,41
688,856	18,85
689,301	19,26
689,747	20,1
690,193	20,55
690,638	21,05
691,084	21,88
691,529	22,71
691,974	23,17
692,419	24,31
692,864	24,99
693,309	25,79
693,754	26,85
694,199	27,64
694,643	28,9
695,088	29,48
695,532	30,59
695,977	31,39
696,421	32,29
696,865	33,19
697,309	34,08
697,753	35,14
698,197	36,04
698,64	36,97
699,084	37,58
699,527	38,83
699,971	39,29
700,414	40,61
700,857	41,47
701,3	42,32
701,743	43,17
702,186	44,02
702,629	44,26
703,072	45,51
703,515	46,16
703,957	46,76
704,399	48,35
704,842	48,32
705,284	49,2
705,726	49,97
706,168	50,64
706,61	51,31
707,052	52,03
707,494	52,95
707,935	53,06
708,377	53,74
708,818	54,83
709,26	55,48
709,701	56,05
710,142	56,94
710,583	56,82
711,024	57,73
711,465	58,03
711,905	59,01
712,346	59,07
712,787	60,04
713,227	60,33
713,667	60,93
714,108	61,85
714,548	62,11
714,988	62,68
715,428	63,15
715,868	63,64
716,307	64,21
716,747	64,2
717,186	64,88
717,626	65,16
718,065	66,09
718,504	66,11
718,944	66,66
719,383	67,05
719,822	67,47
720,261	68,1
720,699	68,48
721,138	68,96
721,576	69,3
722,015	69,91
722,453	69,89
722,892	70,08
723,33	70,51
723,768	70,65
724,206	71,44
724,644	71,53
725,081	72,26
725,519	71,84
725,957	72,61
726,394	72,86
726,832	73,01
727,269	73,38
727,706	73,77
728,143	73,68
728,58	74,27
729,017	74,55
729,454	74,46
729,89	74,53
730,327	74,99
730,764	75,6
731,2	75,39
731,636	74,78
732,072	75,25
732,509	75,82
732,945	76,31
733,38	76,4
733,816	76,45
734,252	76,9
734,688	76,92
735,123	77,03
735,559	76,83
735,994	76,84
736,429	76,72
736,864	77,53
737,299	77,12
737,734	76,83
738,169	77,35
738,604	77,63
739,038	77,99
739,473	77,29
739,907	77,8
740,342	77,84
740,776	77,89
741,21	78,18
741,644	78,16
742,078	77,99
742,512	78,12
742,946	78,2
743,379	78,08
743,813	78,68
744,246	78,33
744,68	78,65
745,113	78,55
745,546	78,45
745,979	78,64
746,412	78,48
746,845	78,72
747,278	78,33
747,711	78
748,143	78,07
748,576	78,53
749,008	79,14
749,441	78,28
749,873	78,66
750,305	78,5
750,737	78,3
751,169	78,53
751,601	77,72
752,032	78,42
752,464	78,33
752,896	78
753,327	78,21
753,758	78,18
754,19	78,25
754,621	78,62
755,052	78,33
755,483	78,65
755,914	78,38
756,344	78,24
756,775	78,13
757,206	77,62
757,636	78,41
758,066	78,16
758,497	78,23
758,927	78,18
759,357	78,29
759,787	78,14
760,217	77,97
760,647	77,63
761,076	78,51
761,506	77,81
761,935	78,45
762,365	77,7
762,794	77,98
763,223	77,65
763,653	77,73
764,082	77,45
764,51	77,57
764,939	77,6
765,368	78,22
765,797	77,85
766,225	77,47
766,654	77,65
767,082	77,2
767,51	77,51
767,938	77,74
768,367	77,56
768,795	77,82
769,222	77,2
769,65	77,78
770,078	77,41
770,505	77,59
770,933	77,09
771,36	77,19
771,788	77,09
772,215	77,09
772,642	77,55
773,069	77,27
773,496	77,77
773,923	77,16
774,349	77,26
774,776	77,74
775,203	76,89
775,629	77,25
776,055	77,23
776,482	77,23
776,908	76,95
777,334	77,01
777,76	77,48
778,186	77,2
778,611	77,07
779,037	77,25
779,463	77,05
779,888	76,99
780,314	76,99
780,739	77,36
781,164	76,73
781,589	76,45
782,014	77,07
782,439	77,27
782,864	77,03
783,289	77,14
783,713	76,53
784,138	76,81
784,562	77,54
784,987	76,78
785,411	76,85
785,835	77,03
786,259	76,62
786,683	76,8
787,107	77,07
787,531	76,79
787,954	77,25
788,378	76,75
788,802	77,06
789,225	77,01
789,648	77,34
790,071	76,91
790,495	77,04
790,918	77,02
791,34	76,76
791,763	77,05
792,186	77,23
792,609	76,72
793,031	76,97
793,454	76,89
793,876	76,85
794,298	76,92
794,721	76,98
795,143	76,8
795,565	76,72
795,986	76,91
796,408	76,4
796,83	77,29
797,252	76,95
797,673	76,87
798,094	76,73
798,516	77,06
798,937	76,92
799,358	76,99
799,779	76,39
800,2	76,85
800,621	76,67
801,042	77,12
801,462	76,81
801,883	76,98
802,303	76,57
802,724	76,53
803,144	76,75
803,564	76,8
803,984	77,12
804,404	77,18
804,824	76,69
805,244	77,41
805,664	77,38
806,084	76,83
806,503	76,44
806,923	76,63
807,342	76,57
807,761	77,16
808,18	76,96
808,599	76,48
809,018	76,57
809,437	76,75
809,856	77,22
810,275	77,18
810,693	76,62
811,112	76,24
811,53	76,74
811,949	76,51
812,367	76,53
812,785	76,74
813,203	76,34
813,621	76,93
814,039	76,3
814,457	76,95
814,874	76,72
815,292	76,36
815,709	76,76
816,127	76,79
816,544	76,95
816,961	76,03
817,378	76,93
817,795	76,93
818,212	76,9
818,629	76,95
819,046	77,04
819,462	76,87
819,879	76,99
820,295	76,8
820,712	76,66
821,128	76,39
821,544	76,52
821,96	77,23
822,376	76,76
822,792	76,55
823,208	76,39
823,624	76,3
824,039	76,28
824,455	76,74
824,87	76,67
825,286	77,39
825,701	76,44
826,116	77,05
826,531	76,98
826,946	76,2
827,361	76,61
827,776	76,46
828,19	76,43
828,605	76,49
829,02	76,94
829,434	76,37
829,848	76,64
830,263	76,34
830,677	76,58
831,091	76,29
831,505	76,33
831,919	76,5
832,332	76,11
832,746	76,86
833,16	76,62
833,573	76,66
833,987	76,54
834,4	76,3
834,813	76,69
835,226	75,95
835,639	76,61
836,052	76,47
