Data from A_6_0_Relative__1__00011.txt Node

Date: Mon Jan 29 12:45:36 CET 2024
User: diatiterra
Spectrometer: HDX00911
Trigger mode: 0
Integration Time (sec): 6,000000E-3
Scans to average: 4
Nonlinearity correction enabled: false
Boxcar width: 0
Storing dark spectrum: false
XAxis mode: Wavelengths
Number of Pixels in Spectrum: 2068
>>>>>Begin Spectral Data<<<<<
194,468	80,82
195,025	102,82
195,581	93,94
196,138	113,79
196,694	96,55
197,251	81,28
197,807	105,95
198,363	88,41
198,919	73,47
199,474	76,26
200,03	74,19
200,586	84,55
201,141	73,71
201,696	78,79
202,251	90,15
202,806	73,95
203,361	76,71
203,916	75,21
204,471	82,76
205,025	75,97
205,58	85,44
206,134	81,53
206,688	72,65
207,242	70,17
207,796	92,51
208,35	88,18
208,904	73,85
209,457	75,49
210,011	84,02
210,564	80
211,117	67,05
211,67	86,72
212,223	74,45
212,776	86,75
213,329	76,77
213,881	78,21
214,434	85,96
214,986	71,49
215,538	70,49
216,09	90,95
216,642	72,17
217,194	70,33
217,746	78,66
218,297	78,12
218,849	62,66
219,4	84,23
219,951	84
220,502	83,04
221,053	81,09
221,604	79,06
222,155	75,68
222,705	65,82
223,256	73,59
223,806	79,45
224,356	75,41
224,906	63,37
225,456	88,16
226,006	72,24
226,556	85,32
227,106	75,53
227,655	86,03
228,204	76,85
228,754	75,51
229,303	84,21
229,852	73,39
230,401	86,04
230,949	92,17
231,498	73,64
232,047	75,1
232,595	69,65
233,143	76,39
233,691	75,71
234,239	81,97
234,787	75,45
235,335	81,07
235,883	79,82
236,43	74,54
236,978	68,22
237,525	81,46
238,072	87,17
238,619	88,89
239,166	87,98
239,713	81,98
240,26	81,18
240,806	85,66
241,353	78,77
241,899	68,16
242,445	75,72
242,991	72,32
243,537	76,79
244,083	74,68
244,629	67,9
245,174	89,2
245,72	91,49
246,265	76,09
246,81	97,21
247,355	78,46
247,9	83,68
248,445	82,26
248,99	77,5
249,534	73,47
250,079	88,35
250,623	87,82
251,168	80,63
251,712	68,8
252,256	87,32
252,8	76,09
253,343	75,37
253,887	76,19
254,43	82,13
254,974	79,38
255,517	86,72
256,06	89,33
256,603	72,14
257,146	99,48
257,689	71,32
258,232	80,79
258,774	78,38
259,317	78,6
259,859	77,63
260,401	74,11
260,943	97,83
261,485	87,86
262,027	89,6
262,569	84,34
263,11	89,74
263,652	77,45
264,193	79,27
264,734	80,69
265,275	94,55
265,816	82,46
266,357	76,92
266,898	91,62
267,438	87,2
267,979	81,3
268,519	76,23
269,059	80,38
269,6	82,11
270,14	66,83
270,68	80
271,219	72,83
271,759	81,82
272,298	92,47
272,838	84,83
273,377	85,52
273,916	86,24
274,455	66,06
274,994	80,36
275,533	82,65
276,072	85,96
276,61	80,88
277,149	75,38
277,687	78,22
278,225	85,31
278,763	64,66
279,301	66,95
279,839	76,32
280,377	76,65
280,914	75
281,452	81,63
281,989	84,8
282,526	85,51
283,064	90,69
283,601	70,4
284,137	75,57
284,674	91,18
285,211	78,3
285,747	64,53
286,284	75,69
286,82	68,8
287,356	72,93
287,892	73
288,428	70,39
288,964	80,97
289,5	75
290,035	85,58
290,571	72,6
291,106	75
291,641	85,99
292,176	79,9
292,711	82,91
293,246	60
293,781	72,3
294,315	71,73
294,85	83,58
295,384	78,18
295,918	71,15
296,453	96,02
296,987	44,76
297,52	80
298,054	85,92
298,588	74,03
299,121	87,06
299,655	78,43
300,188	84,24
300,721	81,33
301,254	78,37
301,787	77,27
302,32	85,1
302,853	73,53
303,385	72,46
303,918	75,88
304,45	76,81
304,982	71,62
305,514	73,54
306,046	67,9
306,578	66,51
307,11	71,01
307,641	65,33
308,173	73,53
308,704	76,11
309,236	73,79
309,767	69,23
310,298	77,88
310,829	70
311,359	68,09
311,89	81,48
312,421	81,82
312,951	85,92
313,481	65,57
314,012	75
314,542	78,31
315,072	82,16
315,601	82,11
316,131	82,67
316,661	71,36
317,19	84,73
317,72	66,32
318,249	72,35
318,778	76,81
319,307	63,29
319,836	65,92
320,365	59,13
320,893	83,15
321,422	64,68
321,95	56,9
322,479	68,42
323,007	79,41
323,535	89,39
324,063	75,69
324,591	71,23
325,118	79,57
325,646	61,43
326,173	69,38
326,701	75,33
327,228	71,17
327,755	58,91
328,282	75,41
328,809	91,13
329,336	69,43
329,862	76,42
330,389	64,29
330,915	72,93
331,441	87,69
331,968	77,05
332,494	70,14
333,02	60,32
333,545	72,69
334,071	66,51
334,597	72,46
335,122	69,68
335,648	86,77
336,173	68,81
336,698	62,78
337,223	84,66
337,748	70,39
338,272	79,47
338,797	55
339,322	56,71
339,846	69,43
340,37	71,75
340,894	57,01
341,419	66,67
341,942	78,51
342,466	77,87
342,99	74,14
343,514	67,36
344,037	67,35
344,56	68,98
345,084	60,51
345,607	70,33
346,13	59,6
346,653	65,38
347,175	71,15
347,698	60,89
348,221	68,9
348,743	65,28
349,265	67,29
349,787	67,89
350,309	63,57
350,831	70,33
351,353	78,49
351,875	74,06
352,397	72,66
352,918	61,4
353,439	75,39
353,961	69,66
354,482	64,77
355,003	65,67
355,524	76,55
356,044	73,81
356,565	65,62
357,086	71,23
357,606	66,09
358,126	68,11
358,646	72,41
359,167	63,61
359,687	61,23
360,206	62,26
360,726	69,23
361,246	60,12
361,765	69,46
362,285	60,53
362,804	59,78
363,323	66,67
363,842	65
364,361	65,54
364,88	62,46
365,398	73,31
365,917	61,29
366,435	63,39
366,954	67,11
367,472	60,37
367,99	60,77
368,508	67,46
369,026	55,14
369,544	58,93
370,061	63,24
370,579	52,54
371,096	65,54
371,613	57,98
372,131	62,89
372,648	62,2
373,165	57,18
373,681	63,33
374,198	60,18
374,715	59,77
375,231	62,22
375,747	46,7
376,264	56,4
376,78	64,27
377,296	53,99
377,812	60,29
378,327	61,83
378,843	56,11
379,359	51,11
379,874	56,84
380,389	58,44
380,905	51,28
381,42	50,97
381,935	54,85
382,449	53,18
382,964	53,07
383,479	48,88
383,993	48,62
384,508	46,97
385,022	51,55
385,536	48,39
386,05	45,52
386,564	48,58
387,078	45,83
387,592	50,13
388,105	46,87
388,619	47,03
389,132	45,44
389,645	44,04
390,158	41,79
390,671	46,14
391,184	43,73
391,697	41,46
392,21	48,21
392,722	41,77
393,235	41,24
393,747	40,09
394,259	41,52
394,771	39,38
395,283	38,04
395,795	41,37
396,307	36,95
396,818	40,3
397,33	35,27
397,841	37,67
398,353	36,9
398,864	36,82
399,375	36,41
399,886	34,58
400,397	31,49
400,907	33,97
401,418	33,23
401,928	31,18
402,439	30,23
402,949	32,48
403,459	30,59
403,969	29,85
404,479	29,76
404,989	30,4
405,498	28,59
406,008	28,62
406,517	28,1
407,027	24,65
407,536	27,03
408,045	26,23
408,554	24,86
409,063	21,49
409,572	22,67
410,08	21,8
410,589	22,57
411,097	19,62
411,606	20,57
412,114	20,42
412,622	20,56
413,13	18,45
413,638	18,13
414,145	18,94
414,653	16,97
415,16	16,9
415,668	17,51
416,175	17,07
416,682	16,26
417,189	16,27
417,696	14,72
418,203	15,02
418,71	15,37
419,216	14,97
419,723	15,3
420,229	14,75
420,735	14,33
421,242	14,27
421,748	14,7
422,254	15,47
422,759	14,27
423,265	13,12
423,771	14,47
424,276	13,14
424,781	13,57
425,287	14,37
425,792	13,09
426,297	12,74
426,802	13,16
427,306	13,64
427,811	13,3
428,316	13,32
428,82	12,89
429,324	13,79
429,829	13,3
430,333	12,73
430,837	12,76
431,34	13,12
431,844	12,52
432,348	13,14
432,851	13,41
433,355	12,69
433,858	12,66
434,361	13,05
434,864	13
435,367	12,1
435,87	12,47
436,373	12,27
436,876	12,67
437,378	11,85
437,88	12,02
438,383	12,13
438,885	12,58
439,387	12,46
439,889	12,63
440,391	12,52
440,892	12,5
441,394	12,41
441,896	11,95
442,397	11,82
442,898	12,27
443,399	12,16
443,9	12,27
444,401	12,29
444,902	11,96
445,403	12,46
445,903	12,79
446,404	12,26
446,904	12,32
447,405	12,13
447,905	12,19
448,405	12,75
448,905	12,5
449,404	12,72
449,904	12,23
450,404	12,88
450,903	11,95
451,403	12,31
451,902	12,78
452,401	12,68
452,9	12,6
453,399	12,42
453,898	13,12
454,396	12,42
454,895	13,34
455,393	12,95
455,892	12,56
456,39	12,74
456,888	12,55
457,386	12,7
457,884	12,66
458,382	12,9
458,879	12,82
459,377	12,8
459,874	12,69
460,372	13,04
460,869	12,95
461,366	12,65
461,863	13,31
462,36	12,64
462,857	12,88
463,353	12,72
463,85	12,78
464,346	12,55
464,843	12,91
465,339	12,9
465,835	12,48
466,331	13,2
466,827	12,49
467,323	12,66
467,818	12,78
468,314	12,57
468,809	12,65
469,305	13,16
469,8	12,39
470,295	13,01
470,79	13,16
471,285	12,77
471,78	12,99
472,274	12,23
472,769	13,14
473,263	13,02
473,758	12,76
474,252	13,14
474,746	12,76
475,24	12,23
475,734	12,85
476,228	13,23
476,721	12,58
477,215	12,97
477,708	13,04
478,202	12,92
478,695	13,45
479,188	12,96
479,681	12,63
480,174	13,1
480,667	13,31
481,159	12,84
481,652	12,82
482,144	12,94
482,637	13,23
483,129	13,06
483,621	13,13
484,113	13,03
484,605	12,93
485,097	13,26
485,588	12,67
486,08	12,96
486,571	13,12
487,063	13,09
487,554	13,25
488,045	12,96
488,536	13,79
489,027	13,29
489,518	13,91
490,008	13,41
490,499	13,63
490,989	13,68
491,48	13,38
491,97	13,62
492,46	13,5
492,95	13,78
493,44	14,19
493,93	13,59
494,419	14,11
494,909	14,15
495,398	13,58
495,888	13,97
496,377	13,99
496,866	14,34
497,355	14,86
497,844	14,68
498,333	15
498,821	15,12
499,31	15,05
499,798	15,29
500,287	15,72
500,775	15,51
501,263	15,71
501,751	15,44
502,239	16,02
502,727	16,18
503,215	16,01
503,702	16,92
504,19	17,05
504,677	17,15
505,164	17,29
505,651	17,52
506,139	17,69
506,625	17,95
507,112	18,33
507,599	18,87
508,086	18,99
508,572	19,36
509,058	19,41
509,545	20,05
510,031	20,35
510,517	20,55
511,003	21,21
511,489	21,56
511,974	21,89
512,46	22,61
512,946	22,98
513,431	22,95
513,916	23,41
514,401	24,18
514,887	24,59
515,371	25,02
515,856	25,9
516,341	26,32
516,826	26,52
517,31	27,2
517,795	27,53
518,279	28,11
518,763	28,82
519,247	29,17
519,731	29,38
520,215	30,24
520,699	30,4
521,182	31,58
521,666	31,95
522,149	32,75
522,633	33
523,116	33,88
523,599	34,5
524,082	34,78
524,565	35,14
525,048	36,04
525,53	37,24
526,013	36,96
526,495	37,18
526,978	37,34
527,46	37,85
527,942	38,57
528,424	39,33
528,906	39,67
529,388	39,46
529,87	39,89
530,351	40,75
530,833	41,11
531,314	41,26
531,795	41,82
532,277	42,13
532,758	42,18
533,238	42,24
533,719	42,51
534,2	42,3
534,681	43,23
535,161	42,99
535,642	43,48
536,122	44,47
536,602	43,71
537,082	43,45
537,562	43,62
538,042	43,87
538,522	44,17
539,001	44,36
539,481	43,8
539,96	44,36
540,44	45,01
540,919	44,73
541,398	45,37
541,877	44,5
542,356	44,53
542,835	45,29
543,313	45,2
543,792	45,98
544,27	45,59
544,749	45,26
545,227	45,74
545,705	45,39
546,183	45,19
546,661	45,72
547,139	45,08
547,616	45,41
548,094	45,75
548,571	45,57
549,049	46,19
549,526	45,96
550,003	46,02
550,48	45,44
550,957	46,75
551,434	46,2
551,911	46,29
552,387	46,23
552,864	46,36
553,34	46,54
553,817	46,25
554,293	46,33
554,769	46,23
555,245	45,97
555,721	45,58
556,197	46,78
556,672	45,96
557,148	45,88
557,623	46,34
558,099	45,73
558,574	45,36
559,049	45,57
559,524	45,58
559,999	45,71
560,474	45
560,948	45,49
561,423	44,47
561,897	45,01
562,372	44,27
562,846	44,52
563,32	44,5
563,794	44,67
564,268	43,81
564,742	43,95
565,216	43,11
565,69	42,99
566,163	42,93
566,636	42,9
567,11	41,82
567,583	42,47
568,056	41,59
568,529	41,46
569,002	41,16
569,475	40,62
569,947	41,01
570,42	40,39
570,892	40,31
571,365	39,61
571,837	39,17
572,309	38,82
572,781	38,2
573,253	38,61
573,725	38,01
574,197	37,85
574,668	37,66
575,14	37,3
575,611	37,03
576,082	36,9
576,554	36,7
577,025	36,16
577,496	36,27
577,967	35,72
578,437	34,9
578,908	34,98
579,379	34,79
579,849	34,91
580,319	34,43
580,79	34,06
581,26	33,84
581,73	33,55
582,2	33,56
582,669	33,51
583,139	33,28
583,609	33,05
584,078	33,27
584,548	33,32
585,017	32,5
585,486	32,31
585,955	32,32
586,424	32,11
586,893	31,37
587,362	31,48
587,83	32,16
588,299	31,54
588,767	31,56
589,236	31,24
589,704	31,05
590,172	30,98
590,64	30,76
591,108	31,01
591,576	30,57
592,043	30,31
592,511	30,35
592,978	29,9
593,446	30,26
593,913	30,4
594,38	29,94
594,847	29,91
595,314	30
595,781	29,56
596,248	30,07
596,715	29,44
597,181	29,85
597,647	29,3
598,114	29,41
598,58	29,49
599,046	29,36
599,512	29,17
599,978	29,29
600,444	28,99
600,91	29,25
601,375	28,95
601,841	29,01
602,306	29,15
602,771	28,8
603,236	28,83
603,702	28,4
604,167	28,86
604,631	28,28
605,096	28,24
605,561	28,02
606,025	28,33
606,49	27,9
606,954	27,95
607,418	27,78
607,882	27,45
608,347	27,7
608,81	27,43
609,274	27,37
609,738	26,93
610,202	26,84
610,665	26,74
611,128	26,38
611,592	26,46
612,055	26,23
612,518	25,86
612,981	25,99
613,444	25,54
613,907	25,41
614,369	25,34
614,832	25,32
615,294	25,17
615,757	25
616,219	24,64
616,681	24,35
617,143	24,62
617,605	24,17
618,067	24,4
618,529	24,19
618,99	24,15
619,452	23,92
619,913	23,95
620,375	23,5
620,836	23,53
621,297	23,54
621,758	23,34
622,219	23,51
622,68	23,18
623,14	23,32
623,601	23,19
624,061	23,19
624,522	22,87
624,982	22,91
625,442	22,84
625,902	22,81
626,362	22,94
626,822	22,88
627,282	22,81
627,742	22,93
628,201	22,63
628,661	22,68
629,12	22,64
629,579	22,43
630,038	22,47
630,497	22,62
630,956	22,49
631,415	22,77
631,874	22,37
632,332	22,12
632,791	22,27
633,249	22,34
633,708	22,12
634,166	22,1
634,624	21,77
635,082	21,81
635,54	21,63
635,998	21,63
636,455	21,6
636,913	21,42
637,37	21,02
637,828	20,97
638,285	21,14
638,742	20,85
639,199	20,67
639,656	20,28
640,113	20,13
640,57	19,79
641,027	19,72
641,483	19,49
641,94	19,18
642,396	19,24
642,852	18,98
643,309	18,77
643,765	18,83
644,221	18,32
644,676	18,33
645,132	18,16
645,588	17,93
646,043	17,73
646,499	17,55
646,954	17,57
647,409	17,16
647,864	17,07
648,319	16,99
648,774	16,69
649,229	16,55
649,684	16,19
650,139	16,35
650,593	16,33
651,047	16,39
651,502	16,11
651,956	15,89
652,41	15,96
652,864	15,95
653,318	15,86
653,772	15,66
654,225	15,54
654,679	15,53
655,133	15,41
655,586	15,45
656,039	15,48
656,492	15,31
656,946	15,16
657,399	15,06
657,851	15,03
658,304	14,73
658,757	14,85
659,209	14,6
659,662	14,32
660,114	14,28
660,567	14,33
661,019	14,22
661,471	14,11
661,923	13,97
662,375	13,73
662,826	13,64
663,278	13,65
663,73	13,41
664,181	13,44
664,632	13,31
665,084	13,32
665,535	13,08
665,986	13,25
666,437	13,2
666,888	12,97
667,338	13,15
667,789	13,04
668,24	13,07
668,69	13,11
669,14	13
669,591	13,1
670,041	13,17
670,491	13,22
670,941	13,36
671,391	13,26
671,84	13,32
672,29	13,53
672,74	13,49
673,189	13,69
673,638	13,66
674,088	13,77
674,537	13,69
674,986	13,98
675,435	14,07
675,883	14,14
676,332	14,2
676,781	14,07
677,229	14,45
677,678	14,46
678,126	14,9
678,574	14,93
679,022	15,17
679,47	15,23
679,918	15,42
680,366	15,45
680,814	15,64
681,261	15,88
681,709	16,16
682,156	16,37
682,604	16,39
683,051	16,43
683,498	16,63
683,945	16,96
684,392	17,1
684,839	17,35
685,286	17,47
685,732	17,82
686,179	18,1
686,625	18,39
687,071	18,73
687,518	18,94
687,964	19,35
688,41	19,72
688,856	20,02
689,301	20,3
689,747	20,96
690,193	21,56
690,638	22,25
691,084	22,75
691,529	23,64
691,974	24,22
692,419	25,07
692,864	25,87
693,309	26,94
693,754	27,56
694,199	28,31
694,643	29,62
695,088	30,52
695,532	31,52
695,977	32,48
696,421	33,49
696,865	34,6
697,309	35,46
697,753	36,57
698,197	37,47
698,64	38,8
699,084	39,62
699,527	40,56
699,971	41,72
700,414	42,97
700,857	43,85
701,3	45,06
701,743	45,88
702,186	46,99
702,629	47,71
703,072	48,76
703,515	49,8
703,957	50,55
704,399	51,81
704,842	52,75
705,284	53,71
705,726	54,48
706,168	55,5
706,61	56,48
707,052	57,08
707,494	58,25
707,935	58,38
708,377	59,79
708,818	60,18
709,26	61,62
709,701	62,49
710,142	63,24
710,583	63,97
711,024	64,9
711,465	65,18
711,905	65,84
712,346	66,73
712,787	67,67
713,227	68,15
713,667	69,32
714,108	70,51
714,548	70,71
714,988	71,54
715,428	71,65
715,868	72,7
716,307	73,33
716,747	74,13
717,186	74,75
717,626	74,95
718,065	75,84
718,504	76,11
718,944	76,77
719,383	77,69
719,822	78,51
720,261	78,96
720,699	79,52
721,138	80,35
721,576	80,41
722,015	81,74
722,453	81,86
722,892	82,15
723,33	82,98
723,768	83,13
724,206	83,81
724,644	83,77
725,081	84,75
725,519	84,59
725,957	85,74
726,394	85,63
726,832	86,01
727,269	86,22
727,706	87,38
728,143	86,85
728,58	87,47
729,017	88,19
729,454	88,51
729,89	88,71
730,327	89,08
730,764	89,4
731,2	89,26
731,636	89,67
732,072	89,55
732,509	90,66
732,945	91,01
733,38	91,3
733,816	91,06
734,252	92,01
734,688	91,65
735,123	92,33
735,559	92,08
735,994	91,98
736,429	92,1
736,864	92,9
737,299	92,53
737,734	92,36
738,169	93,36
738,604	92,82
739,038	93,3
739,473	93,16
739,907	93,43
740,342	93,22
740,776	93,67
741,21	93,95
741,644	93,91
742,078	93,84
742,512	94,2
742,946	94,45
743,379	93,82
743,813	94,32
744,246	94,48
744,68	94,79
745,113	94,91
745,546	94,74
745,979	95,02
746,412	94,76
746,845	94,73
747,278	94,76
747,711	94,97
748,143	94,44
748,576	94,76
749,008	95,04
749,441	94,62
749,873	94,94
750,305	95,1
750,737	94,85
751,169	94,81
751,601	94,93
752,032	95,07
752,464	95,17
752,896	95,13
753,327	94,98
753,758	95
754,19	94,87
754,621	95,23
755,052	94,67
755,483	95,02
755,914	94,98
756,344	94,73
756,775	94,37
757,206	95,11
757,636	94,84
758,066	94,83
758,497	94,22
758,927	94,94
759,357	94,87
759,787	94,33
760,217	94,88
760,647	94,39
761,076	95,12
761,506	94,79
761,935	94,75
762,365	94,62
762,794	94,7
763,223	94,42
763,653	94,58
764,082	94,53
764,51	94,3
764,939	94,14
765,368	94,71
765,797	94,38
766,225	94,34
766,654	94,25
767,082	94,11
767,51	94,12
767,938	94,26
768,367	94,78
768,795	94,34
769,222	93,71
769,65	94,3
770,078	94
770,505	94,15
770,933	93,99
771,36	93,7
771,788	93,85
772,215	93,67
772,642	94,04
773,069	93,78
773,496	93,77
773,923	93,64
774,349	94,09
774,776	94,17
775,203	93,88
775,629	94,07
776,055	93,82
776,482	94,1
776,908	93,44
777,334	93,55
777,76	93,63
778,186	93,57
778,611	93,82
779,037	94,26
779,463	93,54
779,888	93,64
780,314	94,07
780,739	94,28
781,164	93,66
781,589	93,41
782,014	93,41
782,439	93,73
782,864	93,48
783,289	93,89
783,713	93,32
784,138	93,43
784,562	94,26
784,987	93,18
785,411	93,55
785,835	93,08
786,259	93,21
786,683	93,26
787,107	93,7
787,531	93,71
787,954	94,21
788,378	93,39
788,802	93,45
789,225	93,94
789,648	93,87
790,071	93,63
790,495	93,91
790,918	92,94
791,34	93,2
791,763	94,34
792,186	93,25
792,609	93,23
793,031	93,95
793,454	93,32
793,876	93,55
794,298	93,13
794,721	93,52
795,143	93,42
795,565	93,21
795,986	93,36
796,408	93,55
796,83	93,54
797,252	93,71
797,673	93,39
798,094	93,45
798,516	93,15
798,937	93,22
799,358	93,08
799,779	93,08
800,2	93,03
800,621	93,03
801,042	94,03
801,462	93,15
801,883	93,72
802,303	93,23
802,724	92,96
803,144	93,21
803,564	93,59
803,984	93,55
804,404	94,02
804,824	93,03
805,244	93,55
805,664	93,68
806,084	93,37
806,503	93,19
806,923	93,49
807,342	93,08
807,761	93,8
808,18	93,42
808,599	93,34
809,018	92,54
809,437	93,37
809,856	93,23
810,275	93,51
810,693	93,59
811,112	93,1
811,53	93,43
811,949	93,17
812,367	93,44
812,785	92,69
813,203	92,98
813,621	93,11
814,039	93,26
814,457	93,06
814,874	93,26
815,292	93,26
815,709	93,62
816,127	93,04
816,544	93,73
816,961	92,87
817,378	93,27
817,795	94,12
818,212	93,37
818,629	93,18
819,046	92,9
819,462	93,09
819,879	93,25
820,295	93,5
820,712	93,18
821,128	93,52
821,544	93,01
821,96	93,22
822,376	93,51
822,792	93,08
823,208	92,5
823,624	92,91
824,039	93,01
824,455	92,93
824,87	93,36
825,286	93,93
825,701	93,48
826,116	93,2
826,531	92,69
826,946	93,03
827,361	92,99
827,776	92,7
828,19	93,29
828,605	93,4
829,02	93,52
829,434	92,75
829,848	93,14
830,263	93,59
830,677	92,81
831,091	93,22
831,505	93,48
831,919	93,4
832,332	92,76
832,746	93,32
833,16	93,51
833,573	93,69
833,987	92,91
834,4	92,95
