Data from A_6_0_Relative__2__00012.txt Node

Date: Mon Jan 29 12:45:45 CET 2024
User: diatiterra
Spectrometer: HDX00911
Trigger mode: 0
Integration Time (sec): 6,000000E-3
Scans to average: 4
Nonlinearity correction enabled: false
Boxcar width: 0
Storing dark spectrum: false
XAxis mode: Wavelengths
Number of Pixels in Spectrum: 2068
>>>>>Begin Spectral Data<<<<<
194,468	93,15
195,025	108,45
195,581	104,55
196,138	101,72
196,694	78,62
197,251	68,98
197,807	78,92
198,363	85,02
198,919	68,98
199,474	69,41
200,03	71,43
200,586	81,82
201,141	69,83
201,696	85,28
202,251	92,12
202,806	75,81
203,361	73,52
203,916	76,5
204,471	81,28
205,025	74,25
205,58	77,18
206,134	74,77
206,688	70,94
207,242	55,88
207,796	69,6
208,35	61,82
208,904	71,54
209,457	61,48
210,011	87,67
210,564	72,61
211,117	71,71
211,67	77,59
212,223	66,52
212,776	66,24
213,329	77,95
213,881	60,31
214,434	85,96
214,986	63,4
215,538	54,92
216,09	80,4
216,642	70,87
217,194	62,2
217,746	70,71
218,297	68,75
218,849	61,83
219,4	69,71
219,951	71,5
220,502	67,86
221,053	71,01
221,604	66,67
222,155	59,91
222,705	62,03
223,256	59,74
223,806	76,26
224,356	59,84
224,906	53,11
225,456	77,19
226,006	63,67
226,556	82,57
227,106	74,26
227,655	72,05
228,204	59,72
228,754	67,35
229,303	67,54
229,852	64,52
230,401	68,02
230,949	68,7
231,498	71,55
232,047	59,34
232,595	59,14
233,143	64,81
233,691	76,52
234,239	63,52
234,787	60
235,335	69,14
235,883	67,26
236,43	71,76
236,978	66,82
237,525	65,85
238,072	71,24
238,619	72,44
239,166	63,09
239,713	63,06
240,26	68,63
240,806	77,29
241,353	70,75
241,899	59,18
242,445	62,55
242,991	69,64
243,537	69,2
244,083	75,95
244,629	64,21
245,174	80,68
245,72	69,79
246,265	71,74
246,81	76,28
247,355	65,85
247,9	77,82
248,445	71,51
248,99	67,08
249,534	62,86
250,079	81,55
250,623	84,26
251,168	68,92
251,712	65,6
252,256	79,02
252,8	67,83
253,343	63,05
253,887	67,1
254,43	71,5
254,974	76,29
255,517	67,63
256,06	75,11
256,603	64,68
257,146	75,13
257,689	57,36
258,232	59,39
258,774	71,89
259,317	74,24
259,859	63,01
260,401	73,21
260,943	81,52
261,485	68,45
262,027	72,28
262,569	61,62
263,11	69,23
263,652	63,24
264,193	63,82
264,734	71,78
265,275	67,73
265,816	71,49
266,357	66,06
266,898	80,24
267,438	67,77
267,979	64,35
268,519	70,08
269,059	72,73
269,6	62,39
270,14	70,67
270,68	59,17
271,219	70,08
271,759	74,55
272,298	76,34
272,838	72,51
273,377	83,71
273,916	70,64
274,455	72,48
274,994	70,09
275,533	72,15
276,072	66,67
276,61	69,61
277,149	61,54
277,687	64,89
278,225	61,14
278,763	57,03
279,301	66,53
279,839	65,35
280,377	57,87
280,914	67,67
281,452	85,71
281,989	66,67
282,526	79,91
283,064	78,92
283,601	62,33
284,137	71,95
284,674	59,31
285,211	70,21
285,747	58,55
286,284	77,06
286,82	64,96
287,356	69,43
287,892	71,5
288,428	69,53
288,964	73,01
289,5	76,89
290,035	72,56
290,571	84,13
291,106	71,11
291,641	79,23
292,176	89,95
292,711	64,96
293,246	73,6
293,781	71,83
294,315	56,02
294,85	71,64
295,384	72,27
295,918	73,08
296,453	74,13
296,987	60,89
297,52	77,62
298,054	73,3
298,588	70,56
299,121	89,05
299,655	70,1
300,188	82,07
300,721	65,56
301,254	70,67
301,787	70,45
302,32	82,21
302,853	74,51
303,385	67,8
303,918	82,91
304,45	56,52
304,982	75,23
305,514	83,07
306,046	69,55
306,578	65,09
307,11	72,95
307,641	72,89
308,173	71,01
308,704	60,62
309,236	72,33
309,767	53,42
310,298	73,45
310,829	62,61
311,359	77,02
311,89	73,02
312,421	64,17
312,951	73,24
313,481	76,89
314,012	63,64
314,542	76,72
315,072	67,57
315,601	72,48
316,131	71,78
316,661	55,91
317,19	62,07
317,72	76,68
318,249	63,59
318,778	67,63
319,307	60,39
319,836	62,78
320,365	76,92
320,893	82,61
321,422	61,93
321,95	67,36
322,479	71,05
323,007	84,12
323,535	78,79
324,063	60,09
324,591	64,15
325,118	65,65
325,646	59,64
326,173	70,81
326,701	75,33
327,228	69,82
327,755	57,43
328,282	66,67
328,809	82,27
329,336	71,5
329,862	63,68
330,389	71,43
330,915	52,84
331,441	66,15
331,968	48,63
332,494	64,93
333,02	48,02
333,545	82,82
334,071	52,36
334,597	70,53
335,122	57,92
335,648	71,96
336,173	60,55
336,698	55,16
337,223	82,01
337,748	62,23
338,272	67,89
338,797	56,5
339,322	52,38
339,846	76,17
340,37	75,14
340,894	47,2
341,419	50,42
341,942	68,42
342,466	64,75
342,99	68,1
343,514	63,18
344,037	73,98
344,56	59,72
345,084	47,83
345,607	52,85
346,13	58,4
346,653	57,31
347,175	52,69
347,698	45,97
348,221	61,42
348,743	61,89
349,265	64,29
349,787	58,94
350,309	58,76
350,831	46,89
351,353	57,35
351,875	64,02
352,397	54,32
352,918	52,94
353,439	55,47
353,961	61,03
354,482	47,69
355,003	58,58
355,524	56,35
356,044	67,01
356,565	64,93
357,086	64,91
357,606	59,86
358,126	58,82
358,646	51,03
359,167	59,33
359,687	48,62
360,206	60,32
360,726	64,1
361,246	61,88
361,765	60,07
362,285	59,94
362,804	54,89
363,323	55,86
363,842	59,17
364,361	59,38
364,88	56,58
365,398	61,58
365,917	59,53
366,435	63,69
366,954	57,56
367,472	56,43
367,99	58,01
368,508	62,13
369,026	47,12
369,544	61,22
370,061	60,41
370,579	61,99
371,096	62,4
371,613	63,15
372,131	60
372,648	69,02
373,165	53,41
373,681	54,9
374,198	56,98
374,715	57,01
375,231	57,92
375,747	55,51
376,264	56,4
376,78	60,9
377,296	54,4
377,812	58,25
378,327	59,7
378,843	52,78
379,359	58,33
379,874	58
380,389	59,74
380,905	55,49
381,42	50,97
381,935	57,67
382,449	55,69
382,964	53,41
383,479	55,45
383,993	56,24
384,508	49,42
385,022	53,52
385,536	51,61
386,05	47,83
386,564	51,86
387,078	48,61
387,592	49,46
388,105	49,46
388,619	47,03
389,132	46,05
389,645	46,4
390,158	42,82
390,671	46,02
391,184	47,36
391,697	45,82
392,21	44,07
392,722	44,89
393,235	43,7
393,747	41,73
394,259	44,38
394,771	44,64
395,283	44,72
395,795	44,39
396,307	45,42
396,818	42,01
397,33	43,35
397,841	38,14
398,353	38,34
398,864	40,15
399,375	39,56
399,886	39,35
400,397	39
400,907	36,82
401,418	35,77
401,928	35,19
402,439	35,56
402,949	35,77
403,459	35,6
403,969	34,94
404,479	35,22
404,989	33,42
405,498	29,55
406,008	32,42
406,517	29,18
407,027	30,52
407,536	28,29
408,045	27,63
408,554	27,56
409,063	24,26
409,572	25,71
410,08	24,13
410,589	24,79
411,097	23,72
411,606	22,21
412,114	21,79
412,622	21,71
413,13	20,29
413,638	19,99
414,145	20,56
414,653	18,25
415,16	19
415,668	18,12
416,175	18,37
416,682	17,25
417,189	17,85
417,696	17,33
418,203	16,79
418,71	16,92
419,216	15,4
419,723	16,56
420,229	16,38
420,735	16,13
421,242	15,02
421,748	15,61
422,254	15,72
422,759	15,61
423,265	14,82
423,771	15,12
424,276	15,49
424,781	14,22
425,287	15,21
425,792	15,04
426,297	14,27
426,802	13,92
427,306	14,73
427,811	15,32
428,316	14,28
428,82	14,13
429,324	13,91
429,829	14,38
430,333	13,34
430,837	13,81
431,34	14,26
431,844	12,42
432,348	13,73
432,851	14,25
433,355	13,71
433,858	14,06
434,361	14,18
434,864	13,46
435,367	13,49
435,87	13,08
436,373	13,74
436,876	14,06
437,378	13,22
437,88	13,53
438,383	14,14
438,885	13,98
439,387	13,57
439,889	13,62
440,391	13,74
440,892	13,52
441,394	13,03
441,896	14,09
442,397	13,7
442,898	13,82
443,399	12,83
443,9	13,67
444,401	13,48
444,902	13,96
445,403	14,11
445,903	13,77
446,404	14,21
446,904	13,71
447,405	14,44
447,905	14,37
448,405	15,12
448,905	14,17
449,404	14,81
449,904	14,33
450,404	14,97
450,903	14,09
451,403	14,15
451,902	15,02
452,401	15,07
452,9	15,13
453,399	15,31
453,898	15,61
454,396	16,13
454,895	15,53
455,393	15,62
455,892	15,5
456,39	15,5
456,888	15,93
457,386	15,16
457,884	15,57
458,382	16,37
458,879	15,73
459,377	15,47
459,874	15,6
460,372	15,62
460,869	15,09
461,366	15,69
461,863	15,78
462,36	15,87
462,857	15,71
463,353	16,21
463,85	16,18
464,346	15,26
464,843	15,79
465,339	15,42
465,835	15,75
466,331	16,26
466,827	15,5
467,323	15,33
467,818	15,84
468,314	15,07
468,809	16,13
469,305	15,78
469,8	15,56
470,295	15,63
470,79	15,66
471,285	15,77
471,78	15,68
472,274	15,48
472,769	15,8
473,263	15,99
473,758	16,1
474,252	16,46
474,746	15,18
475,24	15,8
475,734	15,95
476,228	16,05
476,721	15,81
477,215	16,05
477,708	16,26
478,202	16,39
478,695	16,03
479,188	15,84
479,681	16,11
480,174	16,34
480,667	16,5
481,159	15,89
481,652	16,05
482,144	16,12
482,637	16,68
483,129	16,51
483,621	16,74
484,113	16,55
484,605	16,74
485,097	16,72
485,588	16,14
486,08	16,46
486,571	16,97
487,063	16,9
487,554	16,71
488,045	17,14
488,536	17,24
489,027	17,4
489,518	17,45
490,008	17,07
490,499	17,3
490,989	17,7
491,48	17,33
491,97	17,73
492,46	17,52
492,95	17,86
493,44	18,15
493,93	18,11
494,419	18,56
494,909	18,47
495,398	18,61
495,888	18,94
496,377	18,94
496,866	19,02
497,355	19,13
497,844	19,53
498,333	19,82
498,821	20,02
499,31	20,32
499,798	20,4
500,287	20,58
500,775	20,98
501,263	21,71
501,751	22,03
502,239	21,83
502,727	22,06
503,215	22,14
503,702	22,84
504,19	23,2
504,677	23,68
505,164	23,39
505,651	24,13
506,139	24,65
506,625	25,1
507,112	25,27
507,599	25,31
508,086	26,18
508,572	26,36
509,058	27,01
509,545	26,5
510,031	27,53
510,517	28,16
511,003	28,82
511,489	29,09
511,974	29,36
512,46	30,05
512,946	30,13
513,431	30,69
513,916	31,33
514,401	31,85
514,887	32,7
515,371	32,58
515,856	33,37
516,341	33,72
516,826	34,08
517,31	34,95
517,795	35,24
518,279	35,96
518,763	37,12
519,247	36,94
519,731	37,42
520,215	38,2
520,699	38,64
521,182	39,2
521,666	39,98
522,149	40,1
522,633	40,49
523,116	40,97
523,599	41,9
524,082	42,51
524,565	42,54
525,048	42,97
525,53	43,79
526,013	44,05
526,495	44,13
526,978	44,4
527,46	44,78
527,942	45,3
528,424	46
528,906	46,54
529,388	47,05
529,87	46,56
530,351	47,28
530,833	47,61
531,314	47,81
531,795	48,3
532,277	48,46
532,758	48,3
533,238	48,59
533,719	48,65
534,2	49,39
534,681	49,55
535,161	48,95
535,642	49,83
536,122	49,63
536,602	50,87
537,082	49,8
537,562	49,89
538,042	50,08
538,522	50,08
539,001	50,08
539,481	50,33
539,96	50,48
540,44	50,08
540,919	51,17
541,398	51,15
541,877	51
542,356	50,59
542,835	51,47
543,313	51,1
543,792	50,97
544,27	51,68
544,749	51,05
545,227	51,46
545,705	51,44
546,183	51,77
546,661	51,77
547,139	51,08
547,616	51,28
548,094	51,15
548,571	51,33
549,049	52,23
549,526	51,51
550,003	52,08
550,48	51,45
550,957	52,22
551,434	52,21
551,911	52,3
552,387	52,01
552,864	52,28
553,34	51,9
553,817	52,11
554,293	52,13
554,769	52,25
555,245	52,22
555,721	51,89
556,197	51,88
556,672	51,4
557,148	52,08
557,623	51,79
558,099	51,66
558,574	51,56
559,049	51,89
559,524	51,9
559,999	51,07
560,474	51,21
560,948	51,29
561,423	51,07
561,897	50,71
562,372	51,05
562,846	50,63
563,32	50,88
563,794	50,19
564,268	49,74
564,742	50,15
565,216	49,85
565,69	49,93
566,163	49,12
566,636	49,3
567,11	48,76
567,583	49,25
568,056	48,26
568,529	48,06
569,002	47,79
569,475	47,72
569,947	47,78
570,42	47,68
570,892	47,09
571,365	46,98
571,837	46,54
572,309	46,22
572,781	46
573,253	45,78
573,725	45,68
574,197	45,53
574,668	45,49
575,14	44,55
575,611	44,07
576,082	44,17
576,554	44,22
577,025	43,46
577,496	43,4
577,967	43,02
578,437	43,1
578,908	43,4
579,379	42,56
579,849	42,75
580,319	41,96
580,79	41,92
581,26	41,81
581,73	41,18
582,2	41,34
582,669	41,32
583,139	41,55
583,609	40,69
584,078	40,82
584,548	40,81
585,017	40,44
585,486	39,72
585,955	40,18
586,424	40,4
586,893	39,6
587,362	39,93
587,83	40,11
588,299	39,29
588,767	39,65
589,236	39,51
589,704	39,44
590,172	39,08
590,64	38,89
591,108	38,57
591,576	38,52
592,043	38,18
592,511	38,64
592,978	38,46
593,446	37,99
593,913	38,53
594,38	38,15
594,847	37,85
595,314	38,16
595,781	38,03
596,248	37,69
596,715	37,63
597,181	37,36
597,647	37,37
598,114	37,86
598,58	37,5
599,046	37,12
599,512	37,63
599,978	37,14
600,444	36,82
600,91	37,03
601,375	36,84
601,841	37,02
602,306	37,26
602,771	37,01
603,236	37,35
603,702	36,55
604,167	36,95
604,631	36,17
605,096	36,24
605,561	36,26
606,025	36,38
606,49	35,86
606,954	35,74
607,418	35,98
607,882	35,47
608,347	35,77
608,81	35,15
609,274	35,41
609,738	34,91
610,202	35,06
610,665	34,6
611,128	34,82
611,592	34,46
612,055	34,28
612,518	34,41
612,981	34,18
613,444	33,59
613,907	33,75
614,369	33,51
614,832	33,25
615,294	33,3
615,757	32,99
616,219	32,48
616,681	32,4
617,143	32,69
617,605	32,69
618,067	32,33
618,529	32,44
618,99	32,35
619,452	32,24
619,913	31,99
620,375	31,68
620,836	31,74
621,297	31,81
621,758	31,63
622,219	31,52
622,68	31,3
623,14	31,35
623,601	31,03
624,061	31,16
624,522	30,97
624,982	30,77
625,442	30,92
625,902	30,75
626,362	30,98
626,822	30,91
627,282	30,59
627,742	30,82
628,201	30,7
628,661	30,68
629,12	30,72
629,579	30,4
630,038	30,29
630,497	30,45
630,956	30,3
631,415	30,5
631,874	30,15
632,332	30,34
632,791	29,83
633,249	30,38
633,708	30,21
634,166	29,53
634,624	29,71
635,082	29,8
635,54	29,7
635,998	29,51
636,455	29,34
636,913	28,91
637,37	28,8
637,828	28,43
638,285	28,56
638,742	28,22
639,199	27,91
639,656	28,11
640,113	27,66
640,57	27,4
641,027	26,84
641,483	26,6
641,94	26,71
642,396	26,37
642,852	26,14
643,309	25,9
643,765	25,58
644,221	25,26
644,676	25,27
645,132	24,87
645,588	24,82
646,043	24,56
646,499	24,27
646,954	24,35
647,409	23,64
647,864	23,81
648,319	23,41
648,774	22,97
649,229	23,26
649,684	22,74
650,139	22,72
650,593	22,49
651,047	22,66
651,502	22,52
651,956	22,18
652,41	21,9
652,864	22,18
653,318	21,94
653,772	21,9
654,225	21,55
654,679	21,74
655,133	21,37
655,586	21,51
656,039	21,5
656,492	21,25
656,946	21,18
657,399	21,11
657,851	20,94
658,304	20,6
658,757	20,56
659,209	20,4
659,662	20,15
660,114	19,82
660,567	19,74
661,019	19,41
661,471	19,34
661,923	19,05
662,375	18,89
662,826	18,79
663,278	18,65
663,73	18,32
664,181	18,16
664,632	18,04
665,084	17,65
665,535	17,75
665,986	17,63
666,437	17,56
666,888	17,19
667,338	17,18
667,789	17,01
668,24	17,17
668,69	16,95
669,14	16,98
669,591	16,94
670,041	16,7
670,491	16,64
670,941	16,81
671,391	16,98
671,84	16,7
672,29	16,56
672,74	16,76
673,189	16,8
673,638	16,92
674,088	17,02
674,537	17,03
674,986	17,23
675,435	17,15
675,883	17,22
676,332	17,46
676,781	17,38
677,229	17,42
677,678	17,94
678,126	17,87
678,574	17,82
679,022	18,15
679,47	18,31
679,918	18,67
680,366	18,67
680,814	18,99
681,261	19,21
681,709	19,51
682,156	19,62
682,604	20,01
683,051	20,31
683,498	20,56
683,945	20,72
684,392	21,16
684,839	21,59
685,286	21,91
685,732	22,45
686,179	22,64
686,625	23,11
687,071	23,73
687,518	24,19
687,964	24,77
688,41	25,46
688,856	26,02
689,301	26,87
689,747	27,4
690,193	27,99
690,638	28,84
691,084	29,75
691,529	30,69
691,974	31,16
692,419	32,09
692,864	33,08
693,309	34,2
693,754	34,97
694,199	35,9
694,643	36,97
695,088	37,62
695,532	38,88
695,977	39,93
696,421	40,71
696,865	41,66
697,309	41,99
697,753	43,38
698,197	44,37
698,64	45,51
699,084	46,23
699,527	47,39
699,971	47,84
700,414	49,11
700,857	49,57
701,3	50,65
701,743	51,08
702,186	52,04
702,629	52,48
703,072	53,65
703,515	54,52
703,957	54,78
704,399	55,83
704,842	55,79
705,284	56,91
705,726	57,69
706,168	58,25
706,61	58,93
707,052	59,45
707,494	60,35
707,935	60,48
708,377	61,56
708,818	61,99
709,26	62,52
709,701	63,21
710,142	63,39
710,583	63,99
711,024	64,58
711,465	64,97
711,905	65,8
712,346	66,55
712,787	66,79
713,227	67,17
713,667	68,09
714,108	68,17
714,548	68,93
714,988	69,42
715,428	68,87
715,868	69,95
716,307	70,3
716,747	71,12
717,186	70,94
717,626	71,23
718,065	71,94
718,504	72,13
718,944	72,42
719,383	72,93
719,822	73,54
720,261	73,87
720,699	74,29
721,138	74,39
721,576	74,29
722,015	75,47
722,453	75,3
722,892	76
723,33	75,96
723,768	75,75
724,206	76,52
724,644	76,52
725,081	77,16
725,519	77,02
725,957	77,64
726,394	78,04
726,832	78,01
727,269	78,1
727,706	79,04
728,143	78,25
728,58	79,22
729,017	78,96
729,454	79,14
729,89	79,22
730,327	79,81
730,764	79,84
731,2	80,36
731,636	79,68
732,072	79,58
732,509	80,9
732,945	80,53
733,38	80,74
733,816	80,91
734,252	81,17
734,688	81,26
735,123	81,17
735,559	81,43
735,994	81,19
736,429	81,32
736,864	81,22
737,299	81,34
737,734	81,15
738,169	81,86
738,604	81,83
739,038	82,18
739,473	81,67
739,907	81,62
740,342	82,03
740,776	82,3
741,21	82,11
741,644	82,15
742,078	82,02
742,512	82,36
742,946	82,73
743,379	82,31
743,813	82,56
744,246	82,36
744,68	82,94
745,113	82,74
745,546	82,46
745,979	82,94
746,412	82,52
746,845	82,26
747,278	82,41
747,711	82,36
748,143	82,23
748,576	82,53
749,008	82,85
749,441	82,4
749,873	82,53
750,305	82,83
750,737	82,68
751,169	82,34
751,601	82,52
752,032	82,49
752,464	82,7
752,896	82,36
753,327	82,4
753,758	82,1
754,19	82,56
754,621	82,65
755,052	82,2
755,483	82,67
755,914	82,27
756,344	82,5
756,775	82,12
757,206	82,18
757,636	82,28
758,066	82,55
758,497	82,16
758,927	81,9
759,357	82,12
759,787	82,18
760,217	82,01
760,647	81,89
761,076	82,33
761,506	82,12
761,935	82,26
762,365	81,91
762,794	82,16
763,223	81,78
763,653	82,15
764,082	81,86
764,51	81,9
764,939	81,59
765,368	82,08
765,797	81,77
766,225	81,87
766,654	81,69
767,082	81,35
767,51	81,28
767,938	81,1
768,367	81,98
768,795	81,96
769,222	81,97
769,65	81,93
770,078	81,29
770,505	81,22
770,933	81,86
771,36	81,39
771,788	81,24
772,215	81,21
772,642	81,63
773,069	81,78
773,496	81,3
773,923	81,68
774,349	81,68
774,776	81,98
775,203	81,19
775,629	81,51
776,055	81,31
776,482	81,87
776,908	81,3
777,334	81,22
777,76	81,49
778,186	80,84
778,611	81,25
779,037	81,29
779,463	81,28
779,888	81,69
780,314	81,14
780,739	81,83
781,164	80,9
781,589	81,04
782,014	81,27
782,439	80,97
782,864	81,2
783,289	81,14
783,713	81,07
784,138	81,1
784,562	81,71
784,987	80,89
785,411	81,15
785,835	81,56
786,259	81,34
786,683	81,48
787,107	81,22
787,531	81,12
787,954	81,41
788,378	80,8
788,802	81,22
789,225	81,47
789,648	81,16
790,071	81,45
790,495	81,34
790,918	81,06
791,34	81,31
791,763	81,63
792,186	81,18
792,609	81,09
793,031	81,21
793,454	81,28
793,876	80,86
794,298	81,13
794,721	81,42
795,143	80,71
795,565	81,31
795,986	81,14
796,408	81,02
796,83	81,26
797,252	81,18
797,673	81,14
798,094	81,13
798,516	80,91
798,937	81,13
799,358	81,05
799,779	80,88
800,2	81,01
800,621	81,06
801,042	81,31
801,462	80,68
801,883	80,92
802,303	80,92
802,724	80,69
803,144	81,04
803,564	80,69
803,984	81,23
804,404	81,6
804,824	81,31
805,244	81,14
805,664	81,06
806,084	81,17
806,503	81,35
806,923	81,09
807,342	80,79
807,761	81,66
808,18	81,1
808,599	80,95
809,018	80,78
809,437	80,95
809,856	81,11
810,275	81,41
810,693	81,42
811,112	80,97
811,53	81,19
811,949	81,2
812,367	80,84
812,785	81,22
813,203	80,82
813,621	80,7
814,039	80,96
814,457	81,16
814,874	80,92
815,292	80,59
815,709	80,97
816,127	80,94
816,544	81,15
816,961	80,72
817,378	81,05
817,795	81,52
818,212	81,23
818,629	81,43
819,046	81,33
819,462	80,77
819,879	81,25
820,295	81,31
820,712	80,8
821,128	81,03
821,544	80,87
821,96	81,15
822,376	80,91
822,792	80,57
823,208	80,77
823,624	80,58
824,039	80,93
824,455	80,89
824,87	81,04
825,286	81,61
825,701	80,8
826,116	81,02
826,531	80,65
826,946	80,91
827,361	80,57
827,776	80,77
828,19	80,77
828,605	81,26
829,02	81,25
829,434	81,04
829,848	80,65
830,263	80,51
830,677	80,91
831,091	80,97
831,505	81,02
831,919	80,61
832,332	80,6
832,746	80,62
833,16	80,83
833,573	80,77
