Data from B_1_0_Relative__11__00031.txt Node

Date: Mon Jan 29 12:49:47 CET 2024
User: diatiterra
Spectrometer: HDX00911
Trigger mode: 0
Integration Time (sec): 6,000000E-3
Scans to average: 4
Nonlinearity correction enabled: false
Boxcar width: 0
Storing dark spectrum: false
XAxis mode: Wavelengths
Number of Pixels in Spectrum: 2068
>>>>>Begin Spectral Data<<<<<
194,468	73,78
195,025	66,83
195,581	94,19
196,138	80,12
196,694	71,34
197,251	84,08
197,807	77,67
198,363	79,7
198,919	82,87
199,474	76,44
200,03	67,77
200,586	66,53
201,141	74,36
201,696	73,76
202,251	71,08
202,806	65,3
203,361	71,52
203,916	72,49
204,471	82,99
205,025	71,61
205,58	74,27
206,134	61,4
206,688	71,8
207,242	74,31
207,796	74,69
208,35	79,73
208,904	75,51
209,457	77,85
210,011	73,78
210,564	75,05
211,117	72,15
211,67	73,44
212,223	77,94
212,776	74,19
213,329	75,96
213,881	72,9
214,434	69,94
214,986	70,07
215,538	79,65
216,09	75,62
216,642	75,37
217,194	75
217,746	80,08
218,297	75,11
218,849	75,11
219,4	83,72
219,951	77,78
220,502	80,73
221,053	74,58
221,604	68,96
222,155	65,52
222,705	73,49
223,256	73,97
223,806	71,7
224,356	79,06
224,906	74,21
225,456	80,21
226,006	81,59
226,556	76,62
227,106	83,93
227,655	73,13
228,204	75,88
228,754	73,92
229,303	74,07
229,852	75,81
230,401	77,7
230,949	87,03
231,498	71,11
232,047	77,3
232,595	71,55
233,143	73,57
233,691	71,31
234,239	73,88
234,787	77,27
235,335	67,74
235,883	71,88
236,43	67,77
236,978	80,09
237,525	65,4
238,072	81,48
238,619	82,01
239,166	84,55
239,713	74,53
240,26	73,24
240,806	74,89
241,353	74,02
241,899	81,72
242,445	70,72
242,991	72,89
243,537	70,02
244,083	72,41
244,629	75
245,174	77,95
245,72	75,11
246,265	78,55
246,81	76,3
247,355	79,76
247,9	82,71
248,445	74,63
248,99	70,64
249,534	79,37
250,079	77,11
250,623	80,43
251,168	78,08
251,712	76,56
252,256	76,77
252,8	80,39
253,343	73,93
253,887	70
254,43	70,17
254,974	70,35
255,517	66,52
256,06	77,7
256,603	74,09
257,146	80,05
257,689	80,3
258,232	73,02
258,774	75,5
259,317	72,23
259,859	70,39
260,401	75,76
260,943	70
261,485	72
262,027	67,18
262,569	82,25
263,11	68,8
263,652	73,88
264,193	74,84
264,734	73,39
265,275	76,76
265,816	75,82
266,357	80,95
266,898	65,53
267,438	73,85
267,979	79,65
268,519	75,27
269,059	82,71
269,6	77,88
270,14	68,92
270,68	75,42
271,219	70,68
271,759	82,02
272,298	68,6
272,838	70,87
273,377	77,16
273,916	75,39
274,455	69,49
274,994	70,26
275,533	78,52
276,072	77,9
276,61	74,45
277,149	72,82
277,687	70,71
278,225	72,85
278,763	78,05
279,301	70
279,839	67,96
280,377	78,67
280,914	74,01
281,452	76,83
281,989	69,23
282,526	65,88
283,064	70,36
283,601	72,39
284,137	76,43
284,674	73,3
285,211	77,12
285,747	69,93
286,284	71
286,82	73,35
287,356	74,83
287,892	72,56
288,428	67,6
288,964	80,94
289,5	70,56
290,035	73,29
290,571	65,12
291,106	71,04
291,641	75,45
292,176	74,57
292,711	71,05
293,246	80,05
293,781	73,59
294,315	73,07
294,85	71,02
295,384	70,56
295,918	68,44
296,453	79,25
296,987	69,91
297,52	71,93
298,054	72,71
298,588	68,48
299,121	73,17
299,655	69,23
300,188	71,98
300,721	77,91
301,254	61,42
301,787	71,43
302,32	77,42
302,853	67,84
303,385	72,03
303,918	69,49
304,45	62,28
304,982	65,78
305,514	65,97
306,046	68,93
306,578	71,85
307,11	65,5
307,641	70,09
308,173	73,64
308,704	64,73
309,236	72,75
309,767	69,88
310,298	72,73
310,829	67,37
311,359	67,29
311,89	72,69
312,421	68,83
312,951	69,3
313,481	66,59
314,012	64,88
314,542	69,65
315,072	72,11
315,601	70,27
316,131	70,94
316,661	65,46
317,19	64,71
317,72	66,19
318,249	63,43
318,778	76,23
319,307	64,71
319,836	75,98
320,365	74,88
320,893	71,06
321,422	68,43
321,95	67,33
322,479	72,01
323,007	77,05
323,535	72,56
324,063	69,74
324,591	74,47
325,118	69,45
325,646	71,7
326,173	68,04
326,701	79,76
327,228	70,45
327,755	63,88
328,282	78,34
328,809	75,28
329,336	62,82
329,862	70,45
330,389	68,97
330,915	62,5
331,441	73,66
331,968	71,57
332,494	73
333,02	65,38
333,545	62,58
334,071	62,05
334,597	73,8
335,122	73,27
335,648	76,55
336,173	64,21
336,698	73,85
337,223	68,76
337,748	71,85
338,272	64,02
338,797	68,55
339,322	71,27
339,846	65,74
340,37	72,91
340,894	59,69
341,419	66,6
341,942	67,55
342,466	72,03
342,99	68,05
343,514	71,7
344,037	64,2
344,56	65,38
345,084	67,8
345,607	60,11
346,13	61,26
346,653	60,04
347,175	60,56
347,698	71,91
348,221	68,16
348,743	62,27
349,265	63,48
349,787	59,25
350,309	67,86
350,831	65
351,353	71,6
351,875	65,6
352,397	63,33
352,918	69,45
353,439	69,06
353,961	67,73
354,482	64,98
355,003	59,74
355,524	66,92
356,044	67,36
356,565	64,59
357,086	66,72
357,606	66,72
358,126	67,51
358,646	73,23
359,167	67,53
359,687	70,91
360,206	66,47
360,726	67,54
361,246	70,29
361,765	64,42
362,285	71,87
362,804	62,38
363,323	68,68
363,842	65,15
364,361	67,78
364,88	66,18
365,398	66,32
365,917	70,53
366,435	65,17
366,954	66,46
367,472	70,22
367,99	71,47
368,508	70,6
369,026	70,5
369,544	64,27
370,061	66,28
370,579	65,35
371,096	71,56
371,613	69,28
372,131	67,27
372,648	64,48
373,165	70,35
373,681	70,73
374,198	69,67
374,715	69,93
375,231	69,42
375,747	66,14
376,264	67,18
376,78	68,62
377,296	62,09
377,812	70,41
378,327	68,3
378,843	66,9
379,359	67,72
379,874	68,37
380,389	64,54
380,905	66
381,42	66,89
381,935	65,75
382,449	69,12
382,964	64,36
383,479	67,21
383,993	60,65
384,508	62,26
385,022	65,17
385,536	61,94
386,05	60,68
386,564	62,98
387,078	60,7
387,592	62,21
388,105	57,18
388,619	59,37
389,132	59
389,645	60,73
390,158	58,82
390,671	58,12
391,184	57,69
391,697	58,55
392,21	58,27
392,722	56,06
393,235	57,84
393,747	52,63
394,259	54,32
394,771	54,91
395,283	51,9
395,795	50,63
396,307	52,6
396,818	52,6
397,33	51,27
397,841	51,34
398,353	49,98
398,864	50,84
399,375	48,39
399,886	49,37
400,397	48,51
400,907	46,72
401,418	46,86
401,928	43,91
402,439	44,69
402,949	44,42
403,459	42,54
403,969	43,62
404,479	40,32
404,989	39,94
405,498	39,66
406,008	37,87
406,517	37,02
407,027	38,92
407,536	35,85
408,045	34,74
408,554	33,86
409,063	33,22
409,572	33,13
410,08	32,88
410,589	30,46
411,097	29,14
411,606	30,04
412,114	29,04
412,622	28,76
413,13	27,74
413,638	27,2
414,145	27,44
414,653	25,43
415,16	24,82
415,668	25,43
416,175	24,47
416,682	23,94
417,189	22,9
417,696	23,14
418,203	22,58
418,71	22,61
419,216	22,66
419,723	22,35
420,229	22,45
420,735	21
421,242	21,54
421,748	20,87
422,254	21,38
422,759	19,81
423,265	20,56
423,771	20,61
424,276	20,29
424,781	20,38
425,287	19,87
425,792	19,81
426,297	20,49
426,802	19,6
427,306	19,72
427,811	19,46
428,316	19,17
428,82	19,25
429,324	19,47
429,829	19,01
430,333	19,52
430,837	18,84
431,34	19,07
431,844	18,43
432,348	19,08
432,851	18,71
433,355	18,68
433,858	18,93
434,361	18,43
434,864	18,47
435,367	18,53
435,87	18,64
436,373	18,01
436,876	18,87
437,378	17,89
437,88	18,06
438,383	18,7
438,885	18,65
439,387	18,38
439,889	18,48
440,391	19,04
440,892	18,11
441,394	19,21
441,896	18,39
442,397	17,94
442,898	18,59
443,399	18,07
443,9	18,48
444,401	18,82
444,902	18,18
445,403	17,97
445,903	18,59
446,404	18,71
446,904	18,86
447,405	18,41
447,905	18,61
448,405	18,25
448,905	19,15
449,404	18,92
449,904	18,5
450,404	18,82
450,903	19,11
451,403	19,01
451,902	19,45
452,401	19,39
452,9	19,24
453,399	19,12
453,898	19,72
454,396	19,41
454,895	19,76
455,393	19,29
455,892	19,43
456,39	19,41
456,888	19,74
457,386	19,68
457,884	19,27
458,382	20
458,879	19,62
459,377	19,92
459,874	19,54
460,372	19,97
460,869	19,98
461,366	19,75
461,863	19,58
462,36	19,57
462,857	20
463,353	19,58
463,85	19,82
464,346	19,82
464,843	19,41
465,339	19,54
465,835	19,74
466,331	19,4
466,827	19,81
467,323	19,87
467,818	19,82
468,314	19,42
468,809	19,6
469,305	19,1
469,8	19,3
470,295	19,8
470,79	19,57
471,285	19,6
471,78	19,42
472,274	19,68
472,769	20,11
473,263	19,99
473,758	19,69
474,252	20,1
474,746	19,97
475,24	19,68
475,734	20,14
476,228	19,56
476,721	19,67
477,215	20,09
477,708	20,18
478,202	19,99
478,695	19,85
479,188	20,07
479,681	19,84
480,174	20,08
480,667	19,75
481,159	19,91
481,652	20,24
482,144	19,99
482,637	20,32
483,129	20,24
483,621	20,5
484,113	20,08
484,605	20,41
485,097	20,12
485,588	20,58
486,08	20,44
486,571	20,34
487,063	20,65
487,554	20,55
488,045	20,49
488,536	20,52
489,027	20,9
489,518	20,82
490,008	20,4
490,499	20,71
490,989	20,87
491,48	20,87
491,97	20,82
492,46	21,02
492,95	21,26
493,44	21,46
493,93	21,21
494,419	21,58
494,909	21,61
495,398	21,44
495,888	21,72
496,377	21,67
496,866	21,73
497,355	22,19
497,844	22,12
498,333	22,16
498,821	22,3
499,31	22,37
499,798	22,68
500,287	22,88
500,775	22,91
501,263	23,17
501,751	23,32
502,239	23,47
502,727	23,79
503,215	23,65
503,702	24,19
504,19	24,65
504,677	24,1
505,164	24,52
505,651	25,11
506,139	25,76
506,625	25,47
507,112	26,26
507,599	26,12
508,086	26,61
508,572	26,63
509,058	27
509,545	27,38
510,031	27,74
510,517	27,61
511,003	28,47
511,489	28,82
511,974	29,25
512,46	29,65
512,946	30,25
513,431	30,14
513,916	30,56
514,401	30,96
514,887	31,31
515,371	31,96
515,856	32,59
516,341	32,78
516,826	33,28
517,31	34,05
517,795	34,1
518,279	34,22
518,763	34,74
519,247	35,46
519,731	36,01
520,215	36,41
520,699	37,44
521,182	37,68
521,666	38,39
522,149	38,6
522,633	39,32
523,116	39,69
523,599	40,12
524,082	40,5
524,565	41,19
525,048	41,2
525,53	41,6
526,013	42,54
526,495	42,9
526,978	43,19
527,46	43,83
527,942	44,14
528,424	43,98
528,906	44,91
529,388	44,72
529,87	45,6
530,351	45,88
530,833	46,07
531,314	46,26
531,795	46,72
532,277	46,68
532,758	47,23
533,238	47,07
533,719	47,76
534,2	47,82
534,681	47,74
535,161	48,21
535,642	48,05
536,122	48,46
536,602	48,73
537,082	48,7
537,562	48,7
538,042	49,05
538,522	48,86
539,001	48,9
539,481	49,59
539,96	49,4
540,44	49,45
540,919	49,13
541,398	49,53
541,877	49,28
542,356	49,51
542,835	49,66
543,313	49,91
543,792	49,46
544,27	49,64
544,749	49,76
545,227	50,17
545,705	50,2
546,183	49,98
546,661	49,74
547,139	50,32
547,616	50,38
548,094	50,38
548,571	50,64
549,049	50,58
549,526	50,74
550,003	50,89
550,48	50,9
550,957	50,54
551,434	50,5
551,911	50,69
552,387	51,05
552,864	51,09
553,34	50,87
553,817	50,89
554,293	50,88
554,769	51,04
555,245	50,58
555,721	50,64
556,197	51,03
556,672	50,19
557,148	50,61
557,623	50,55
558,099	50,68
558,574	50,72
559,049	50,48
559,524	50,03
559,999	50,1
560,474	50,28
560,948	50,01
561,423	49,59
561,897	49,99
562,372	49,94
562,846	49,08
563,32	49,18
563,794	49,14
564,268	48,81
564,742	48,47
565,216	48,78
565,69	48,4
566,163	48,2
566,636	47,74
567,11	47,9
567,583	47,57
568,056	47,47
568,529	47,04
569,002	46,51
569,475	46,62
569,947	46,15
570,42	45,7
570,892	45,62
571,365	45,25
571,837	44,89
572,309	44,97
572,781	44,42
573,253	44,09
573,725	43,89
574,197	43,3
574,668	43,21
575,14	43,42
575,611	42,87
576,082	42,44
576,554	42,53
577,025	42,17
577,496	41,74
577,967	41,24
578,437	41,67
578,908	40,87
579,379	40,69
579,849	40,8
580,319	40,3
580,79	40,24
581,26	40,03
581,73	39,9
582,2	39,94
582,669	39,52
583,139	39,23
583,609	39,44
584,078	39,06
584,548	38,97
585,017	38,74
585,486	38,36
585,955	38,2
586,424	38,25
586,893	38,23
587,362	38,11
587,83	38,03
588,299	37,76
588,767	37,61
589,236	37,52
589,704	37,31
590,172	37,06
590,64	37,11
591,108	36,88
591,576	37,18
592,043	36,68
592,511	36,69
592,978	36,5
593,446	36,5
593,913	36,37
594,38	36,4
594,847	35,96
595,314	35,97
595,781	36,07
596,248	36,25
596,715	36,06
597,181	36,12
597,647	36,05
598,114	35,85
598,58	35,59
599,046	35,81
599,512	35,73
599,978	35,61
600,444	35,62
600,91	35,36
601,375	35,32
601,841	35,56
602,306	35,27
602,771	35,16
603,236	35,2
603,702	34,84
604,167	34,81
604,631	34,75
605,096	34,8
605,561	34,74
606,025	34,17
606,49	34,33
606,954	34,37
607,418	34,15
607,882	33,95
608,347	33,55
608,81	33,71
609,274	33,62
609,738	33,32
610,202	33,43
610,665	33,15
611,128	33
611,592	32,89
612,055	32,65
612,518	32,46
612,981	32,57
613,444	32,23
613,907	32,09
614,369	32,01
614,832	31,7
615,294	31,62
615,757	31,56
616,219	31,58
616,681	31,25
617,143	31,08
617,605	30,98
618,067	30,87
618,529	30,75
618,99	30,92
619,452	30,56
619,913	30,47
620,375	30,34
620,836	30,42
621,297	30,11
621,758	30,25
622,219	29,97
622,68	30,08
623,14	29,8
623,601	29,77
624,061	29,75
624,522	29,54
624,982	29,21
625,442	29,53
625,902	29,23
626,362	29,34
626,822	29,52
627,282	29,15
627,742	29,46
628,201	29,47
628,661	29,31
629,12	29,03
629,579	29,31
630,038	28,95
630,497	29,2
630,956	29
631,415	28,94
631,874	29,06
632,332	28,81
632,791	28,87
633,249	28,59
633,708	28,61
634,166	28,52
634,624	28,53
635,082	28,21
635,54	28,22
635,998	28,08
636,455	28,06
636,913	27,88
637,37	27,66
637,828	27,6
638,285	27,42
638,742	27,26
639,199	26,84
639,656	26,88
640,113	26,61
640,57	26,72
641,027	26,32
641,483	26,26
641,94	26,24
642,396	25,88
642,852	25,63
643,309	25,48
643,765	25,4
644,221	24,98
644,676	24,98
645,132	24,55
645,588	24,53
646,043	24,64
646,499	24,42
646,954	23,92
647,409	23,79
647,864	23,93
648,319	23,43
648,774	23,36
649,229	23,28
649,684	23,18
650,139	23,18
650,593	22,9
651,047	22,91
651,502	22,72
651,956	22,59
652,41	22,63
652,864	22,47
653,318	22,43
653,772	22,38
654,225	22,3
654,679	22,32
655,133	22,19
655,586	22,12
656,039	22,13
656,492	21,91
656,946	21,78
657,399	21,62
657,851	21,55
658,304	21,46
658,757	21,46
659,209	21,45
659,662	20,88
660,114	20,8
660,567	20,58
661,019	20,7
661,471	20,46
661,923	20,47
662,375	20,24
662,826	20,26
663,278	20,24
663,73	19,91
664,181	19,95
664,632	19,83
665,084	19,56
665,535	19,69
665,986	19,61
666,437	19,53
666,888	19,43
667,338	19,5
667,789	19,26
668,24	19,37
668,69	19,34
669,14	19,35
669,591	19,29
670,041	19,26
670,491	19,45
670,941	19,32
671,391	19,37
671,84	19,35
672,29	19,62
672,74	19,39
673,189	19,53
673,638	19,66
674,088	19,67
674,537	19,81
674,986	19,89
675,435	19,87
675,883	19,92
676,332	19,99
676,781	20,3
677,229	20,35
677,678	20,5
678,126	20,54
678,574	20,72
679,022	20,77
679,47	20,96
679,918	21,23
680,366	21,35
680,814	21,41
681,261	21,63
681,709	21,74
682,156	21,88
682,604	22,22
683,051	22,24
683,498	22,52
683,945	22,9
684,392	23
684,839	23,08
685,286	23,27
685,732	23,67
686,179	23,78
686,625	24,21
687,071	24,3
687,518	24,67
687,964	25,06
688,41	25,37
688,856	25,61
689,301	26,04
689,747	26,63
690,193	27,05
690,638	27,46
691,084	28,27
691,529	28,62
691,974	29,28
692,419	29,99
692,864	30,66
693,309	31,34
693,754	31,93
694,199	32,96
694,643	33,69
695,088	34,81
695,532	35,51
695,977	36,46
696,421	37,23
696,865	38,06
697,309	38,8
697,753	39,77
698,197	40,67
698,64	41,85
699,084	42,45
699,527	43,59
699,971	44,47
700,414	45,38
700,857	45,91
701,3	46,86
701,743	47,78
702,186	48,6
702,629	49,5
703,072	50,01
703,515	50,83
703,957	51,89
704,399	52,34
704,842	53,32
705,284	54,25
705,726	55,02
706,168	55,54
706,61	56,19
707,052	57,18
707,494	57,99
707,935	58,49
708,377	58,96
708,818	59,94
709,26	60,39
709,701	61,21
710,142	61,82
710,583	62,45
711,024	63,27
711,465	63,45
711,905	64,37
712,346	65,21
712,787	65,53
713,227	66,22
713,667	66,85
714,108	67,54
714,548	67,85
714,988	68,83
715,428	69
715,868	69,63
716,307	70,42
716,747	70,99
717,186	71,46
717,626	71,82
718,065	72,15
718,504	72,9
718,944	73,63
719,383	73,72
719,822	74,46
720,261	74,61
720,699	74,94
721,138	75,69
721,576	76,24
722,015	76,29
722,453	76,75
722,892	77,2
723,33	77,63
723,768	78,11
724,206	78,39
724,644	78,77
725,081	79,07
725,519	79,47
725,957	79,97
726,394	80,23
726,832	80,54
727,269	80,62
727,706	81,23
728,143	81,27
728,58	81,63
729,017	81,79
729,454	82,43
729,89	82,43
730,327	82,59
730,764	82,8
731,2	82,79
731,636	82,89
732,072	83,13
732,509	83,29
732,945	83,73
733,38	83,92
733,816	83,99
734,252	84,08
734,688	84,42
735,123	84,77
735,559	84,76
735,994	84,83
736,429	85,26
736,864	85,17
737,299	85,52
737,734	85,18
738,169	85,55
738,604	85,72
739,038	85,64
739,473	85,38
739,907	85,83
740,342	85,9
740,776	85,75
741,21	85,81
741,644	85,94
742,078	85,58
742,512	85,83
742,946	85,39
743,379	85,6
743,813	85,94
744,246	86,11
744,68	86,1
745,113	86,11
745,546	85,99
745,979	86,16
746,412	85,95
746,845	86,16
747,278	85,94
747,711	86,26
748,143	86,23
748,576	86,2
749,008	85,75
749,441	86,21
749,873	85,82
750,305	85,75
750,737	85,77
751,169	86,13
751,601	85,9
752,032	85,75
752,464	86,11
752,896	85,82
753,327	85,72
753,758	85,76
754,19	85,89
754,621	85,58
755,052	85,7
755,483	85,59
755,914	85,4
756,344	85,34
756,775	85,38
757,206	85,23
757,636	85,39
758,066	85,54
758,497	85,08
758,927	85,26
759,357	85,21
759,787	85,21
760,217	85,12
760,647	85,28
761,076	85,43
761,506	84,92
761,935	84,99
762,365	84,96
762,794	85,02
763,223	84,92
763,653	85
764,082	84,73
764,51	84,77
764,939	84,85
765,368	84,55
765,797	84,77
766,225	84,59
766,654	84,86
767,082	84,83
767,51	84,28
767,938	84,59
768,367	84,65
768,795	84,71
769,222	84,38
769,65	84,69
770,078	84,48
770,505	84,35
770,933	84,51
771,36	84,28
771,788	84,65
772,215	84,04
772,642	84,51
773,069	83,89
773,496	84,4
773,923	84,28
774,349	84,35
774,776	84,47
775,203	84,17
775,629	84,35
776,055	84,42
776,482	84,03
776,908	84,33
777,334	84,02
777,76	83,94
778,186	83,94
778,611	83,87
779,037	83,94
779,463	83,72
779,888	83,86
780,314	84,38
780,739	83,96
781,164	84,04
781,589	83,66
782,014	83,88
782,439	83,68
782,864	83,79
783,289	83,81
783,713	84,05
784,138	83,94
784,562	83,96
784,987	83,9
785,411	83,62
785,835	83,72
786,259	83,47
786,683	83,95
787,107	83,48
787,531	84
787,954	84,07
788,378	83,79
788,802	83,57
789,225	83,64
789,648	83,41
790,071	83,7
790,495	83,42
790,918	83,58
791,34	83,59
791,763	83,66
792,186	83,74
792,609	83,51
793,031	83,47
793,454	83,64
793,876	83,58
794,298	83,17
794,721	83,55
795,143	83,35
795,565	83,57
795,986	83,07
796,408	83,66
796,83	83,28
797,252	83,22
797,673	83,46
798,094	83,52
798,516	83,14
798,937	83,46
799,358	83,44
799,779	83,7
800,2	83,27
800,621	83,43
801,042	83,33
801,462	83,09
801,883	83,09
802,303	83,35
802,724	83,25
803,144	83,53
803,564	83,52
803,984	83,57
804,404	83,6
804,824	83,44
805,244	83,46
805,664	83,42
806,084	83,42
806,503	83,27
806,923	83,61
807,342	83,52
807,761	83,01
808,18	83,25
808,599	83,34
809,018	83,18
809,437	83,16
809,856	83,59
810,275	83,37
810,693	83,3
811,112	83,22
811,53	83,34
811,949	83,54
812,367	83,23
812,785	83,14
813,203	83,49
813,621	83,47
814,039	83,07
814,457	83,24
814,874	83,11
815,292	83,21
815,709	83,53
816,127	83,54
816,544	83,45
816,961	83,26
817,378	83,32
817,795	83,22
818,212	83,02
818,629	83,37
819,046	83,2
819,462	83,02
819,879	83,46
820,295	83,18
820,712	83,07
821,128	83,27
821,544	83,07
821,96	83,48
822,376	83,19
822,792	83,13
823,208	83,05
823,624	83,3
824,039	83,14
824,455	83,08
824,87	83,19
825,286	83,42
825,701	83
826,116	83,24
826,531	83,17
826,946	83,3
827,361	83,3
827,776	82,89
828,19	82,91
828,605	83,39
829,02	83,27
829,434	83,04
829,848	83,07
830,263	82,78
830,677	83,22
831,091	83,48
831,505	82,93
831,919	83,11
832,332	83,26
832,746	82,96
833,16	82,94
833,573	82,74
833,987	82,94
834,4	82,8
