Data from B_1_0_Relative__12__00032.txt Node

Date: Mon Jan 29 12:50:02 CET 2024
User: diatiterra
Spectrometer: HDX00911
Trigger mode: 0
Integration Time (sec): 6,000000E-3
Scans to average: 4
Nonlinearity correction enabled: false
Boxcar width: 0
Storing dark spectrum: false
XAxis mode: Wavelengths
Number of Pixels in Spectrum: 2068
>>>>>Begin Spectral Data<<<<<
194,468	75,61
195,025	70,85
195,581	69,19
196,138	63,74
196,694	74,39
197,251	74,54
197,807	68,88
198,363	70,19
198,919	66,6
199,474	68,89
200,03	55,63
200,586	63,83
201,141	63,25
201,696	63,01
202,251	65,17
202,806	72,28
203,361	67,93
203,916	64,82
204,471	68,71
205,025	67,53
205,58	70,69
206,134	60,16
206,688	64,21
207,242	71,97
207,796	65,1
208,35	76,08
208,904	70,82
209,457	69,89
210,011	67,44
210,564	66,11
211,117	64,41
211,67	72,23
212,223	73,02
212,776	65,73
213,329	63,43
213,881	72,28
214,434	65,13
214,986	66,44
215,538	74,78
216,09	74,04
216,642	63,6
217,194	66,88
217,746	67,16
218,297	66,31
218,849	68,45
219,4	68,68
219,951	63,11
220,502	69,16
221,053	65,76
221,604	67,5
222,155	74,94
222,705	63,88
223,256	73,75
223,806	70,86
224,356	68,8
224,906	68,55
225,456	74,11
226,006	69,77
226,556	68,68
227,106	66,96
227,655	62,05
228,204	73,23
228,754	68,99
229,303	72,09
229,852	69,55
230,401	65,99
230,949	75,38
231,498	59,33
232,047	67,67
232,595	64,02
233,143	68,28
233,691	67,21
234,239	63,39
234,787	75,45
235,335	69,25
235,883	65,96
236,43	60,95
236,978	70,83
237,525	65,4
238,072	66,45
238,619	72,66
239,166	74,39
239,713	65,84
240,26	73,24
240,806	72,73
241,353	71,26
241,899	76,65
242,445	67,42
242,991	66,81
243,537	72,13
244,083	71,78
244,629	72,25
245,174	64,41
245,72	70
246,265	68,3
246,81	72,91
247,355	77,41
247,9	71,99
248,445	64,39
248,99	66,74
249,534	66,44
250,079	72,22
250,623	72,71
251,168	71,14
251,712	75,48
252,256	67,96
252,8	69,93
253,343	73,93
253,887	64,68
254,43	72,96
254,974	70,35
255,517	66,1
256,06	65,34
256,603	65
257,146	68,21
257,689	71
258,232	77,55
258,774	74,5
259,317	71,33
259,859	63,78
260,401	71
260,943	67,56
261,485	73,78
262,027	67,18
262,569	70,25
263,11	72,44
263,652	67,53
264,193	65,73
264,734	66,97
265,275	72,3
265,816	68,57
266,357	66,21
266,898	65,3
267,438	74,08
267,979	78,1
268,519	71,33
269,059	72,2
269,6	72,91
270,14	68,47
270,68	70,34
271,219	68,99
271,759	77,3
272,298	65,03
272,838	64,22
273,377	64,4
273,916	59,96
274,455	65,03
274,994	66,52
275,533	67,9
276,072	60,09
276,61	69,6
277,149	67,72
277,687	66,82
278,225	62,22
278,763	70,14
279,301	60,89
279,839	70,97
280,377	72,51
280,914	71,46
281,452	69,04
281,989	70,77
282,526	63,52
283,064	60,08
283,601	71,69
284,137	69,76
284,674	66,26
285,211	66,01
285,747	72,32
286,284	63,24
286,82	68,79
287,356	66,89
287,892	62,13
288,428	59,87
288,964	70,12
289,5	63,37
290,035	64,68
290,571	72,44
291,106	61,39
291,641	74,32
292,176	71,64
292,711	68,64
293,246	72,25
293,781	66,14
294,315	74,31
294,85	67,04
295,384	62,47
295,918	62,89
296,453	64,15
296,987	63,03
297,52	65,57
298,054	57,05
298,588	62,83
299,121	64,3
299,655	65,38
300,188	53,08
300,721	72,79
301,254	54,79
301,787	67,55
302,32	62,44
302,853	58,81
303,385	57,71
303,918	57,24
304,45	60,31
304,982	63,33
305,514	53,01
306,046	59,52
306,578	59,04
307,11	61,07
307,641	61,61
308,173	67,27
308,704	58,04
309,236	60,34
309,767	61,41
310,298	59,87
310,829	62,21
311,359	71,73
311,89	55,3
312,421	55,61
312,951	72,79
313,481	64,06
314,012	60,4
314,542	64
315,072	60,55
315,601	59,46
316,131	59,5
316,661	61,11
317,19	58,37
317,72	61,9
318,249	55,76
318,778	61,76
319,307	60,24
319,836	58,2
320,365	57,6
320,893	62,53
321,422	61,29
321,95	66,67
322,479	62,98
323,007	60,63
323,535	56,51
324,063	62,17
324,591	56,26
325,118	60,22
325,646	60,14
326,173	61,64
326,701	66,43
327,228	67,05
327,755	59,81
328,282	60,43
328,809	60,71
329,336	58,2
329,862	60,45
330,389	58,62
330,915	53,64
331,441	65,27
331,968	63,37
332,494	64,5
333,02	53,12
333,545	59,15
334,071	57,59
334,597	62,26
335,122	61,69
335,648	56,19
336,173	54,66
336,698	60,78
337,223	57,48
337,748	51,47
338,272	54,18
338,797	58,57
339,322	62,44
339,846	52,34
340,37	59,24
340,894	49,67
341,419	50,42
341,942	47,87
342,466	52,82
342,99	64,11
343,514	50,73
344,037	47,4
344,56	51,21
345,084	51,7
345,607	52,53
346,13	50
346,653	53,22
347,175	51,31
347,698	55,01
348,221	53,07
348,743	51,3
349,265	48,52
349,787	49,47
350,309	52,48
350,831	47,93
351,353	46,99
351,875	44,8
352,397	49,5
352,918	49,66
353,439	47,73
353,961	53,11
354,482	47,31
355,003	47,3
355,524	44,82
356,044	47,29
356,565	49,54
357,086	43,63
357,606	43,62
358,126	51,48
358,646	51,89
359,167	44,73
359,687	47,8
360,206	48,89
360,726	43,62
361,246	44,41
361,765	41,61
362,285	46,98
362,804	40,73
363,323	44,24
363,842	47,13
364,361	41,84
364,88	40,26
365,398	42,5
365,917	39,77
366,435	37,66
366,954	38,53
367,472	36,46
367,99	42,41
368,508	43,44
369,026	41,86
369,544	40,85
370,061	42,24
370,579	40,2
371,096	39,31
371,613	42,78
372,131	40,8
372,648	37,89
373,165	36,62
373,681	35,59
374,198	40,11
374,715	38,26
375,231	38,43
375,747	36,41
376,264	35,52
376,78	36,65
377,296	36,97
377,812	36,46
378,327	38,92
378,843	33,63
379,359	36,89
379,874	36,14
380,389	34,77
380,905	35,38
381,42	34,11
381,935	35,14
382,449	34,69
382,964	31,99
383,479	35,12
383,993	31,53
384,508	33,45
385,022	31,52
385,536	30,58
386,05	30,48
386,564	28,68
387,078	30,68
387,592	29,93
388,105	30,45
388,619	29,78
389,132	31,02
389,645	30,61
390,158	31,31
390,671	28,67
391,184	27,89
391,697	27,65
392,21	27,91
392,722	25,98
393,235	28,11
393,747	27,01
394,259	24,59
394,771	27,2
395,283	24,8
395,795	24,3
396,307	24,94
396,818	25,52
397,33	25,91
397,841	25,11
398,353	25,31
398,864	23,14
399,375	23,86
399,886	23,11
400,397	22,48
400,907	21,48
401,418	22,03
401,928	21,14
402,439	20,26
402,949	21,31
403,459	19,92
403,969	19,93
404,479	19,19
404,989	18,86
405,498	18,55
406,008	17,6
406,517	17,88
407,027	18,33
407,536	16,43
408,045	15,93
408,554	15,88
409,063	15,55
409,572	14,8
410,08	13,81
410,589	14,23
411,097	14,05
411,606	12,67
412,114	12,09
412,622	12,66
413,13	11,82
413,638	12,44
414,145	11,74
414,653	10,64
415,16	11,59
415,668	10,5
416,175	9,85
416,682	10,6
417,189	10,1
417,696	9,96
418,203	9,71
418,71	9,75
419,216	10
419,723	9,77
420,229	9,51
420,735	8,85
421,242	9,27
421,748	8,67
422,254	9,56
422,759	8,95
423,265	8,72
423,771	8,55
424,276	8,99
424,781	8,64
425,287	8,46
425,792	8,19
426,297	8,22
426,802	8,21
427,306	8,22
427,811	8,37
428,316	8,07
428,82	8,11
429,324	8,11
429,829	8,15
430,333	7,99
430,837	8,12
431,34	7,81
431,844	7,78
432,348	8,12
432,851	7,57
433,355	7,65
433,858	7,86
434,361	7,58
434,864	7,45
435,367	7,45
435,87	7,5
436,373	7,43
436,876	8,11
437,378	7,55
437,88	7,66
438,383	7,34
438,885	7,6
439,387	7,49
439,889	7,46
440,391	7,79
440,892	7,64
441,394	7,37
441,896	7,47
442,397	7,42
442,898	7,37
443,399	7,32
443,9	7,49
444,401	7,26
444,902	7,37
445,403	7,25
445,903	7,62
446,404	7,54
446,904	7,51
447,405	7,45
447,905	7,25
448,405	7,56
448,905	7,46
449,404	7,64
449,904	7,22
450,404	7,69
450,903	7,43
451,403	7,58
451,902	7,65
452,401	7,8
452,9	7,41
453,399	7,53
453,898	7,54
454,396	7,64
454,895	7,78
455,393	7,76
455,892	7,65
456,39	7,56
456,888	7,99
457,386	7,9
457,884	7,53
458,382	7,74
458,879	7,66
459,377	7,44
459,874	7,47
460,372	7,81
460,869	7,51
461,366	7,83
461,863	7,91
462,36	7,6
462,857	7,72
463,353	7,73
463,85	7,8
464,346	7,59
464,843	7,51
465,339	7,62
465,835	7,74
466,331	7,52
466,827	7,43
467,323	7,48
467,818	7,54
468,314	7,47
468,809	7,76
469,305	7,5
469,8	7,64
470,295	7,53
470,79	7,69
471,285	7,62
471,78	7,71
472,274	7,64
472,769	7,8
473,263	7,69
473,758	7,56
474,252	7,75
474,746	7,46
475,24	7,46
475,734	7,53
476,228	7,43
476,721	7,59
477,215	7,82
477,708	7,79
478,202	7,77
478,695	7,52
479,188	7,64
479,681	7,66
480,174	7,84
480,667	7,65
481,159	7,49
481,652	7,66
482,144	7,79
482,637	7,83
483,129	7,87
483,621	7,76
484,113	7,76
484,605	7,83
485,097	7,81
485,588	7,82
486,08	7,64
486,571	7,9
487,063	7,89
487,554	7,88
488,045	7,86
488,536	8,13
489,027	7,96
489,518	7,96
490,008	8,01
490,499	7,89
490,989	7,96
491,48	8,09
491,97	8,27
492,46	8,23
492,95	8,34
493,44	8,2
493,93	8,12
494,419	8,49
494,909	8,52
495,398	8,4
495,888	8,49
496,377	8,57
496,866	8,67
497,355	8,88
497,844	8,99
498,333	9,02
498,821	9,07
499,31	9,16
499,798	9,18
500,287	9,29
500,775	9,6
501,263	9,7
501,751	9,68
502,239	9,97
502,727	9,97
503,215	10,05
503,702	10,17
504,19	10,58
504,677	10,66
505,164	11,03
505,651	10,91
506,139	11,23
506,625	11,53
507,112	11,63
507,599	11,95
508,086	12,29
508,572	12,41
509,058	12,69
509,545	12,77
510,031	13,21
510,517	13,42
511,003	13,8
511,489	14,16
511,974	14,59
512,46	14,84
512,946	15,08
513,431	15,49
513,916	15,56
514,401	16,09
514,887	16,55
515,371	16,92
515,856	17,18
516,341	17,71
516,826	17,99
517,31	18,14
517,795	19,07
518,279	19,36
518,763	19,84
519,247	20,28
519,731	20,82
520,215	20,94
520,699	21,64
521,182	22,11
521,666	22,7
522,149	22,92
522,633	23,5
523,116	23,92
523,599	24,42
524,082	24,85
524,565	25,66
525,048	25,71
525,53	25,83
526,013	26,51
526,495	27,15
526,978	27,31
527,46	27,67
527,942	28,06
528,424	28,25
528,906	28,89
529,388	29,38
529,87	29,44
530,351	29,64
530,833	30
531,314	30,48
531,795	30,74
532,277	30,57
532,758	31,17
533,238	31,38
533,719	31,63
534,2	31,89
534,681	31,83
535,161	32,06
535,642	32,22
536,122	32,74
536,602	32,47
537,082	32,66
537,562	33,04
538,042	32,82
538,522	33,23
539,001	32,98
539,481	33,33
539,96	33,56
540,44	33,75
540,919	33,44
541,398	34
541,877	33,74
542,356	33,85
542,835	33,91
543,313	33,88
543,792	33,69
544,27	34,2
544,749	33,91
545,227	34,48
545,705	34,24
546,183	34,22
546,661	34,46
547,139	34,5
547,616	34,4
548,094	34,44
548,571	34,77
549,049	34,83
549,526	35,14
550,003	35,1
550,48	34,81
550,957	34,98
551,434	34,88
551,911	34,93
552,387	35,03
552,864	34,99
553,34	35,11
553,817	35,02
554,293	35,2
554,769	35,15
555,245	35,32
555,721	34,89
556,197	34,99
556,672	34,7
557,148	34,48
557,623	34,5
558,099	34,37
558,574	34,81
559,049	34,33
559,524	34,32
559,999	33,86
560,474	34,19
560,948	34,11
561,423	34,14
561,897	33,94
562,372	33,69
562,846	33,29
563,32	33,64
563,794	33,02
564,268	32,76
564,742	32,7
565,216	32,59
565,69	32,27
566,163	32,05
566,636	31,77
567,11	31,74
567,583	31,47
568,056	31,14
568,529	30,92
569,002	30,7
569,475	30,64
569,947	30,17
570,42	29,69
570,892	29,41
571,365	29,25
571,837	29,06
572,309	28,8
572,781	28,36
573,253	28,11
573,725	27,9
574,197	27,43
574,668	27,45
575,14	27,24
575,611	26,78
576,082	26,69
576,554	26,65
577,025	26,38
577,496	26,07
577,967	25,95
578,437	25,75
578,908	25,34
579,379	25
579,849	24,93
580,319	24,78
580,79	24,65
581,26	24,01
581,73	24,26
582,2	24,06
582,669	23,91
583,139	24,01
583,609	23,63
584,078	23,65
584,548	23,47
585,017	23,33
585,486	23,04
585,955	22,99
586,424	22,96
586,893	22,76
587,362	22,5
587,83	22,36
588,299	22,43
588,767	22,18
589,236	22,2
589,704	22,2
590,172	21,8
590,64	21,69
591,108	21,72
591,576	21,58
592,043	21,5
592,511	21,28
592,978	21,41
593,446	21,29
593,913	21,12
594,38	20,99
594,847	21,04
595,314	20,98
595,781	20,88
596,248	20,97
596,715	21,05
597,181	20,69
597,647	20,75
598,114	20,79
598,58	20,6
599,046	20,7
599,512	20,67
599,978	20,41
600,444	20,6
600,91	20,31
601,375	20,38
601,841	20,42
602,306	20,33
602,771	20,14
603,236	19,98
603,702	20,04
604,167	20,02
604,631	19,95
605,096	19,77
605,561	19,75
606,025	19,58
606,49	19,3
606,954	19,29
607,418	19,24
607,882	19,03
608,347	18,94
608,81	18,79
609,274	18,63
609,738	18,57
610,202	18,49
610,665	18,44
611,128	18,24
611,592	18,1
612,055	17,83
612,518	17,82
612,981	17,8
613,444	17,52
613,907	17,39
614,369	17,32
614,832	17,12
615,294	16,96
615,757	16,88
616,219	16,91
616,681	16,74
617,143	16,59
617,605	16,52
618,067	16,24
618,529	16,25
618,99	16,25
619,452	16,11
619,913	16,01
620,375	15,88
620,836	15,68
621,297	15,79
621,758	15,61
622,219	15,51
622,68	15,66
623,14	15,64
623,601	15,49
624,061	15,33
624,522	15,36
624,982	15,29
625,442	15,26
625,902	15,05
626,362	15,06
626,822	15,1
627,282	14,95
627,742	15,08
628,201	15,3
628,661	15,07
629,12	14,91
629,579	14,84
630,038	14,99
630,497	14,91
630,956	14,91
631,415	15
631,874	14,87
632,332	14,8
632,791	14,74
633,249	14,92
633,708	14,69
634,166	14,58
634,624	14,53
635,082	14,4
635,54	14,44
635,998	14,29
636,455	14,05
636,913	13,99
637,37	13,88
637,828	13,79
638,285	13,74
638,742	13,65
639,199	13,31
639,656	13,2
640,113	13,07
640,57	12,93
641,027	12,78
641,483	12,63
641,94	12,57
642,396	12,33
642,852	12,31
643,309	12,14
643,765	11,87
644,221	11,69
644,676	11,67
645,132	11,47
645,588	11,4
646,043	11,15
646,499	11,03
646,954	10,92
647,409	10,9
647,864	10,79
648,319	10,62
648,774	10,5
649,229	10,36
649,684	10,28
650,139	10,24
650,593	10,08
651,047	10,15
651,502	10,08
651,956	10
652,41	9,91
652,864	9,75
653,318	9,91
653,772	9,77
654,225	9,62
654,679	9,58
655,133	9,63
655,586	9,47
656,039	9,55
656,492	9,35
656,946	9,3
657,399	9,24
657,851	9,22
658,304	9,17
658,757	9,07
659,209	9,05
659,662	8,71
660,114	8,88
660,567	8,66
661,019	8,64
661,471	8,53
661,923	8,55
662,375	8,35
662,826	8,21
663,278	8,27
663,73	8,15
664,181	8,12
664,632	8,13
665,084	8,06
665,535	7,98
665,986	8,04
666,437	7,96
666,888	7,97
667,338	8,03
667,789	7,96
668,24	7,93
668,69	8
669,14	7,96
669,591	8,01
670,041	8,01
670,491	8,08
670,941	8,12
671,391	8,19
671,84	8,18
672,29	8,26
672,74	8,37
673,189	8,44
673,638	8,54
674,088	8,59
674,537	8,73
674,986	8,7
675,435	8,89
675,883	8,95
676,332	9,03
676,781	9,1
677,229	9,26
677,678	9,25
678,126	9,48
678,574	9,59
679,022	9,7
679,47	9,88
679,918	10,12
680,366	10,14
680,814	10,15
681,261	10,32
681,709	10,52
682,156	10,54
682,604	10,83
683,051	10,85
683,498	11,07
683,945	11,23
684,392	11,39
684,839	11,43
685,286	11,64
685,732	11,82
686,179	11,84
686,625	12,12
687,071	12,26
687,518	12,44
687,964	12,67
688,41	12,91
688,856	13,21
689,301	13,55
689,747	13,99
690,193	14,29
690,638	14,76
691,084	15,4
691,529	15,67
691,974	16,4
692,419	16,97
692,864	17,6
693,309	18,42
693,754	19,11
694,199	19,81
694,643	20,57
695,088	21,41
695,532	22,26
695,977	23,15
696,421	23,91
696,865	24,72
697,309	25,82
697,753	26,58
698,197	27,45
698,64	28,36
699,084	29,2
699,527	30,17
699,971	30,96
700,414	31,92
700,857	32,89
701,3	33,92
701,743	34,67
702,186	35,49
702,629	36,69
703,072	37,25
703,515	38,14
703,957	39,22
704,399	40,04
704,842	40,74
705,284	41,62
705,726	42,33
706,168	43,16
706,61	44,23
707,052	44,91
707,494	45,78
707,935	46,38
708,377	47,17
708,818	48,17
709,26	48,73
709,701	49,5
710,142	50,41
710,583	51,14
711,024	51,64
711,465	52,27
711,905	53,29
712,346	53,99
712,787	54,55
713,227	55,11
713,667	55,93
714,108	56,64
714,548	57,2
714,988	57,7
715,428	58,37
715,868	59,18
716,307	59,74
716,747	60,55
717,186	61,14
717,626	61,63
718,065	62,13
718,504	62,95
718,944	63,72
719,383	63,96
719,822	64,65
720,261	64,94
720,699	65,48
721,138	66,23
721,576	66,81
722,015	67,09
722,453	67,72
722,892	68,11
723,33	68,39
723,768	69,23
724,206	69,48
724,644	69,94
725,081	70,54
725,519	70,7
725,957	71,27
726,394	71,42
726,832	71,85
727,269	72,14
727,706	72,55
728,143	72,75
728,58	73,16
729,017	73,6
729,454	73,94
729,89	74,16
730,327	74,24
730,764	74,68
731,2	75,24
731,636	74,84
732,072	75,37
732,509	75,85
732,945	75,54
733,38	75,98
733,816	76,08
734,252	76,25
734,688	76,7
735,123	77,04
735,559	76,88
735,994	77,23
736,429	77,57
736,864	77,44
737,299	77,53
737,734	77,73
738,169	78,02
738,604	77,93
739,038	78,13
739,473	78,45
739,907	78,31
740,342	78,38
740,776	78,51
741,21	78,69
741,644	78,71
742,078	78,69
742,512	79,06
742,946	78,91
743,379	78,8
743,813	78,86
744,246	79,31
744,68	79,24
745,113	78,87
745,546	79,07
745,979	79,19
746,412	79,3
746,845	79,33
747,278	79,17
747,711	79,63
748,143	79,54
748,576	79,55
749,008	79,3
749,441	79,18
749,873	78,81
750,305	79
750,737	79,21
751,169	79,23
751,601	79,49
752,032	79,41
752,464	79,31
752,896	79,19
753,327	79,03
753,758	79,3
754,19	79
754,621	79
755,052	79,12
755,483	78,85
755,914	78,63
756,344	78,8
756,775	78,83
757,206	78,83
757,636	78,74
758,066	78,88
758,497	78,43
758,927	78,97
759,357	78,88
759,787	78,61
760,217	78,74
760,647	78,5
761,076	79,09
761,506	78,62
761,935	78,41
762,365	78,28
762,794	78,63
763,223	78,22
763,653	78,23
764,082	78,55
764,51	78,49
764,939	78,41
765,368	78,34
765,797	78,36
766,225	78,11
766,654	78,23
767,082	78,24
767,51	78,19
767,938	78,09
768,367	78,23
768,795	78,17
769,222	77,97
769,65	78,13
770,078	78,15
770,505	78,08
770,933	77,97
771,36	77,52
771,788	78,03
772,215	77,84
772,642	77,98
773,069	77,67
773,496	77,81
773,923	78,05
774,349	77,99
774,776	78,1
775,203	77,78
775,629	77,77
776,055	77,9
776,482	77,61
776,908	77,87
777,334	77,45
777,76	77,51
778,186	77,86
778,611	77,52
779,037	77,65
779,463	77,6
779,888	77,73
780,314	77,69
780,739	77,49
781,164	77,72
781,589	77,3
782,014	77,53
782,439	77,35
782,864	77,38
783,289	77,46
783,713	77,36
784,138	77,23
784,562	77,4
784,987	77,54
785,411	77,36
785,835	77,62
786,259	77,41
786,683	77,59
787,107	77,22
787,531	77,71
787,954	77,26
788,378	77,29
788,802	76,99
789,225	77,23
789,648	77,41
790,071	77,52
790,495	77,14
790,918	77,39
791,34	77,25
791,763	77,23
792,186	77,6
792,609	77,17
793,031	77,25
793,454	77,12
793,876	77,03
794,298	77,08
794,721	77,24
795,143	76,94
795,565	77,39
795,986	77,07
796,408	77,27
796,83	77,37
797,252	77,25
797,673	76,94
798,094	77,14
798,516	77,16
798,937	76,99
799,358	77,18
799,779	77
800,2	77,02
800,621	77,26
801,042	77,19
801,462	76,92
801,883	76,91
802,303	76,93
802,724	76,85
803,144	77,52
803,564	77,24
803,984	77,02
804,404	77,05
804,824	76,84
805,244	76,98
805,664	76,88
806,084	77,16
806,503	77,2
806,923	77,13
807,342	77,24
807,761	76,86
808,18	77,2
808,599	76,83
809,018	76,88
809,437	77,2
809,856	77,18
810,275	77,09
810,693	77,4
811,112	77,08
811,53	77,1
811,949	77,47
812,367	76,95
812,785	76,95
813,203	77,08
813,621	77,01
814,039	76,76
814,457	77,12
814,874	77,18
815,292	76,74
815,709	77
816,127	77,32
816,544	77,13
816,961	77,07
817,378	76,97
817,795	77,02
818,212	77,25
818,629	77,09
819,046	76,71
819,462	76,85
819,879	76,9
820,295	76,79
820,712	76,79
821,128	77,14
821,544	76,79
821,96	76,79
822,376	77
822,792	76,88
823,208	76,77
823,624	77,06
824,039	77,39
824,455	76,81
824,87	76,98
825,286	77,17
825,701	77,02
826,116	76,97
826,531	76,7
826,946	76,6
827,361	77,13
827,776	76,85
828,19	76,59
828,605	76,94
829,02	77
829,434	76,76
829,848	76,61
830,263	76,69
830,677	76,96
831,091	77,06
831,505	76,8
831,919	76,99
832,332	76,83
832,746	76,72
833,16	76,67
833,573	76,57
833,987	76,95
834,4	76,68
834,813	76,66
835,226	76,92
835,639	76,76
836,052	76,61
836,465	76,93
836,878	76,72
837,29	77,01
837,703	76,89
838,116	76,91
838,528	76,88
838,94	76,64
839,352	76,89
839,765	76,58
840,177	76,7
840,589	77,01
841	76,76
