Data from B_1_0_Relative__15__00035.txt Node

Date: Mon Jan 29 12:50:25 CET 2024
User: diatiterra
Spectrometer: HDX00911
Trigger mode: 0
Integration Time (sec): 6,000000E-3
Scans to average: 4
Nonlinearity correction enabled: false
Boxcar width: 0
Storing dark spectrum: false
XAxis mode: Wavelengths
Number of Pixels in Spectrum: 2068
>>>>>Begin Spectral Data<<<<<
194,468	75,61
195,025	71,86
195,581	88,95
196,138	57,89
196,694	71,95
197,251	69,5
197,807	73,87
198,363	61,77
198,919	65,74
199,474	67,56
200,03	67,55
200,586	63,83
201,141	62,61
201,696	64,95
202,251	60,9
202,806	62,83
203,361	63,71
203,916	65,67
204,471	64,4
205,025	68,82
205,58	64,65
206,134	61,19
206,688	67,03
207,242	65,61
207,796	65,92
208,35	65,83
208,904	64,08
209,457	65,59
210,011	68,92
210,564	66,53
211,117	73,89
211,67	67,81
212,223	64,67
212,776	62,5
213,329	61,21
213,881	59,55
214,434	57,23
214,986	70,52
215,538	68,58
216,09	71,56
216,642	71,09
217,194	63,12
217,746	72,67
218,297	65,88
218,849	64,59
219,4	70,56
219,951	70,44
220,502	61,46
221,053	68,07
221,604	67,29
222,155	69,89
222,705	67,43
223,256	64,86
223,806	64,57
224,356	63,68
224,906	62,47
225,456	64
226,006	68,41
226,556	65,34
227,106	76,56
227,655	67,16
228,204	63,05
228,754	66,53
229,303	70,99
229,852	72,79
230,401	64,41
230,949	74,29
231,498	70
232,047	65,31
232,595	63,6
233,143	66,96
233,691	64,96
234,239	68,08
234,787	68,64
235,335	66,67
235,883	65,54
236,43	64,05
236,978	66,2
237,525	61,16
238,072	70,81
238,619	68,22
239,166	74,17
239,713	62,32
240,26	63,28
240,806	71,86
241,353	63,22
241,899	68,28
242,445	61,44
242,991	67,9
243,537	60,89
244,083	63,9
244,629	62,08
245,174	64,19
245,72	65,33
246,265	66,9
246,81	64,79
247,355	75,53
247,9	68,27
248,445	61,19
248,99	66,94
249,534	61,68
250,079	60,67
250,623	64,73
251,168	62,86
251,712	61,94
252,256	59,57
252,8	67,97
253,343	58,29
253,887	68,09
254,43	59,01
254,974	63,06
255,517	58,42
256,06	64,68
256,603	54,77
257,146	60,79
257,689	66,02
258,232	62,59
258,774	59,41
259,317	58,92
259,859	66,06
260,401	61,47
260,943	56,44
261,485	62,22
262,027	64,33
262,569	61,5
263,11	61,97
263,652	66,82
264,193	63,12
264,734	55,05
265,275	67,14
265,816	59,56
266,357	63,72
266,898	60,96
267,438	65,83
267,979	59,73
268,519	68,49
269,059	62,62
269,6	61,63
270,14	64,64
270,68	70,13
271,219	61,18
271,759	65,62
272,298	54,34
272,838	60,55
273,377	63,17
273,916	57,27
274,455	67,71
274,994	62,56
275,533	67,21
276,072	64,16
276,61	58,15
277,149	74,03
277,687	59,73
278,225	55,88
278,763	67,87
279,301	58,22
279,839	63,87
280,377	62,56
280,914	65,2
281,452	66,28
281,989	62,2
282,526	58,15
283,064	55,85
283,601	60,56
284,137	65,48
284,674	64,32
285,211	64,27
285,747	60,62
286,284	68,04
286,82	61,96
287,356	69,32
287,892	63,72
288,428	53,43
288,964	77,65
289,5	67,42
290,035	65,56
290,571	65,61
291,106	63,12
291,641	68,86
292,176	68,46
292,711	58,77
293,246	60,09
293,781	65,69
294,315	59,1
294,85	57,96
295,384	62,25
295,918	63,11
296,453	62,26
296,987	58,77
297,52	66,45
298,054	59,51
298,588	60,22
299,121	57,43
299,655	66,06
300,188	52,39
300,721	66,74
301,254	64,16
301,787	73,37
302,32	62,9
302,853	57,49
303,385	61,45
303,918	63,47
304,45	60,09
304,982	63,56
305,514	61,34
306,046	61,71
306,578	64,76
307,11	60,37
307,641	57,59
308,173	60,91
308,704	58,26
309,236	63,75
309,767	60,71
310,298	70,51
310,829	67,14
311,359	63,55
311,89	61,63
312,421	56,95
312,951	62,33
313,481	59,45
314,012	61,07
314,542	61,41
315,072	59,8
315,601	61,71
316,131	60,87
316,661	57,25
317,19	61,31
317,72	55,24
318,249	57,79
318,778	68,14
319,307	62,35
319,836	68,59
320,365	64,06
320,893	67,18
321,422	65,9
321,95	62
322,479	61,63
323,007	55,07
323,535	62,79
324,063	63,59
324,591	66,9
325,118	60,22
325,646	67,22
326,173	65,98
326,701	69,29
327,228	59,55
327,755	62,44
328,282	71,12
328,809	61,81
329,336	59,58
329,862	62,27
330,389	63,22
330,915	56,36
331,441	59,67
331,968	65,3
332,494	61
333,02	51,61
333,545	59,56
334,071	53,35
334,597	58,65
335,122	60,8
335,648	58,25
336,173	54,45
336,698	62,16
337,223	50,11
337,748	56,93
338,272	50,63
338,797	55,53
339,322	53,62
339,846	52,55
340,37	59,24
340,894	51,22
341,419	53,36
341,942	53,35
342,466	60,54
342,99	50,41
343,514	64,36
344,037	54,2
344,56	51,42
345,084	55,3
345,607	49,1
346,13	51,34
346,653	50,76
347,175	49,74
347,698	56,39
348,221	55,68
348,743	59,48
349,265	58,61
349,787	52,85
350,309	54,02
350,831	57,41
351,353	59,55
351,875	57,89
352,397	55,67
352,918	58,7
353,439	61,54
353,961	56,47
354,482	53,03
355,003	47,46
355,524	53,51
356,044	54,3
356,565	55,32
357,086	50,67
357,606	53,63
358,126	57,12
358,646	55,5
359,167	56,28
359,687	52,2
360,206	57,9
360,726	50,43
361,246	56,18
361,765	56,67
362,285	55,96
362,804	54,4
363,323	54,07
363,842	54,07
364,361	49,87
364,88	52,5
365,398	59,21
365,917	56,84
366,435	50,26
366,954	52,87
367,472	52,12
367,99	52,14
368,508	52,85
369,026	50,92
369,544	50,49
370,061	50,29
370,579	51,42
371,096	51,56
371,613	51,42
372,131	52,27
372,648	45,21
373,165	50
373,681	53,33
374,198	51,65
374,715	51,75
375,231	51,52
375,747	43,57
376,264	46,62
376,78	49,03
377,296	48,25
377,812	50,68
378,327	46,71
378,843	46,53
379,359	48,28
379,874	47,92
380,389	44,84
380,905	48,44
381,42	45,42
381,935	45,32
382,449	47,1
382,964	42,93
383,479	45,22
383,993	43,04
384,508	44,48
385,022	44,01
385,536	41,63
386,05	42,26
386,564	40,27
387,078	41,29
387,592	44,2
388,105	39,23
388,619	38,47
389,132	39,42
389,645	42,15
390,158	41,54
390,671	38,75
391,184	39,39
391,697	38,58
392,21	39,13
392,722	37,85
393,235	38,49
393,747	34,4
394,259	35,34
394,771	37,58
395,283	34,6
395,795	35,56
396,307	34,05
396,818	33,46
397,33	35,43
397,841	34,86
398,353	34,61
398,864	33,17
399,375	32,33
399,886	31,8
400,397	33,29
400,907	31,11
401,418	31,33
401,928	30,47
402,439	29,61
402,949	31,13
403,459	28,96
403,969	28,58
404,479	27,95
404,989	26,75
405,498	26,59
406,008	26,25
406,517	26,34
407,027	24,45
407,536	24,34
408,045	22,47
408,554	23,91
409,063	22,34
409,572	23,21
410,08	20,53
410,589	20,39
411,097	20,62
411,606	20,22
412,114	19,78
412,622	18,3
413,13	18,8
413,638	17,22
414,145	18,11
414,653	16,74
415,16	16,51
415,668	16,44
416,175	16,12
416,682	15,21
417,189	15,51
417,696	15,53
418,203	14,77
418,71	14,38
419,216	14,33
419,723	14,43
420,229	14,26
420,735	13,82
421,242	14,6
421,748	13,2
422,254	14,09
422,759	13,22
423,265	13,41
423,771	13,55
424,276	13,12
424,781	12,74
425,287	12,58
425,792	12,69
426,297	12,88
426,802	12,64
427,306	12,57
427,811	12,38
428,316	12,68
428,82	12,79
429,324	12,74
429,829	12,93
430,333	12,7
430,837	12,43
431,34	12,62
431,844	12,35
432,348	12,16
432,851	11,97
433,355	12,42
433,858	12,37
434,361	12,54
434,864	12,13
435,367	12,16
435,87	12,53
436,373	11,87
436,876	12,4
437,378	12,02
437,88	12,04
438,383	12,18
438,885	11,94
439,387	12,21
439,889	12,07
440,391	12,26
440,892	12,3
441,394	11,65
441,896	11,82
442,397	12,31
442,898	12,17
443,399	12,09
443,9	12,2
444,401	12,04
444,902	11,97
445,403	12,34
445,903	12,31
446,404	11,92
446,904	12,24
447,405	12,37
447,905	12,15
448,405	12,41
448,905	12,38
449,404	12,25
449,904	12,2
450,404	11,99
450,903	11,92
451,403	12,47
451,902	12,6
452,401	11,89
452,9	12,3
453,399	12,18
453,898	12,29
454,396	12,72
454,895	12,41
455,393	12,67
455,892	12,4
456,39	12,16
456,888	12,91
457,386	12,55
457,884	12,57
458,382	12,48
458,879	12,85
459,377	12,64
459,874	12,33
460,372	12,68
460,869	12,55
461,366	12,48
461,863	12,71
462,36	12,52
462,857	12,55
463,353	12,54
463,85	12,38
464,346	12,58
464,843	12,51
465,339	12,63
465,835	12,32
466,331	12,58
466,827	12,74
467,323	12,53
467,818	12,59
468,314	12,37
468,809	12,42
469,305	12,38
469,8	12,24
470,295	12,6
470,79	12,53
471,285	12,45
471,78	12,43
472,274	12,35
472,769	12,53
473,263	12,64
473,758	12,28
474,252	12,84
474,746	12,53
475,24	12,35
475,734	12,46
476,228	12,43
476,721	12,32
477,215	13,08
477,708	12,79
478,202	12,83
478,695	12,95
479,188	12,52
479,681	12,39
480,174	12,77
480,667	12,61
481,159	12,62
481,652	12,53
482,144	12,72
482,637	12,77
483,129	12,82
483,621	12,79
484,113	12,73
484,605	12,73
485,097	12,74
485,588	12,65
486,08	12,52
486,571	12,73
487,063	12,61
487,554	12,99
488,045	12,88
488,536	13,08
489,027	13,12
489,518	12,98
490,008	12,96
490,499	13,12
490,989	13,26
491,48	12,88
491,97	13,07
492,46	13,19
492,95	13,18
493,44	13,47
493,93	13,14
494,419	13,23
494,909	13,17
495,398	13,25
495,888	13,73
496,377	13,48
496,866	13,48
497,355	13,23
497,844	13,69
498,333	13,74
498,821	14
499,31	13,75
499,798	13,89
500,287	14,43
500,775	14,25
501,263	14,16
501,751	14,05
502,239	14,4
502,727	14,67
503,215	14,92
503,702	15,09
504,19	14,9
504,677	14,91
505,164	15,3
505,651	15,3
506,139	15,63
506,625	15,74
507,112	16,01
507,599	16,19
508,086	16,46
508,572	16,6
509,058	16,77
509,545	17,09
510,031	17,31
510,517	17,59
511,003	18,16
511,489	18,18
511,974	18,43
512,46	19,03
512,946	19,01
513,431	19,13
513,916	19,22
514,401	19,7
514,887	20,2
515,371	20,64
515,856	20,98
516,341	21,24
516,826	21,91
517,31	22,01
517,795	22,52
518,279	22,81
518,763	23,1
519,247	23,8
519,731	23,84
520,215	24,59
520,699	25,22
521,182	25,45
521,666	25,86
522,149	26,39
522,633	26,75
523,116	27,21
523,599	27,73
524,082	28,1
524,565	28,48
525,048	28,94
525,53	28,99
526,013	29,74
526,495	29,93
526,978	30,4
527,46	31,15
527,942	31,18
528,424	31,29
528,906	32,06
529,388	31,99
529,87	32,49
530,351	32,55
530,833	33,02
531,314	33,2
531,795	33,35
532,277	33,57
532,758	34,15
533,238	34,25
533,719	34,45
534,2	34,55
534,681	34,51
535,161	34,85
535,642	34,97
536,122	35,41
536,602	35,32
537,082	35,54
537,562	35,76
538,042	35,63
538,522	35,92
539,001	35,75
539,481	35,85
539,96	36,04
540,44	36,25
540,919	36,38
541,398	36,56
541,877	36,22
542,356	36,47
542,835	36,69
543,313	36,69
543,792	36,4
544,27	36,59
544,749	36,46
545,227	36,83
545,705	37,03
546,183	36,8
546,661	36,75
547,139	37,01
547,616	37,62
548,094	36,83
548,571	37,45
549,049	37,37
549,526	37,67
550,003	37,5
550,48	37,57
550,957	37,54
551,434	37,57
551,911	37,48
552,387	37,78
552,864	37,67
553,34	37,24
553,817	37,49
554,293	37,84
554,769	37,64
555,245	37,72
555,721	37,37
556,197	37,71
556,672	37,12
557,148	37,48
557,623	37,1
558,099	37,19
558,574	37,85
559,049	37,36
559,524	36,91
559,999	36,66
560,474	37,03
560,948	36,71
561,423	36,43
561,897	36,51
562,372	36,47
562,846	35,86
563,32	36,21
563,794	35,96
564,268	35,77
564,742	35,39
565,216	35,26
565,69	34,88
566,163	34,76
566,636	34,55
567,11	34,5
567,583	34
568,056	33,89
568,529	33,69
569,002	33,32
569,475	33,47
569,947	33,16
570,42	32,3
570,892	32,58
571,365	32,23
571,837	31,99
572,309	31,7
572,781	31,28
573,253	31,19
573,725	30,65
574,197	30,4
574,668	30,14
575,14	30,04
575,611	29,8
576,082	29,77
576,554	29,66
577,025	29,37
577,496	29,09
577,967	28,98
578,437	28,74
578,908	28,56
579,379	28,28
579,849	28,1
580,319	27,81
580,79	27,83
581,26	27,58
581,73	27,62
582,2	27,08
582,669	27,09
583,139	27,21
583,609	26,76
584,078	26,52
584,548	26,45
585,017	26,37
585,486	26,05
585,955	26,13
586,424	26,1
586,893	25,91
587,362	25,78
587,83	25,68
588,299	25,45
588,767	25,45
589,236	25,4
589,704	25,26
590,172	25,22
590,64	24,89
591,108	24,89
591,576	24,95
592,043	24,78
592,511	24,67
592,978	24,54
593,446	24,37
593,913	24,47
594,38	24,56
594,847	24,2
595,314	24,25
595,781	24,28
596,248	24,39
596,715	24,2
597,181	24,18
597,647	23,97
598,114	24,24
598,58	23,84
599,046	24
599,512	23,8
599,978	23,7
600,444	23,87
600,91	23,55
601,375	23,6
601,841	23,51
602,306	23,53
602,771	23,49
603,236	23,39
603,702	23,18
604,167	23,4
604,631	23,16
605,096	23,19
605,561	23,12
606,025	22,79
606,49	22,66
606,954	22,95
607,418	22,54
607,882	22,52
608,347	22,28
608,81	22,29
609,274	21,82
609,738	21,94
610,202	22,08
610,665	21,84
611,128	21,62
611,592	21,55
612,055	21,43
612,518	21,13
612,981	21,33
613,444	21,03
613,907	20,94
614,369	20,74
614,832	20,66
615,294	20,71
615,757	20,43
616,219	20,51
616,681	20,29
617,143	20,18
617,605	20,32
618,067	19,96
618,529	20,04
618,99	19,8
619,452	19,8
619,913	19,58
620,375	19,51
620,836	19,46
621,297	19,48
621,758	19,27
622,219	19,4
622,68	19,34
623,14	19,07
623,601	19,12
624,061	18,9
624,522	18,94
624,982	19,05
625,442	18,97
625,902	19,11
626,362	18,82
626,822	18,77
627,282	18,8
627,742	18,93
628,201	18,67
628,661	18,75
629,12	18,59
629,579	18,67
630,038	18,63
630,497	18,76
630,956	18,51
631,415	18,57
631,874	18,4
632,332	18,48
632,791	18,53
633,249	18,3
633,708	18,16
634,166	18,29
634,624	18,03
635,082	18,04
635,54	18,15
635,998	17,98
636,455	17,71
636,913	17,67
637,37	17,68
637,828	17,44
638,285	17,42
638,742	17,23
639,199	17,25
639,656	16,93
640,113	16,84
640,57	16,81
641,027	16,63
641,483	16,41
641,94	16,51
642,396	16,12
642,852	16,09
643,309	16,03
643,765	15,84
644,221	15,74
644,676	15,49
645,132	15,48
645,588	15,2
646,043	15,25
646,499	15,13
646,954	15
647,409	14,76
647,864	14,8
648,319	14,75
648,774	14,61
649,229	14,37
649,684	14,47
650,139	14,27
650,593	14,25
651,047	14,14
651,502	14,05
651,956	14,09
652,41	13,93
652,864	13,99
653,318	13,91
653,772	13,89
654,225	13,8
654,679	13,64
655,133	13,71
655,586	13,56
656,039	13,61
656,492	13,6
656,946	13,48
657,399	13,45
657,851	13,34
658,304	13,23
658,757	13,12
659,209	13,3
659,662	12,98
660,114	13,07
660,567	12,89
661,019	12,93
661,471	12,77
661,923	12,69
662,375	12,61
662,826	12,65
663,278	12,69
663,73	12,45
664,181	12,44
664,632	12,44
665,084	12,4
665,535	12,38
665,986	12,53
666,437	12,4
666,888	12,45
667,338	12,42
667,789	12,43
668,24	12,34
668,69	12,42
669,14	12,43
669,591	12,46
670,041	12,46
670,491	12,53
670,941	12,57
671,391	12,69
671,84	12,6
672,29	12,81
672,74	12,73
673,189	12,87
673,638	12,88
674,088	12,98
674,537	13,12
674,986	13,14
675,435	13,24
675,883	13,3
676,332	13,47
676,781	13,45
677,229	13,55
677,678	13,74
678,126	13,92
678,574	13,95
679,022	14
679,47	14,22
679,918	14,39
680,366	14,42
680,814	14,58
681,261	14,74
681,709	14,7
682,156	14,96
682,604	15,02
683,051	15,18
683,498	15,27
683,945	15,42
684,392	15,52
684,839	15,57
685,286	15,63
685,732	15,84
686,179	16,04
686,625	16,18
687,071	16,2
687,518	16,4
687,964	16,67
688,41	16,74
688,856	16,94
689,301	17,2
689,747	17,4
690,193	17,81
690,638	18,23
691,084	18,66
691,529	18,98
691,974	19,4
692,419	20,07
692,864	20,59
693,309	21,07
693,754	21,6
694,199	22,43
694,643	22,88
695,088	23,69
695,532	24,4
695,977	25,17
696,421	25,87
696,865	26,78
697,309	27,6
697,753	28,59
698,197	29,07
698,64	30,05
699,084	30,78
699,527	31,7
699,971	32,47
700,414	33,25
700,857	33,98
701,3	34,97
701,743	35,7
702,186	36,53
702,629	37,49
703,072	38,18
703,515	39,02
703,957	40,06
704,399	40,68
704,842	41,47
705,284	41,99
705,726	43,1
706,168	43,65
706,61	44,64
707,052	45,25
707,494	45,89
707,935	46,53
708,377	47,38
708,818	48,2
709,26	48,65
709,701	49,49
710,142	50,09
710,583	50,73
711,024	51,55
711,465	52,04
711,905	53,08
712,346	53,74
712,787	54,16
713,227	54,96
713,667	55,27
714,108	56,11
714,548	56,83
714,988	57,37
715,428	58,19
715,868	58,51
716,307	59,07
716,747	59,78
717,186	60,2
717,626	60,74
718,065	61,08
718,504	62
718,944	62,82
719,383	63
719,822	63,52
720,261	63,53
720,699	64,55
721,138	64,93
721,576	65,65
722,015	65,94
722,453	66,11
722,892	66,44
723,33	67,21
723,768	67,66
724,206	67,89
724,644	68,43
725,081	68,73
725,519	69,42
725,957	69,58
726,394	69,68
726,832	70,2
727,269	70,27
727,706	71,17
728,143	71,33
728,58	71,46
729,017	71,85
729,454	72,28
729,89	72,05
730,327	72,45
730,764	72,63
731,2	73,12
731,636	73,32
732,072	73,57
732,509	73,67
732,945	73,75
733,38	73,99
733,816	74,11
734,252	74,05
734,688	74,54
735,123	74,84
735,559	74,79
735,994	75,12
736,429	75,52
736,864	75,33
737,299	75,39
737,734	75,38
738,169	75,78
738,604	75,92
739,038	76,02
739,473	76,03
739,907	76,09
740,342	76,23
740,776	76,21
741,21	76,19
741,644	76,28
742,078	76,33
742,512	76,19
742,946	76,2
743,379	76,36
743,813	76,32
744,246	76,43
744,68	76,51
745,113	76,43
745,546	76,55
745,979	76,83
746,412	76,75
746,845	76,7
747,278	76,43
747,711	76,78
748,143	76,92
748,576	76,45
749,008	76,48
749,441	76,85
749,873	76,31
750,305	76,23
750,737	76,36
751,169	76,42
751,601	76,41
752,032	76,66
752,464	76,45
752,896	76,41
753,327	76,45
753,758	76,48
754,19	76,38
754,621	76,27
755,052	76,18
755,483	76,01
755,914	75,64
756,344	76,06
756,775	76,08
757,206	75,98
757,636	75,98
758,066	76,16
758,497	75,68
758,927	75,79
759,357	76,01
759,787	75,77
760,217	75,73
760,647	75,7
761,076	75,93
761,506	75,6
761,935	75,46
762,365	75,56
762,794	75,52
763,223	75,23
763,653	75,43
764,082	75,12
764,51	75,3
764,939	75,42
765,368	75,15
765,797	75,01
766,225	75,04
766,654	75,26
767,082	75,25
767,51	75,14
767,938	75,25
768,367	75,4
768,795	75,01
769,222	74,7
769,65	74,82
770,078	74,84
770,505	75,02
770,933	75,16
771,36	74,78
771,788	75,13
772,215	74,86
772,642	74,99
773,069	74,72
773,496	74,57
773,923	74,77
774,349	74,82
774,776	74,61
775,203	74,75
775,629	74,65
776,055	74,36
776,482	74,74
776,908	74,58
777,334	74,44
777,76	74,53
778,186	74,61
778,611	74,59
779,037	74,57
779,463	74,33
779,888	74,33
780,314	74,83
780,739	74,65
781,164	74,47
781,589	74,13
782,014	74,24
782,439	74,28
782,864	74,37
783,289	74,36
783,713	74,45
784,138	74,34
784,562	74,23
784,987	74,29
785,411	74,47
785,835	74,24
786,259	74,04
786,683	74,33
787,107	74,08
787,531	74,34
787,954	74,31
788,378	74,06
788,802	74,1
789,225	74,07
789,648	74,12
790,071	74,03
790,495	73,86
790,918	74,08
791,34	74,21
791,763	74,23
792,186	74,16
792,609	74,21
793,031	73,93
793,454	73,81
793,876	73,91
794,298	73,85
794,721	73,71
795,143	73,91
795,565	73,8
795,986	73,82
796,408	73,85
796,83	73,63
797,252	73,86
797,673	73,91
798,094	73,68
798,516	73,88
798,937	73,63
799,358	74
799,779	73,88
800,2	73,75
800,621	73,84
801,042	73,71
801,462	73,79
801,883	73,91
802,303	73,6
802,724	73,52
803,144	73,9
803,564	74
803,984	73,97
804,404	73,74
804,824	73,69
805,244	73,98
805,664	73,69
806,084	73,7
806,503	73,8
806,923	73,9
807,342	73,57
807,761	73,84
808,18	73,78
808,599	73,59
809,018	73,36
809,437	73,64
809,856	73,79
810,275	74,04
810,693	74,01
811,112	73,69
811,53	73,75
811,949	73,88
812,367	73,48
812,785	73,51
813,203	73,61
813,621	73,6
814,039	73,31
814,457	73,68
814,874	73,53
815,292	73,37
815,709	73,6
816,127	73,85
816,544	73,88
816,961	73,42
817,378	73,8
817,795	73,51
818,212	73,66
818,629	73,57
819,046	73,59
819,462	73,69
819,879	73,3
820,295	73,6
820,712	73,68
821,128	73,75
821,544	73,29
821,96	73,62
822,376	73,63
822,792	73,6
823,208	73,42
823,624	73,78
824,039	73,68
824,455	73,37
824,87	73,63
825,286	73,65
825,701	73,54
826,116	73,66
826,531	73,55
826,946	73,62
827,361	73,42
827,776	73,62
828,19	73,42
828,605	73,63
829,02	73,74
829,434	73,21
829,848	73,27
830,263	73,25
830,677	73,39
831,091	73,44
831,505	73,49
831,919	73,64
832,332	73,73
832,746	73,27
833,16	73,35
833,573	73,09
833,987	73,54
