Data from B_1_0_Relative__13__00033.txt Node

Date: Mon Jan 29 12:50:12 CET 2024
User: diatiterra
Spectrometer: HDX00911
Trigger mode: 0
Integration Time (sec): 6,000000E-3
Scans to average: 4
Nonlinearity correction enabled: false
Boxcar width: 0
Storing dark spectrum: false
XAxis mode: Wavelengths
Number of Pixels in Spectrum: 2068
>>>>>Begin Spectral Data<<<<<
194,468	81,1
195,025	76,38
195,581	73,26
196,138	80,7
196,694	85,06
197,251	80,9
197,807	84,8
198,363	73,43
198,919	70,24
199,474	79,11
200,03	65,78
200,586	72,14
201,141	71,58
201,696	75,7
202,251	71,89
202,806	71,05
203,361	71,31
203,916	73,35
204,471	72,56
205,025	80
205,58	82,1
206,134	69,61
206,688	77,01
207,242	73,67
207,796	74,29
208,35	72,89
208,904	72,04
209,457	79,57
210,011	71,88
210,564	73,39
211,117	73,11
211,67	73,04
212,223	75,59
212,776	73,79
213,329	70,71
213,881	70,43
214,434	68,59
214,986	73,92
215,538	74,78
216,09	77,2
216,642	76,87
217,194	76,46
217,746	70,13
218,297	78,54
218,849	72,1
219,4	77,24
219,951	76,67
220,502	79,01
221,053	71,01
221,604	76,04
222,155	74,02
222,705	70,56
223,256	77,44
223,806	74,42
224,356	74,57
224,906	78,2
225,456	73,89
226,006	76,14
226,556	67,22
227,106	81,7
227,655	70,15
228,204	70,13
228,754	77,21
229,303	80,88
229,852	79,7
230,401	72,97
230,949	80,22
231,498	76,44
232,047	74,3
232,595	68,83
233,143	78,85
233,691	75,82
234,239	72,54
234,787	76,14
235,335	76,77
235,883	73,36
236,43	72,52
236,978	75
237,525	73,66
238,072	78
238,619	77,34
239,166	77,7
239,713	65,01
240,26	70,33
240,806	77,92
241,353	73,56
241,899	81,06
242,445	68,66
242,991	74,4
243,537	76,81
244,083	78,84
244,629	76,27
245,174	69
245,72	75,56
246,265	77,62
246,81	72,23
247,355	79,76
247,9	70,46
248,445	67,38
248,99	73,92
249,534	74,15
250,079	70,67
250,623	78,74
251,168	73,6
251,712	72,26
252,256	75,27
252,8	68,41
253,343	81,75
253,887	73,4
254,43	66,74
254,974	74,82
255,517	71,43
256,06	77,48
256,603	77,27
257,146	69,37
257,689	71,43
258,232	78,46
258,774	70,3
259,317	70,65
259,859	75,17
260,401	71,65
260,943	74
261,485	72,89
262,027	77,46
262,569	74,5
263,11	80,77
263,652	82,82
264,193	76,57
264,734	73,39
265,275	80,99
265,816	70,99
266,357	66,44
266,898	63,93
267,438	72,94
267,979	69,03
268,519	74,84
269,059	75,93
269,6	72,91
270,14	74,77
270,68	80,3
271,219	74,05
271,759	77,08
272,298	71,71
272,838	76,38
273,377	70,78
273,916	71,36
274,455	74,61
274,994	77,97
275,533	75,52
276,072	70,39
276,61	71,59
277,149	74,03
277,687	74,14
278,225	72,62
278,763	69,23
279,301	69,56
279,839	64,73
280,377	68,01
280,914	76,1
281,452	77,52
281,989	69,89
282,526	66,09
283,064	70,56
283,601	72,16
284,137	71,67
284,674	65,29
285,211	73,64
285,747	72,55
286,284	74,43
286,82	72,44
287,356	73,29
287,892	71,43
288,428	64,38
288,964	82,35
289,5	69,89
290,035	71,74
290,571	78,78
291,106	78,47
291,641	65,23
292,176	77,51
292,711	70,83
293,246	69,95
293,781	70,43
294,315	76,31
294,85	69,47
295,384	74,16
295,918	70
296,453	72,17
296,987	73,46
297,52	72,37
298,054	78,3
298,588	69,35
299,121	74,94
299,655	73,08
300,188	74,26
300,721	75,35
301,254	69,18
301,787	72,88
302,32	68,66
302,853	70,93
303,385	66,74
303,918	71,27
304,45	63,6
304,982	69,56
305,514	65,74
306,046	71,55
306,578	71,85
307,11	70,4
307,641	68,3
308,173	71,14
308,704	68,75
309,236	70,32
309,767	72,47
310,298	76,05
310,829	71,6
311,359	72,9
311,89	70,88
312,421	65,92
312,951	69,07
313,481	70,74
314,012	70,92
314,542	66,59
315,072	73,87
315,601	69,37
316,131	73,68
316,661	74,15
317,19	71,27
317,72	61,9
318,249	64,11
318,778	74,02
319,307	68,94
319,836	71,13
320,365	76,73
320,893	74,16
321,422	69,59
321,95	67,11
322,479	69,75
323,007	70,05
323,535	70,93
324,063	64,78
324,591	69,98
325,118	69,45
325,646	69,34
326,173	67,58
326,701	75,71
327,228	70
327,755	66,51
328,282	71,93
328,809	73,51
329,336	67,44
329,862	65,23
330,389	67,13
330,915	63,64
331,441	75,52
331,968	78,07
332,494	69,75
333,02	64,73
333,545	67,81
334,071	60,94
334,597	67,55
335,122	72,16
335,648	70,36
336,173	68,11
336,698	69,72
337,223	61,39
337,748	64,71
338,272	63,6
338,797	67,9
339,322	69,46
339,846	59,57
340,37	70,38
340,894	60,8
341,419	62,39
341,942	55,78
342,466	71,19
342,99	70,12
343,514	73,38
344,037	57
344,56	53,85
345,084	60,98
345,607	55,6
346,13	52,67
346,653	62,5
347,175	49,39
347,698	66,8
348,221	55,87
348,743	58,18
349,265	53,91
349,787	56,05
350,309	54,19
350,831	54,83
351,353	57,66
351,875	54,36
352,397	56,83
352,918	61,6
353,439	60,49
353,961	57,65
354,482	49,49
355,003	54,01
355,524	51,83
356,044	57,64
356,565	53,04
357,086	56,67
357,606	55,41
358,126	58,61
358,646	55,99
359,167	52,09
359,687	53,46
360,206	53,03
360,726	55,22
361,246	58,53
361,765	52,22
362,285	53,17
362,804	48,71
363,323	54,07
363,842	51
364,361	51,2
364,88	50,26
365,398	52,5
365,917	47,98
366,435	48,07
366,954	50,87
367,472	52,76
367,99	52,4
368,508	48,74
369,026	49,33
369,544	47,07
370,061	51,58
370,579	45,87
371,096	49,94
371,613	49,49
372,131	46,14
372,648	48,65
373,165	49,45
373,681	46,9
374,198	52,53
374,715	47,72
375,231	48,8
375,747	42,39
376,264	42,28
376,78	46,88
377,296	44,83
377,812	46,23
378,327	41,24
378,843	45,22
379,359	48,01
379,874	43,07
380,389	45,27
380,905	41,78
381,42	41,51
381,935	42,97
382,449	42,72
382,964	39,75
383,479	40,33
383,993	42,44
384,508	42,02
385,022	41,07
385,536	36,71
386,05	38,9
386,564	37,02
387,078	38,7
387,592	37,66
388,105	36,14
388,619	35,2
389,132	36,62
389,645	38,48
390,158	37,51
390,671	33,3
391,184	34,46
391,697	34,96
392,21	34,82
392,722	33,66
393,235	33,61
393,747	31,51
394,259	32,1
394,771	34,81
395,283	32,2
395,795	32,58
396,307	31,62
396,818	31,7
397,33	32,8
397,841	29,96
398,353	29,77
398,864	31,68
399,375	31,23
399,886	29,43
400,397	29,36
400,907	27,9
401,418	28,6
401,928	27,07
402,439	26,86
402,949	26,91
403,459	24,52
403,969	25,36
404,479	25,58
404,989	24,09
405,498	23,77
406,008	24,2
406,517	22,83
407,027	22,85
407,536	21,42
408,045	20,5
408,554	20,37
409,063	18,95
409,572	19,87
410,08	18,95
410,589	17,98
411,097	17,1
411,606	16,37
412,114	17,37
412,622	15,27
413,13	15,49
413,638	15,95
414,145	16,15
414,653	14,62
415,16	14,51
415,668	14,4
416,175	14,2
416,682	14,53
417,189	13,3
417,696	13,23
418,203	12,94
418,71	12,99
419,216	12,31
419,723	12,62
420,229	12,65
420,735	11,62
421,242	12,2
421,748	12,05
422,254	11,59
422,759	11,46
423,265	11,55
423,771	11,22
424,276	11,63
424,781	10,92
425,287	11,24
425,792	11,18
426,297	11,27
426,802	10,82
427,306	11,12
427,811	11,15
428,316	11,09
428,82	11,01
429,324	10,74
429,829	10,66
430,333	10,62
430,837	10,45
431,34	10,56
431,844	9,85
432,348	10,24
432,851	10,42
433,355	10,12
433,858	10,45
434,361	10,67
434,864	10,02
435,367	10,58
435,87	10,13
436,373	10,1
436,876	10,21
437,378	10,01
437,88	9,8
438,383	10,29
438,885	9,9
439,387	10,26
439,889	9,85
440,391	10,21
440,892	10,07
441,394	10
441,896	9,99
442,397	9,76
442,898	9,74
443,399	10,13
443,9	9,73
444,401	9,38
444,902	10,06
445,403	10,05
445,903	10,22
446,404	10,06
446,904	10,11
447,405	9,67
447,905	9,92
448,405	10,03
448,905	10,03
449,404	10,27
449,904	10,13
450,404	10,03
450,903	9,98
451,403	10,16
451,902	10,19
452,401	10,41
452,9	9,83
453,399	9,98
453,898	10,26
454,396	10,4
454,895	10,39
455,393	10,33
455,892	10,21
456,39	10,4
456,888	10,07
457,386	10,33
457,884	10,32
458,382	10,6
458,879	10,36
459,377	10,18
459,874	10,33
460,372	10,29
460,869	10,69
461,366	10,29
461,863	10,48
462,36	10,3
462,857	10,19
463,353	10,25
463,85	10,14
464,346	10,13
464,843	9,96
465,339	10,16
465,835	10,32
466,331	9,87
466,827	10,18
467,323	10,46
467,818	10,34
468,314	9,88
468,809	10,04
469,305	10,21
469,8	10,23
470,295	10,18
470,79	10,37
471,285	10,19
471,78	10,01
472,274	9,88
472,769	10,24
473,263	10,06
473,758	10,27
474,252	10,39
474,746	10,21
475,24	10,11
475,734	10,36
476,228	10,02
476,721	10,27
477,215	10,43
477,708	10,53
478,202	10,33
478,695	10,25
479,188	10,19
479,681	10,32
480,174	10,33
480,667	10,38
481,159	10,46
481,652	10,47
482,144	10,57
482,637	10,34
483,129	10,3
483,621	10,7
484,113	10,39
484,605	10,41
485,097	10,58
485,588	10,54
486,08	10,29
486,571	10,64
487,063	10,83
487,554	10,72
488,045	10,56
488,536	10,6
489,027	10,75
489,518	11,12
490,008	10,69
490,499	10,93
490,989	10,91
491,48	11,05
491,97	11,05
492,46	11,1
492,95	11,28
493,44	11,24
493,93	11,18
494,419	11,15
494,909	11,52
495,398	11,4
495,888	11,25
496,377	11,65
496,866	11,6
497,355	11,79
497,844	12,04
498,333	12,04
498,821	12,12
499,31	12,33
499,798	12,18
500,287	12,52
500,775	12,74
501,263	12,83
501,751	13
502,239	13,15
502,727	13,02
503,215	13,3
503,702	13,82
504,19	14,01
504,677	14,1
505,164	13,97
505,651	14,56
506,139	14,88
506,625	14,97
507,112	15,29
507,599	15,52
508,086	15,83
508,572	16,08
509,058	16,25
509,545	16,99
510,031	17,19
510,517	17,36
511,003	17,61
511,489	18,07
511,974	18,56
512,46	19,17
512,946	19,36
513,431	19,76
513,916	19,83
514,401	20,25
514,887	20,8
515,371	21,54
515,856	21,88
516,341	22,34
516,826	23,02
517,31	23,12
517,795	23,74
518,279	24,08
518,763	24,39
519,247	24,95
519,731	25,59
520,215	26,16
520,699	26,86
521,182	27,21
521,666	27,66
522,149	28,1
522,633	29,22
523,116	29,31
523,599	29,61
524,082	30,33
524,565	30,88
525,048	31,46
525,53	31,54
526,013	32,4
526,495	32,56
526,978	33,17
527,46	33,33
527,942	34,23
528,424	34
528,906	35
529,388	35,05
529,87	35,36
530,351	35,84
530,833	35,79
531,314	36,33
531,795	36,65
532,277	36,83
532,758	37,04
533,238	37,32
533,719	37,79
534,2	37,81
534,681	37,92
535,161	38,41
535,642	37,88
536,122	38,59
536,602	38,67
537,082	38,86
537,562	39,08
538,042	39,06
538,522	39,25
539,001	39,13
539,481	39,38
539,96	39,59
540,44	39,93
540,919	39,49
541,398	39,83
541,877	40,2
542,356	40,15
542,835	40,26
543,313	40,33
543,792	40,19
544,27	40,34
544,749	40,04
545,227	40,55
545,705	40,18
546,183	40,64
546,661	40,47
547,139	40,55
547,616	41,07
548,094	40,46
548,571	40,91
549,049	40,92
549,526	41,51
550,003	41,29
550,48	41,33
550,957	41,27
551,434	41,31
551,911	41,29
552,387	41,69
552,864	41,23
553,34	41,19
553,817	41,2
554,293	41,3
554,769	41,45
555,245	41,11
555,721	41,2
556,197	41,57
556,672	40,97
557,148	41,44
557,623	40,93
558,099	41,04
558,574	41,37
559,049	40,73
559,524	40,56
559,999	40,32
560,474	40,48
560,948	40,35
561,423	40,18
561,897	40,16
562,372	39,99
562,846	39,48
563,32	39,52
563,794	39,13
564,268	39,02
564,742	39,02
565,216	39,12
565,69	38,46
566,163	38,15
566,636	37,95
567,11	37,72
567,583	37,53
568,056	37,22
568,529	36,7
569,002	36,72
569,475	36,31
569,947	36,25
570,42	35,5
570,892	35,67
571,365	35,29
571,837	35,24
572,309	34,67
572,781	34,34
573,253	33,9
573,725	33,58
574,197	33,49
574,668	32,84
575,14	32,82
575,611	32,48
576,082	32,28
576,554	32,32
577,025	32,15
577,496	31,5
577,967	31,56
578,437	31,23
578,908	30,91
579,379	30,22
579,849	30,4
580,319	30,36
580,79	29,92
581,26	29,76
581,73	29,64
582,2	29,48
582,669	29,39
583,139	29,34
583,609	29,07
584,078	28,81
584,548	28,72
585,017	28,47
585,486	28,13
585,955	28,15
586,424	28,04
586,893	27,84
587,362	27,59
587,83	27,72
588,299	27,8
588,767	27,27
589,236	27,4
589,704	27,17
590,172	27,11
590,64	27,01
591,108	26,56
591,576	26,68
592,043	26,61
592,511	26,54
592,978	26,33
593,446	26,17
593,913	26,14
594,38	26,16
594,847	25,91
595,314	25,95
595,781	26,01
596,248	25,81
596,715	25,83
597,181	25,8
597,647	25,88
598,114	25,51
598,58	25,55
599,046	25,69
599,512	25,57
599,978	25,08
600,444	25,39
600,91	25,25
601,375	25,18
601,841	24,92
602,306	25,05
602,771	24,98
603,236	24,99
603,702	24,64
604,167	24,88
604,631	24,61
605,096	24,76
605,561	24,29
606,025	24,27
606,49	24,27
606,954	24,29
607,418	23,96
607,882	23,74
608,347	23,67
608,81	23,56
609,274	23,43
609,738	23,13
610,202	23,13
610,665	23,17
611,128	22,85
611,592	22,77
612,055	22,27
612,518	22,25
612,981	22,01
613,444	22,18
613,907	21,83
614,369	21,68
614,832	21,37
615,294	21,45
615,757	21,26
616,219	21,39
616,681	21,22
617,143	20,98
617,605	20,86
618,067	20,74
618,529	20,37
618,99	20,45
619,452	20,28
619,913	20,13
620,375	19,93
620,836	20,11
621,297	20,04
621,758	19,89
622,219	19,85
622,68	19,76
623,14	19,75
623,601	19,5
624,061	19,67
624,522	19,43
624,982	19,56
625,442	19,44
625,902	19,04
626,362	19,32
626,822	19,45
627,282	19,05
627,742	19,3
628,201	19,27
628,661	19,23
629,12	19,1
629,579	18,94
630,038	19,04
630,497	19
630,956	19,05
631,415	18,88
631,874	18,84
632,332	18,86
632,791	18,81
633,249	18,76
633,708	18,69
634,166	18,44
634,624	18,7
635,082	18,5
635,54	18,25
635,998	18,16
636,455	18,16
636,913	18,03
637,37	17,79
637,828	17,75
638,285	17,49
638,742	17,51
639,199	17,07
639,656	16,91
640,113	16,8
640,57	16,71
641,027	16,5
641,483	16,35
641,94	16,28
642,396	16,04
642,852	15,94
643,309	15,63
643,765	15,52
644,221	15,27
644,676	15,16
645,132	14,99
645,588	14,72
646,043	14,69
646,499	14,52
646,954	14,16
647,409	14,18
647,864	13,98
648,319	13,96
648,774	13,73
649,229	13,5
649,684	13,42
650,139	13,42
650,593	13,25
651,047	13,11
651,502	13,12
651,956	13,13
652,41	12,91
652,864	13,02
653,318	12,84
653,772	12,73
654,225	12,64
654,679	12,62
655,133	12,56
655,586	12,53
656,039	12,46
656,492	12,41
656,946	12,21
657,399	12,17
657,851	12,08
658,304	11,99
658,757	11,9
659,209	11,87
659,662	11,62
660,114	11,58
660,567	11,55
661,019	11,38
661,471	11,1
661,923	11,2
662,375	11,03
662,826	11,04
663,278	10,94
663,73	10,81
664,181	10,66
664,632	10,62
665,084	10,6
665,535	10,51
665,986	10,49
666,437	10,43
666,888	10,45
667,338	10,41
667,789	10,48
668,24	10,43
668,69	10,44
669,14	10,39
669,591	10,45
670,041	10,44
670,491	10,4
670,941	10,53
671,391	10,49
671,84	10,54
672,29	10,68
672,74	10,73
673,189	10,77
673,638	10,78
674,088	10,88
674,537	10,95
674,986	11,08
675,435	11,24
675,883	11,29
676,332	11,31
676,781	11,4
677,229	11,52
677,678	11,59
678,126	11,81
678,574	11,94
679,022	12,11
679,47	12,26
679,918	12,4
680,366	12,51
680,814	12,73
681,261	12,74
681,709	12,88
682,156	13,14
682,604	13,36
683,051	13,33
683,498	13,46
683,945	13,73
684,392	13,89
684,839	13,96
685,286	14,22
685,732	14,72
686,179	14,56
686,625	14,82
687,071	15,15
687,518	15,5
687,964	15,71
688,41	15,95
688,856	16,39
689,301	16,78
689,747	17,33
690,193	17,7
690,638	18,31
691,084	18,88
691,529	19,48
691,974	20,11
692,419	20,96
692,864	21,54
693,309	22,42
693,754	23,03
694,199	23,99
694,643	24,85
695,088	25,66
695,532	26,65
695,977	27,66
696,421	28,67
696,865	29,39
697,309	30,4
697,753	31,41
698,197	32,21
698,64	33,48
699,084	34,4
699,527	35,45
699,971	36,41
700,414	37,47
700,857	38,14
701,3	39,19
701,743	40,18
702,186	41,42
702,629	42,21
703,072	42,87
703,515	43,92
703,957	44,96
704,399	45,9
704,842	46,72
705,284	47,71
705,726	48,32
706,168	49,39
706,61	49,99
707,052	51,06
707,494	51,85
707,935	52,66
708,377	53,47
708,818	54,21
709,26	55,03
709,701	55,45
710,142	56,48
710,583	57,24
711,024	57,87
711,465	58,62
711,905	59,6
712,346	60,23
712,787	60,9
713,227	61,64
713,667	62,68
714,108	63,16
714,548	63,89
714,988	64,47
715,428	65,36
715,868	65,89
716,307	66,43
716,747	67,26
717,186	67,82
717,626	68,41
718,065	68,84
718,504	69,48
718,944	70,46
719,383	70,76
719,822	71,25
720,261	71,79
720,699	72,34
721,138	73,17
721,576	73,56
722,015	74
722,453	74,32
722,892	74,96
723,33	75,38
723,768	76,03
724,206	76,47
724,644	76,78
725,081	77,11
725,519	77,56
725,957	78,1
726,394	78,45
726,832	78,82
727,269	79,11
727,706	79,3
728,143	79,72
728,58	80,12
729,017	80,38
729,454	81,19
729,89	80,95
730,327	81,39
730,764	81,45
731,2	82,4
731,636	81,94
732,072	82,45
732,509	82,29
732,945	82,56
733,38	83,13
733,816	82,99
734,252	83,63
734,688	83,69
735,123	84,18
735,559	84,14
735,994	84,18
736,429	84,94
736,864	84,54
737,299	84,68
737,734	84,99
738,169	85,27
738,604	85,06
739,038	85,04
739,473	85,31
739,907	85,28
740,342	85,52
740,776	85,75
741,21	85,61
741,644	85,53
742,078	85,53
742,512	85,72
742,946	85,8
743,379	85,72
743,813	86,03
744,246	86,33
744,68	86,29
745,113	86,11
745,546	86,34
745,979	86,54
746,412	86,54
746,845	86,46
747,278	86,38
747,711	86,29
748,143	86,4
748,576	86,43
749,008	85,93
749,441	86,41
749,873	86,12
750,305	86,55
750,737	86,3
751,169	86,26
751,601	86,73
752,032	86,16
752,464	86,21
752,896	86,23
753,327	86,58
753,758	86,34
754,19	86,29
754,621	86,17
755,052	86,02
755,483	86,1
755,914	85,87
756,344	85,83
756,775	85,99
757,206	85,95
757,636	85,89
758,066	86,48
758,497	85,46
758,927	85,65
759,357	85,6
759,787	85,84
760,217	85,79
760,647	86,01
761,076	86,08
761,506	85,72
761,935	85,72
762,365	85,68
762,794	85,63
763,223	85,48
763,653	85,21
764,082	85,61
764,51	85,53
764,939	85,71
765,368	85,29
765,797	85,32
766,225	85,18
766,654	85,61
767,082	85,5
767,51	85,33
767,938	85,65
768,367	85,36
768,795	85,59
769,222	85,11
769,65	85,19
770,078	85,19
770,505	85,5
770,933	85,24
771,36	85
771,788	85,06
772,215	85,28
772,642	85,39
773,069	84,92
773,496	84,97
773,923	85,05
774,349	85,23
774,776	85,33
775,203	84,9
775,629	85,02
776,055	84,84
776,482	84,98
776,908	85
777,334	85,06
777,76	84,74
778,186	84,92
778,611	85,05
779,037	85,07
779,463	84,65
779,888	84,89
780,314	84,81
780,739	84,85
781,164	84,91
781,589	84,86
782,014	84,61
782,439	84,31
782,864	85,05
783,289	84,69
783,713	84,83
784,138	84,59
784,562	84,65
784,987	84,83
785,411	84,77
785,835	84,82
786,259	84,49
786,683	84,84
787,107	84,42
787,531	84,98
787,954	84,91
788,378	84,44
788,802	84,36
789,225	84,89
789,648	84,37
790,071	84,6
790,495	84,56
790,918	84,46
791,34	84,57
791,763	84,46
792,186	84,53
792,609	84,54
793,031	84,47
793,454	84,65
793,876	84,48
794,298	84,43
794,721	84,53
795,143	84,14
795,565	84,5
795,986	84,12
796,408	84,41
796,83	84,29
797,252	84,49
797,673	84,36
798,094	84,35
798,516	84,37
798,937	84,22
799,358	84,23
799,779	84,64
800,2	84,18
800,621	84,4
801,042	84,39
801,462	84,47
801,883	84,33
802,303	84,15
802,724	84,25
803,144	84,34
803,564	84,44
803,984	84,38
804,404	84,46
804,824	83,94
805,244	84,36
805,664	84,28
806,084	84,53
806,503	84,51
806,923	84,28
807,342	84,39
807,761	84,29
808,18	84,34
808,599	84,18
809,018	84,14
809,437	84,42
809,856	84,22
810,275	84,36
810,693	84,55
811,112	84,43
811,53	84,37
811,949	84,73
812,367	84,19
812,785	84,21
813,203	84,4
813,621	84,5
814,039	83,96
814,457	84,23
814,874	84,63
815,292	84,2
815,709	84,45
816,127	84,62
816,544	84,25
816,961	84,26
817,378	84,17
817,795	84,57
818,212	84,31
818,629	84,31
819,046	84,46
819,462	84,54
819,879	84,49
820,295	84,3
820,712	84,62
821,128	84,65
821,544	83,88
821,96	84,58
822,376	84,5
822,792	84,23
823,208	84,15
823,624	84,46
824,039	84,41
824,455	84,34
824,87	84,41
825,286	84,57
825,701	84,43
826,116	84,17
826,531	84,25
826,946	84,17
827,361	84,31
827,776	84,39
828,19	83,93
828,605	84,27
829,02	84,3
829,434	83,95
829,848	84,03
830,263	84,01
830,677	84,21
831,091	84,47
831,505	84,15
831,919	84,52
832,332	84,06
832,746	83,83
833,16	83,93
833,573	83,99
833,987	84,33
834,4	83,96
834,813	84,18
