Data from B_5_0_Relative__3__00041.txt Node

Date: Mon Jan 29 12:52:58 CET 2024
User: diatiterra
Spectrometer: HDX00911
Trigger mode: 0
Integration Time (sec): 6,000000E-3
Scans to average: 4
Nonlinearity correction enabled: false
Boxcar width: 0
Storing dark spectrum: false
XAxis mode: Wavelengths
Number of Pixels in Spectrum: 2068
>>>>>Begin Spectral Data<<<<<
194,468	23,78
195,025	18,59
195,581	26,16
196,138	21,64
196,694	34,76
197,251	26,53
197,807	32,78
198,363	25,92
198,919	28,69
199,474	33,56
200,03	19,21
200,586	24,32
201,141	25,21
201,696	26,67
202,251	24,24
202,806	17,86
203,361	28,69
203,916	31,13
204,471	26,76
205,025	29,25
205,58	27,07
206,134	24,64
206,688	29,28
207,242	27,18
207,796	27,55
208,35	29,61
208,904	35,1
209,457	29,25
210,011	23,89
210,564	24,95
211,117	24,95
211,67	31,79
212,223	29,98
212,776	26,81
213,329	31,92
213,881	28,54
214,434	26,2
214,986	30,84
215,538	30,53
216,09	34,54
216,642	33,19
217,194	30
217,746	34,96
218,297	25,75
218,849	22,75
219,4	26,72
219,951	25,56
220,502	23,77
221,053	26,47
221,604	32,29
222,155	27,13
222,705	27,14
223,256	29,07
223,806	27,67
224,356	30,34
224,906	33,12
225,456	33,68
226,006	27,95
226,556	27,35
227,106	26,56
227,655	26,44
228,204	20,35
228,754	30,6
229,303	27,03
229,852	27,86
230,401	30,86
230,949	27,47
231,498	24,44
232,047	27,41
232,595	24,06
233,143	26,43
233,691	27,05
234,239	26,34
234,787	27,27
235,335	29,03
235,883	26,43
236,43	24,59
236,978	26,85
237,525	22,99
238,072	33,77
238,619	31,78
239,166	34,88
239,713	26,92
240,26	31,12
240,806	25,11
241,353	27,59
241,899	28,41
242,445	22,68
242,991	23,64
243,537	28,1
244,083	30,91
244,629	31,14
245,174	30,57
245,72	25,78
246,265	31,47
246,81	31,38
247,355	26,35
247,9	28,23
248,445	22,6
248,99	28,34
249,534	26,53
250,079	26,89
250,623	28,26
251,168	27,74
251,712	28,6
252,256	27,96
252,8	25,93
253,343	27,49
253,887	28,51
254,43	26,39
254,974	25,41
255,517	29,21
256,06	26,93
256,603	27,05
257,146	27,84
257,689	30,09
258,232	26,76
258,774	25,74
259,317	34,76
259,859	26,88
260,401	31,39
260,943	31,56
261,485	27,56
262,027	27,79
262,569	27
263,11	31,41
263,652	34,35
264,193	32,1
264,734	24,08
265,275	33,33
265,816	23,08
266,357	36,05
266,898	23,06
267,438	35,32
267,979	26,55
268,519	28,23
269,059	22,66
269,6	33,41
270,14	27,25
270,68	32,2
271,219	29,54
271,759	27,87
272,298	30,51
272,838	31,88
273,377	33,95
273,916	29,08
274,455	26,5
274,994	29,74
275,533	33,95
276,072	33,05
276,61	29,74
277,149	26,7
277,687	27
278,225	27,15
278,763	33,94
279,301	27,78
279,839	28,17
280,377	29,15
280,914	29
281,452	29,82
281,989	30,11
282,526	29,4
283,064	32,46
283,601	25,29
284,137	25
284,674	29,85
285,211	33,55
285,747	33,65
286,284	30,14
286,82	34,4
287,356	29,14
287,892	29,02
288,428	25,97
288,964	40
289,5	28,31
290,035	31,79
290,571	29,27
291,106	27,23
291,641	33,86
292,176	37,16
292,711	31,58
293,246	36,24
293,781	27,99
294,315	22,94
294,85	25,66
295,384	28,31
295,918	26
296,453	28,54
296,987	32,46
297,52	28,95
298,054	31,54
298,588	28,7
299,121	27,94
299,655	27,15
300,188	27,79
300,721	33,26
301,254	25,34
301,787	30,27
302,32	30,65
302,853	29,52
303,385	31,5
303,918	30,07
304,45	23,25
304,982	24,67
305,514	28,01
306,046	30,85
306,578	32,04
307,11	26,57
307,641	25,67
308,173	27,05
308,704	32,81
309,236	33,09
309,767	28
310,298	30,6
310,829	32,86
311,359	27,57
311,89	28,22
312,421	22,42
312,951	29,77
313,481	28,11
314,012	24,83
314,542	30,82
315,072	26,88
315,601	29,95
316,131	27
316,661	25,12
317,19	27,6
317,72	25,48
318,249	27,54
318,778	22,3
319,307	23,06
319,836	32,56
320,365	32,26
320,893	23,51
321,422	29,95
321,95	32
322,479	29,8
323,007	28,02
323,535	26,05
324,063	28,13
324,591	30,97
325,118	26,37
325,646	24,76
326,173	26,94
326,701	28,1
327,228	28,64
327,755	24,16
328,282	28,34
328,809	28,7
329,336	27,71
329,862	27,73
330,389	22,53
330,915	25,68
331,441	25,64
331,968	28,43
332,494	29
333,02	21,94
333,545	26,36
334,071	22,1
334,597	20,19
335,122	22,05
335,648	28,87
336,173	23,64
336,698	23,62
337,223	23,21
337,748	22,06
338,272	24,69
338,797	22,78
339,322	17,42
339,846	26,6
340,37	17,72
340,894	18,26
341,419	22,9
341,942	25,56
342,466	21,92
342,99	31,74
343,514	28,93
344,037	21
344,56	19,23
345,084	24,81
345,607	21,48
346,13	24,81
346,653	21,02
347,175	19,37
347,698	18,07
348,221	24,58
348,743	24,35
349,265	27,65
349,787	22,42
350,309	23,08
350,831	21,21
351,353	25,3
351,875	27,52
352,397	26,67
352,918	21,5
353,439	20,28
353,961	19,66
354,482	17,17
355,003	19,8
355,524	21,95
356,044	25,32
356,565	26,29
357,086	23,69
357,606	22,29
358,126	27,45
358,646	28,57
359,167	28,14
359,687	24,06
360,206	24,22
360,726	21,59
361,246	24,26
361,765	22,38
362,285	21,5
362,804	25,17
363,323	26,97
363,842	23,77
364,361	23,4
364,88	21,58
365,398	25,39
365,917	22,69
366,435	21,98
366,954	25,69
367,472	26,44
367,99	23,61
368,508	21,99
369,026	26,93
369,544	20
370,061	21,82
370,579	24,46
371,096	24,51
371,613	27,3
372,131	24,43
372,648	20,13
373,165	23,45
373,681	24,83
374,198	25,93
374,715	21,15
375,231	24,29
375,747	20,8
376,264	20,85
376,78	20,18
377,296	22,75
377,812	21,86
378,327	21,87
378,843	23,35
379,359	20,98
379,874	19,58
380,389	21,77
380,905	21,54
381,42	22,13
381,935	18,9
382,449	21,11
382,964	17,39
383,479	20,67
383,993	18,89
384,508	19,45
385,022	18,96
385,536	17,53
386,05	18,49
386,564	16,61
387,078	19,22
387,592	18,73
388,105	17,45
388,619	17,2
389,132	16,48
389,645	17,08
390,158	17,22
390,671	18,22
391,184	17,28
391,697	17,1
392,21	16,91
392,722	15,29
393,235	14,32
393,747	15,55
394,259	16,2
394,771	16,25
395,283	14,2
395,795	16,55
396,307	15,69
396,818	15,6
397,33	16,35
397,841	15,12
398,353	13,53
398,864	14,32
399,375	13,81
399,886	14,23
400,397	14,62
400,907	13,1
401,418	11,58
401,928	12,83
402,439	12,47
402,949	12,64
403,459	11,01
403,969	12,12
404,479	11,63
404,989	10,87
405,498	11,1
406,008	9,73
406,517	10,38
407,027	10,47
407,536	10,04
408,045	9,09
408,554	9,19
409,063	8,57
409,572	8,84
410,08	8,64
410,589	8,17
411,097	7,62
411,606	7,22
412,114	7,68
412,622	7,02
413,13	7,24
413,638	6,6
414,145	6,6
414,653	6,7
415,16	5,96
415,668	6,65
416,175	6,05
416,682	6,21
417,189	6,05
417,696	5,98
418,203	6,02
418,71	5,42
419,216	5,59
419,723	5,68
420,229	5,92
420,735	4,99
421,242	5,45
421,748	5,4
422,254	5,24
422,759	4,77
423,265	4,78
423,771	4,88
424,276	5,27
424,781	5,17
425,287	4,99
425,792	4,78
426,297	5,05
426,802	4,66
427,306	4,79
427,811	4,64
428,316	4,68
428,82	4,51
429,324	4,56
429,829	5,05
430,333	4,52
430,837	4,63
431,34	4,8
431,844	4,42
432,348	4,36
432,851	4,44
433,355	4,23
433,858	4,36
434,361	4,49
434,864	4,22
435,367	4,35
435,87	4,33
436,373	4,19
436,876	4,6
437,378	4,2
437,88	4,38
438,383	4,54
438,885	4,63
439,387	4,56
439,889	4,14
440,391	4,4
440,892	4,44
441,394	4,36
441,896	4,2
442,397	4,4
442,898	4,62
443,399	4,58
443,9	4,4
444,401	4,44
444,902	4,56
445,403	4,66
445,903	4,43
446,404	4,39
446,904	4,44
447,405	4,53
447,905	4,53
448,405	4,72
448,905	4,62
449,404	4,76
449,904	4,65
450,404	4,47
450,903	4,54
451,403	4,87
451,902	4,88
452,401	5,03
452,9	4,76
453,399	4,76
453,898	4,77
454,396	4,96
454,895	4,91
455,393	4,86
455,892	4,81
456,39	5,01
456,888	4,76
457,386	4,87
457,884	5,05
458,382	4,85
458,879	4,93
459,377	5,02
459,874	4,87
460,372	5,13
460,869	5,11
461,366	5,02
461,863	4,92
462,36	5,21
462,857	4,86
463,353	5,38
463,85	4,93
464,346	5,07
464,843	5,02
465,339	5,09
465,835	4,94
466,331	5,1
466,827	5,08
467,323	4,98
467,818	4,83
468,314	5,13
468,809	5,2
469,305	5,03
469,8	5
470,295	5,01
470,79	5,24
471,285	4,95
471,78	5,14
472,274	4,95
472,769	5,07
473,263	5,24
473,758	5,15
474,252	5,29
474,746	5,08
475,24	5,05
475,734	5,12
476,228	5,34
476,721	5,03
477,215	5,11
477,708	5,17
478,202	5,31
478,695	5,23
479,188	5,17
479,681	5,14
480,174	5,39
480,667	5,29
481,159	5,29
481,652	5,17
482,144	5,26
482,637	5,42
483,129	5,41
483,621	5,53
484,113	5,35
484,605	5,63
485,097	5,45
485,588	5,27
486,08	5,43
486,571	5,71
487,063	5,66
487,554	5,56
488,045	5,64
488,536	5,43
489,027	5,75
489,518	5,56
490,008	5,74
490,499	5,88
490,989	5,83
491,48	5,95
491,97	6,13
492,46	6
492,95	6,07
493,44	6,22
493,93	5,95
494,419	6,16
494,909	6,26
495,398	6,2
495,888	6,27
496,377	6,49
496,866	6,69
497,355	6,43
497,844	6,82
498,333	6,95
498,821	7,21
499,31	6,97
499,798	7,08
500,287	7,32
500,775	7,62
501,263	7,33
501,751	7,52
502,239	7,85
502,727	7,81
503,215	7,85
503,702	8,41
504,19	8,45
504,677	8,51
505,164	8,71
505,651	8,97
506,139	9,16
506,625	9,26
507,112	9,6
507,599	9,65
508,086	9,87
508,572	9,98
509,058	10,13
509,545	10,43
510,031	10,67
510,517	10,86
511,003	10,97
511,489	11,33
511,974	11,68
512,46	12
512,946	12,15
513,431	12,07
513,916	12,41
514,401	12,87
514,887	12,9
515,371	13,27
515,856	13,71
516,341	13,62
516,826	14,15
517,31	14,26
517,795	14,67
518,279	14,65
518,763	15,03
519,247	15,49
519,731	15,46
520,215	15,87
520,699	16,01
521,182	16,68
521,666	16,86
522,149	17,16
522,633	17,19
523,116	17,56
523,599	17,63
524,082	18,23
524,565	18,3
525,048	18,34
525,53	18,66
526,013	19,01
526,495	19,03
526,978	19,36
527,46	19,56
527,942	19,74
528,424	19,64
528,906	20,31
529,388	20,36
529,87	20,49
530,351	20,65
530,833	20,81
531,314	20,6
531,795	20,95
532,277	21,24
532,758	21,41
533,238	21,36
533,719	21,29
534,2	21,68
534,681	21,84
535,161	22,06
535,642	21,82
536,122	21,96
536,602	21,95
537,082	22,05
537,562	22,11
538,042	21,88
538,522	22,09
539,001	22,1
539,481	22,51
539,96	22,01
540,44	22,43
540,919	22,36
541,398	22,22
541,877	22,22
542,356	22,53
542,835	22,59
543,313	22,5
543,792	22,41
544,27	22,42
544,749	22,59
545,227	22,63
545,705	22,46
546,183	22,74
546,661	22,55
547,139	22,65
547,616	22,96
548,094	22,66
548,571	23,02
549,049	22,92
549,526	23,03
550,003	23,17
550,48	22,93
550,957	22,95
551,434	23,18
551,911	22,91
552,387	23,1
552,864	23,05
553,34	23,06
553,817	23,07
554,293	22,99
554,769	23,04
555,245	23,1
555,721	23,05
556,197	23,09
556,672	22,96
557,148	23,17
557,623	22,91
558,099	22,79
558,574	23,23
559,049	22,87
559,524	22,82
559,999	22,62
560,474	22,85
560,948	22,7
561,423	22,91
561,897	22,71
562,372	22,5
562,846	22,26
563,32	22,59
563,794	22,41
564,268	22,24
564,742	22,14
565,216	21,96
565,69	22,07
566,163	21,97
566,636	21,81
567,11	21,59
567,583	21,57
568,056	21,51
568,529	21,33
569,002	21,39
569,475	21,2
569,947	21,18
570,42	20,61
570,892	20,76
571,365	20,6
571,837	20,48
572,309	20,54
572,781	20,24
573,253	20,04
573,725	19,8
574,197	19,89
574,668	19,63
575,14	19,63
575,611	19,45
576,082	19,24
576,554	19,38
577,025	19,05
577,496	18,97
577,967	18,78
578,437	18,77
578,908	18,42
579,379	18,32
579,849	18,4
580,319	18,26
580,79	18,27
581,26	18,14
581,73	17,95
582,2	17,79
582,669	17,79
583,139	17,66
583,609	17,47
584,078	17,41
584,548	17,54
585,017	17,36
585,486	17,35
585,955	17,18
586,424	17,12
586,893	16,96
587,362	16,99
587,83	17,01
588,299	16,88
588,767	16,61
589,236	16,75
589,704	16,61
590,172	16,54
590,64	16,34
591,108	16,41
591,576	16,49
592,043	16,15
592,511	16,22
592,978	16,31
593,446	16,19
593,913	16,19
594,38	16,14
594,847	16,03
595,314	16,01
595,781	15,92
596,248	15,89
596,715	16
597,181	15,94
597,647	15,92
598,114	15,84
598,58	15,77
599,046	15,86
599,512	15,71
599,978	15,5
600,444	15,61
600,91	15,66
601,375	15,66
601,841	15,67
602,306	15,6
602,771	15,47
603,236	15,37
603,702	15,35
604,167	15,37
604,631	15,47
605,096	15,25
605,561	15,06
606,025	15,1
606,49	14,93
606,954	15,15
607,418	14,81
607,882	14,99
608,347	14,69
608,81	14,68
609,274	14,42
609,738	14,55
610,202	14,47
610,665	14,42
611,128	14,27
611,592	14,27
612,055	14,09
612,518	14
612,981	14,11
613,444	13,92
613,907	13,77
614,369	13,72
614,832	13,46
615,294	13,36
615,757	13,43
616,219	13,54
616,681	13,36
617,143	13,23
617,605	13,02
618,067	13,07
618,529	13,14
618,99	13
619,452	12,93
619,913	12,83
620,375	12,78
620,836	12,54
621,297	12,66
621,758	12,66
622,219	12,61
622,68	12,69
623,14	12,36
623,601	12,43
624,061	12,34
624,522	12,42
624,982	12,32
625,442	12,3
625,902	12,28
626,362	12,21
626,822	12,14
627,282	12,14
627,742	12,23
628,201	12,29
628,661	12,18
629,12	12,15
629,579	12,04
630,038	11,97
630,497	12,08
630,956	12,06
631,415	12,05
631,874	11,98
632,332	12,12
632,791	11,85
633,249	11,89
633,708	11,87
634,166	11,88
634,624	11,86
635,082	11,74
635,54	11,68
635,998	11,56
636,455	11,51
636,913	11,38
637,37	11,42
637,828	11,23
638,285	11,08
638,742	10,99
639,199	10,91
639,656	10,79
640,113	10,72
640,57	10,59
641,027	10,54
641,483	10,25
641,94	10,38
642,396	10,14
642,852	10,06
643,309	9,98
643,765	9,83
644,221	9,76
644,676	9,57
645,132	9,5
645,588	9,44
646,043	9,38
646,499	9,14
646,954	9,01
647,409	8,9
647,864	8,92
648,319	8,75
648,774	8,56
649,229	8,53
649,684	8,42
650,139	8,38
650,593	8,37
651,047	8,25
651,502	8,24
651,956	8,19
652,41	8,18
652,864	8,05
653,318	8,1
653,772	7,94
654,225	7,87
654,679	7,98
655,133	7,87
655,586	7,76
656,039	7,77
656,492	7,62
656,946	7,61
657,399	7,57
657,851	7,46
658,304	7,35
658,757	7,31
659,209	7,21
659,662	7,16
660,114	7,17
660,567	6,95
661,019	6,87
661,471	6,88
661,923	6,7
662,375	6,57
662,826	6,51
663,278	6,43
663,73	6,34
664,181	6,29
664,632	6,1
665,084	6,12
665,535	6,05
665,986	6
666,437	5,96
666,888	5,97
667,338	5,87
667,789	5,82
668,24	5,8
668,69	5,79
669,14	5,8
669,591	5,77
670,041	5,84
670,491	5,81
670,941	5,83
671,391	5,86
671,84	5,98
672,29	5,9
672,74	5,92
673,189	6
673,638	6
674,088	6,1
674,537	6,02
674,986	6,15
675,435	6,29
675,883	6,34
676,332	6,39
676,781	6,47
677,229	6,58
677,678	6,64
678,126	6,79
678,574	6,82
679,022	7,01
679,47	7,07
679,918	7,14
680,366	7,31
680,814	7,47
681,261	7,51
681,709	7,6
682,156	7,78
682,604	7,96
683,051	8,07
683,498	8,21
683,945	8,32
684,392	8,47
684,839	8,65
685,286	8,74
685,732	9,01
686,179	9,18
686,625	9,4
687,071	9,49
687,518	9,7
687,964	9,96
688,41	10,32
688,856	10,49
689,301	10,83
689,747	11,05
690,193	11,45
690,638	11,75
691,084	12,17
691,529	12,48
691,974	12,9
692,419	13,34
692,864	13,79
693,309	14,18
693,754	14,52
694,199	15,1
694,643	15,55
695,088	15,93
695,532	16,36
695,977	16,85
696,421	17,38
696,865	17,64
697,309	18
697,753	18,47
698,197	18,96
698,64	19,27
699,084	19,74
699,527	20,34
699,971	20,51
700,414	20,95
700,857	21,28
701,3	21,55
701,743	22,02
702,186	22,29
702,629	22,74
703,072	22,83
703,515	23,27
703,957	23,6
704,399	23,78
704,842	24,28
705,284	24,43
705,726	24,75
706,168	25,04
706,61	25,34
707,052	25,77
707,494	25,71
707,935	26,02
708,377	26,26
708,818	26,57
709,26	26,86
709,701	26,72
710,142	27,3
710,583	27,46
711,024	27,42
711,465	27,66
711,905	28,03
712,346	28,2
712,787	28,43
713,227	28,58
713,667	28,9
714,108	28,91
714,548	29,24
714,988	29,37
715,428	29,39
715,868	29,74
716,307	29,83
716,747	29,9
717,186	30,03
717,626	30,3
718,065	30,24
718,504	30,53
718,944	30,76
719,383	30,6
719,822	30,97
720,261	31,03
720,699	31,27
721,138	31,44
721,576	31,54
722,015	31,57
722,453	31,62
722,892	31,87
723,33	31,76
723,768	32,02
724,206	32,11
724,644	31,94
725,081	32,34
725,519	32,19
725,957	32,27
726,394	32,41
726,832	32,63
727,269	32,4
727,706	32,66
728,143	32,62
728,58	32,68
729,017	33,04
729,454	32,97
729,89	32,96
730,327	33,04
730,764	32,96
731,2	33,22
731,636	33,12
732,072	33,25
732,509	33,18
732,945	33,15
733,38	33,34
733,816	33,3
734,252	33,23
734,688	33,34
735,123	33,47
735,559	33,52
735,994	33,37
736,429	33,61
736,864	33,49
737,299	33,7
737,734	33,71
738,169	33,52
738,604	33,5
739,038	33,55
739,473	33,52
739,907	33,58
740,342	33,5
740,776	33,48
741,21	33,63
741,644	33,73
742,078	33,52
742,512	33,4
742,946	33,39
743,379	33,45
743,813	33,39
744,246	33,67
744,68	33,59
745,113	33,25
745,546	33,53
745,979	33,59
746,412	33,45
746,845	33,37
747,278	33,33
747,711	33,36
748,143	33,59
748,576	33,31
749,008	33,2
749,441	33,38
749,873	33,1
750,305	33,04
750,737	33,1
751,169	33,2
751,601	33,21
752,032	32,97
752,464	32,99
752,896	33
753,327	33,06
753,758	33,01
754,19	32,99
754,621	32,78
755,052	32,99
755,483	32,87
755,914	32,78
756,344	32,82
756,775	32,71
757,206	32,65
757,636	32,76
758,066	32,79
758,497	32,65
758,927	32,5
759,357	32,55
759,787	32,66
760,217	32,67
760,647	32,54
761,076	32,67
761,506	32,4
761,935	32,39
762,365	32,56
762,794	32,38
763,223	32,34
763,653	32,36
764,082	32,16
764,51	32,29
764,939	32,27
765,368	32,12
765,797	32,22
766,225	32,15
766,654	32,23
767,082	32,14
767,51	32,2
767,938	32,17
768,367	32,19
768,795	32,23
769,222	32,03
769,65	32,15
770,078	32,13
770,505	31,99
770,933	32,12
771,36	31,75
771,788	32,19
772,215	31,98
772,642	31,88
773,069	31,95
773,496	31,9
773,923	31,9
774,349	32,12
774,776	31,99
775,203	31,9
775,629	31,91
776,055	31,79
776,482	31,74
776,908	31,79
777,334	31,75
777,76	31,85
778,186	31,72
778,611	31,75
779,037	31,67
779,463	31,61
779,888	31,79
780,314	31,69
780,739	31,81
781,164	31,71
781,589	31,63
782,014	31,69
782,439	31,69
782,864	31,74
783,289	31,6
783,713	31,59
784,138	31,77
784,562	31,63
784,987	31,63
785,411	31,5
785,835	31,61
786,259	31,56
786,683	31,68
787,107	31,46
787,531	31,5
787,954	31,64
788,378	31,34
788,802	31,36
789,225	31,5
789,648	31,57
790,071	31,5
790,495	31,37
790,918	31,61
791,34	31,39
791,763	31,4
792,186	31,5
792,609	31,38
793,031	31,35
793,454	31,41
793,876	31,34
794,298	31,2
794,721	31,31
795,143	31,32
795,565	31,5
795,986	31,25
796,408	31,45
796,83	31,17
797,252	31,47
797,673	31,24
798,094	31,37
798,516	31,38
798,937	31,14
799,358	31,35
799,779	31,26
800,2	31,15
800,621	31,32
801,042	31,3
801,462	31,19
801,883	31,24
802,303	31,22
802,724	31,3
803,144	31,52
803,564	31,34
803,984	31,31
804,404	31,13
804,824	31,27
805,244	31,29
805,664	31,2
806,084	31,16
806,503	31,36
806,923	31,17
807,342	31,19
807,761	31,23
808,18	31,07
808,599	31,27
809,018	31,17
809,437	31,03
809,856	31,1
810,275	31,23
810,693	31,39
811,112	31,2
811,53	31,28
811,949	31,3
812,367	31,01
812,785	31,01
813,203	30,97
813,621	31,17
814,039	30,95
814,457	31,14
814,874	31,33
815,292	31,1
815,709	31,11
816,127	31,15
816,544	31,12
816,961	30,92
817,378	31,19
817,795	31,12
818,212	31,22
818,629	31,1
819,046	31,02
819,462	31,22
819,879	31,04
820,295	31,12
820,712	31,05
821,128	31,05
821,544	30,98
821,96	31,04
822,376	30,93
822,792	31,04
823,208	31,06
823,624	31
824,039	31,15
824,455	30,99
824,87	31,08
825,286	30,95
825,701	31,06
826,116	30,97
826,531	31,09
826,946	31,07
827,361	31,11
827,776	31,16
828,19	30,96
828,605	31,21
829,02	30,97
829,434	31,1
829,848	31,02
830,263	31
830,677	31,05
831,091	31,08
831,505	30,94
831,919	31,18
832,332	30,96
832,746	31,05
833,16	30,89
833,573	30,97
833,987	30,99
834,4	30,79
834,813	31,13
835,226	30,88
835,639	31,02
836,052	30,86
836,465	30,96
836,878	30,82
837,29	30,94
837,703	30,81
838,116	31
838,528	31
838,94	31,03
839,352	30,98
839,765	30,84
840,177	31,16
840,589	30,9
841	30,99
841,412	30,96
841,824	30,78
842,235	30,77
842,647	30,6
843,058	30,97
843,47	30,83
843,881	30,94
