Data from C_6_0_Relative__9__00072.txt Node

Date: Mon Jan 29 12:55:51 CET 2024
User: diatiterra
Spectrometer: HDX00911
Trigger mode: 0
Integration Time (sec): 6,000000E-3
Scans to average: 4
Nonlinearity correction enabled: false
Boxcar width: 0
Storing dark spectrum: false
XAxis mode: Wavelengths
Number of Pixels in Spectrum: 2068
>>>>>Begin Spectral Data<<<<<
194,468	39,02
195,025	28,14
195,581	26,74
196,138	29,24
196,694	37,5
197,251	29,71
197,807	42,76
198,363	32,18
198,919	38,33
199,474	40
200,03	28,92
200,586	32,43
201,141	34,83
201,696	38,49
202,251	29,53
202,806	36,55
203,361	35,44
203,916	32,2
204,471	35,15
205,025	32,9
205,58	31,32
206,134	34,29
206,688	37,96
207,242	31
207,796	34,29
208,35	32,12
208,904	34,49
209,457	35,27
210,011	33,4
210,564	35,34
211,117	32,5
211,67	32,19
212,223	36,83
212,776	35,89
213,329	39,19
213,881	41,68
214,434	33,53
214,986	39,91
215,538	36,5
216,09	41,31
216,642	38,12
217,194	36,25
217,746	36,65
218,297	31,55
218,849	34,33
219,4	43,42
219,951	35,11
220,502	31,69
221,053	36,76
221,604	37,29
222,155	32,87
222,705	29,44
223,256	39,91
223,806	35,64
224,356	34,4
224,906	40,46
225,456	37,26
226,006	35,45
226,556	36,74
227,106	36,16
227,655	33,48
228,204	35,62
228,754	35,73
229,303	42,2
229,852	39,09
230,401	40,09
230,949	41,76
231,498	32,89
232,047	32,76
232,595	30,33
233,143	34,36
233,691	38,32
234,239	30,36
234,787	32,73
235,335	33,98
235,883	37,84
236,43	33,06
236,978	30,79
237,525	28,57
238,072	42,27
238,619	31,07
239,166	35,76
239,713	31,26
240,26	31,54
240,806	34,63
241,353	34,48
241,899	37,22
242,445	34,64
242,991	33,41
243,537	33,49
244,083	36,31
244,629	33,9
245,174	37,12
245,72	34,22
246,265	38,93
246,81	32,51
247,355	33,18
247,9	40,04
248,445	29,85
248,99	38,81
249,534	29,93
250,079	28
250,623	36,71
251,168	35,79
251,712	32,69
252,256	31,83
252,8	30,5
253,343	31,75
253,887	32,55
254,43	30,69
254,974	37,65
255,517	34,33
256,06	37,53
256,603	34,77
257,146	35,03
257,689	33,33
258,232	38,1
258,774	29,21
259,317	34,99
259,859	31,66
260,401	35,5
260,943	32,22
261,485	33,78
262,027	31,73
262,569	33,25
263,11	37,82
263,652	38,82
264,193	35,79
264,734	37,84
265,275	33,8
265,816	35,82
266,357	31,07
266,898	34,25
267,438	43,81
267,979	35,4
268,519	42,45
269,059	35,05
269,6	35,21
270,14	30,63
270,68	36,86
271,219	35,86
271,759	41,57
272,298	30,51
272,838	33,94
273,377	33,95
273,916	34,45
274,455	28,95
274,994	31,28
275,533	35,1
276,072	34,12
276,61	32,6
277,149	39,32
277,687	33,87
278,225	30,32
278,763	38,24
279,301	30,44
279,839	32,9
280,377	30,09
280,914	35,27
281,452	33,03
281,989	32,97
282,526	34,33
283,064	32,66
283,601	31,79
284,137	33,1
284,674	30,34
285,211	32,46
285,747	30,55
286,284	29
286,82	34,4
287,356	37,75
287,892	31,97
288,428	25,97
288,964	41,65
289,5	31,69
290,035	35,32
290,571	36,34
291,106	39,6
291,641	29,55
292,176	37,9
292,711	39,04
293,246	32,8
293,781	32,05
294,315	30,67
294,85	31,86
295,384	35,96
295,918	32,22
296,453	30,42
296,987	30,81
297,52	34,43
298,054	35,79
298,588	38,91
299,121	34,15
299,655	33,71
300,188	30,3
300,721	44,42
301,254	31,51
301,787	32,93
302,32	35,02
302,853	30,84
303,385	35,9
303,918	28,29
304,45	27,63
304,982	32,22
305,514	32,87
306,046	29,98
306,578	34,32
307,11	37,53
307,641	35,49
308,173	32,73
308,704	41,29
309,236	37,71
309,767	29,18
310,298	40,8
310,829	32,39
311,359	33,64
311,89	32,51
312,421	33,41
312,951	35,58
313,481	33,18
314,012	35,79
314,542	27,29
315,072	32,91
315,601	38,51
316,131	35,01
316,661	36,23
317,19	34,62
317,72	34,52
318,249	40,41
318,778	31,62
319,307	35,53
319,836	32,56
320,365	32,72
320,893	34,37
321,422	35,25
321,95	40,89
322,479	32,73
323,007	30,92
323,535	32,79
324,063	33,81
324,591	31,44
325,118	37,8
325,646	35,38
326,173	34,25
326,701	37,38
327,228	38,18
327,755	33,97
328,282	35,03
328,809	37,75
329,336	33,03
329,862	37,95
330,389	35,63
330,915	39,55
331,441	39,86
331,968	30,36
332,494	36,25
333,02	32,9
333,545	38,43
334,071	30,36
334,597	32,21
335,122	36,75
335,648	33,76
336,173	32,97
336,698	38,76
337,223	34,71
337,748	30,46
338,272	30,54
338,797	32,75
339,322	35,07
339,846	30,21
340,37	37,97
340,894	29,4
341,419	35,92
341,942	31,64
342,466	34,45
342,99	35,48
343,514	39,2
344,037	26,8
344,56	26,72
345,084	33,33
345,607	32,85
346,13	30,15
346,653	32,77
347,175	26,53
347,698	31,43
348,221	34,82
348,743	36,43
349,265	31,48
349,787	34,52
350,309	31,28
350,831	34,66
351,353	36,49
351,875	31,71
352,397	29
352,918	37,54
353,439	31,82
353,961	33,95
354,482	28,96
355,003	28,15
355,524	30,79
356,044	32,48
356,565	31,76
357,086	28,79
357,606	28,92
358,126	33,23
358,646	32,35
359,167	32,61
359,687	30,19
360,206	30,72
360,726	34,93
361,246	32,5
361,765	35,01
362,285	31,08
362,804	32,21
363,323	34,41
363,842	30,97
364,361	29,01
364,88	30,66
365,398	32,5
365,917	27,64
366,435	28,53
366,954	33,17
367,472	31,96
367,99	32,17
368,508	33,51
369,026	32,93
369,544	30,37
370,061	34,07
370,579	29,78
371,096	32,72
371,613	37,77
372,131	33,18
372,648	28,53
373,165	30,64
373,681	32,82
374,198	32,86
374,715	34,01
375,231	33,09
375,747	28,36
376,264	29,63
376,78	30,12
377,296	26,54
377,812	31,24
378,327	26,51
378,843	31,78
379,359	30,83
379,874	27,64
380,389	29,69
380,905	34,08
381,42	28,45
381,935	29,89
382,449	31,13
382,964	26,71
383,479	28,13
383,993	27,39
384,508	28,52
385,022	27,26
385,536	27,44
386,05	26,1
386,564	28,27
387,078	25,58
387,592	27,9
388,105	25,56
388,619	27,07
389,132	26,82
389,645	26,34
390,158	25,71
390,671	25,32
391,184	25,25
391,697	24,84
392,21	24,4
392,722	23,38
393,235	24,8
393,747	24,07
394,259	23,41
394,771	23,55
395,283	21,9
395,795	22,38
396,307	22,46
396,818	23,8
397,33	22,45
397,841	22,52
398,353	21,54
398,864	21,78
399,375	21,44
399,886	20,3
400,397	21,5
400,907	21,03
401,418	20,05
401,928	19,91
402,439	19,32
402,949	20,08
403,459	17,25
403,969	18,3
404,479	18,32
404,989	17,04
405,498	16,92
406,008	16,58
406,517	16,02
407,027	16,59
407,536	16,34
408,045	15,07
408,554	15,25
409,063	13,27
409,572	14,99
410,08	13,69
410,589	12,68
411,097	12,52
411,606	12,62
412,114	11,87
412,622	12,22
413,13	11,49
413,638	10,73
414,145	11,65
414,653	11,04
415,16	10,35
415,668	10,35
416,175	9,66
416,682	9,89
417,189	9,37
417,696	9,45
418,203	9,78
418,71	8,88
419,216	9,19
419,723	9,27
420,229	8,73
420,735	7,92
421,242	8,38
421,748	8,77
422,254	8,68
422,759	8,19
423,265	8,55
423,771	8,36
424,276	8,5
424,781	8,23
425,287	8,37
425,792	7,84
426,297	7,91
426,802	7,98
427,306	7,83
427,811	7,89
428,316	7,65
428,82	7,78
429,324	7,91
429,829	8,15
430,333	7,92
430,837	7,86
431,34	7,95
431,844	7,36
432,348	7,37
432,851	7,67
433,355	7,48
433,858	7,42
434,361	7,46
434,864	7,35
435,367	7,6
435,87	7,27
436,373	7,23
436,876	7,38
437,378	7,79
437,88	7,11
438,383	7,68
438,885	7,3
439,387	7,36
439,889	7,51
440,391	7,62
440,892	7,41
441,394	7,31
441,896	7,51
442,397	7,53
442,898	7,74
443,399	7,45
443,9	7,5
444,401	7,55
444,902	7,25
445,403	7,34
445,903	7,65
446,404	7,48
446,904	7,87
447,405	7,71
447,905	7,59
448,405	7,93
448,905	7,81
449,404	7,71
449,904	7,81
450,404	7,75
450,903	7,7
451,403	8,03
451,902	7,84
452,401	7,79
452,9	7,76
453,399	7,94
453,898	8,04
454,396	7,97
454,895	8,05
455,393	8,05
455,892	8,2
456,39	8,13
456,888	8,21
457,386	8,23
457,884	8,17
458,382	8,51
458,879	8,11
459,377	8,53
459,874	8,37
460,372	8,24
460,869	8,27
461,366	8,12
461,863	8,35
462,36	8,28
462,857	8,22
463,353	7,94
463,85	8,13
464,346	8,12
464,843	8,28
465,339	8,1
465,835	7,9
466,331	8,28
466,827	8,35
467,323	8,31
467,818	8
468,314	8,19
468,809	8,54
469,305	8,35
469,8	8,35
470,295	8,51
470,79	8,6
471,285	8,05
471,78	8,32
472,274	8,16
472,769	8,54
473,263	8,43
473,758	8,53
474,252	8,36
474,746	8,29
475,24	8,14
475,734	8,38
476,228	8,47
476,721	8,32
477,215	8,46
477,708	8,42
478,202	8,74
478,695	8,3
479,188	8,25
479,681	8,56
480,174	8,63
480,667	8,26
481,159	8,33
481,652	8,4
482,144	8,69
482,637	8,47
483,129	8,5
483,621	8,56
484,113	8,64
484,605	8,7
485,097	8,72
485,588	8,62
486,08	8,49
486,571	8,78
487,063	9,09
487,554	8,89
488,045	9,13
488,536	8,96
489,027	9,23
489,518	9,14
490,008	8,81
490,499	9,15
490,989	9,15
491,48	9,39
491,97	9,23
492,46	9,32
492,95	9,36
493,44	9,67
493,93	9,55
494,419	9,53
494,909	9,77
495,398	9,63
495,888	9,87
496,377	10
496,866	9,99
497,355	10,07
497,844	10,13
498,333	10,25
498,821	10,47
499,31	10,42
499,798	10,59
500,287	10,93
500,775	10,83
501,263	11,12
501,751	11,08
502,239	11,28
502,727	11,19
503,215	11,45
503,702	11,8
504,19	12,16
504,677	12,18
505,164	12,26
505,651	12,52
506,139	12,79
506,625	12,89
507,112	13,01
507,599	13,14
508,086	13,4
508,572	13,52
509,058	13,96
509,545	14,23
510,031	14,26
510,517	14,52
511,003	14,9
511,489	15,07
511,974	15,21
512,46	15,63
512,946	15,74
513,431	15,97
513,916	16,38
514,401	16,78
514,887	17,04
515,371	17,22
515,856	17,62
516,341	17,62
516,826	18,24
517,31	18,59
517,795	18,61
518,279	19,01
518,763	19,11
519,247	19,61
519,731	19,66
520,215	20,05
520,699	20,66
521,182	20,85
521,666	21,22
522,149	21,56
522,633	21,75
523,116	22,03
523,599	22,3
524,082	22,49
524,565	23
525,048	22,79
525,53	23,53
526,013	23,47
526,495	23,91
526,978	24,06
527,46	24,28
527,942	24,54
528,424	24,52
528,906	25,04
529,388	25,11
529,87	25,28
530,351	25,24
530,833	25,56
531,314	25,7
531,795	25,99
532,277	26,06
532,758	26,26
533,238	26,09
533,719	26,4
534,2	26,42
534,681	26,6
535,161	26,4
535,642	26,92
536,122	26,69
536,602	27
537,082	27,05
537,562	26,8
538,042	26,87
538,522	27,04
539,001	27,07
539,481	27,4
539,96	27,39
540,44	27,26
540,919	27,4
541,398	27,47
541,877	27,36
542,356	27,66
542,835	27,59
543,313	27,79
543,792	27,62
544,27	27,49
544,749	27,55
545,227	27,47
545,705	28,06
546,183	27,73
546,661	27,51
547,139	27,77
547,616	27,88
548,094	27,6
548,571	28,03
549,049	27,96
549,526	28,29
550,003	28,24
550,48	28,08
550,957	28,28
551,434	28,11
551,911	28,2
552,387	28,11
552,864	27,99
553,34	28,02
553,817	28,44
554,293	28,04
554,769	28,23
555,245	28,33
555,721	28,22
556,197	28,23
556,672	27,86
557,148	28,18
557,623	28,18
558,099	28,2
558,574	28,32
559,049	28,07
559,524	27,95
559,999	27,85
560,474	27,86
560,948	27,84
561,423	27,83
561,897	27,86
562,372	27,51
562,846	27,31
563,32	27,45
563,794	27,58
564,268	27,17
564,742	27,17
565,216	27,27
565,69	27,12
566,163	26,58
566,636	26,67
567,11	26,53
567,583	26,69
568,056	26,28
568,529	26,18
569,002	25,86
569,475	26,16
569,947	25,88
570,42	25,67
570,892	25,44
571,365	25,42
571,837	25,41
572,309	25,03
572,781	25,01
573,253	24,81
573,725	24,31
574,197	24,41
574,668	24,34
575,14	24,19
575,611	23,94
576,082	23,73
576,554	23,55
577,025	23,62
577,496	23,42
577,967	23,47
578,437	23,03
578,908	22,92
579,379	23,04
579,849	22,64
580,319	22,85
580,79	22,45
581,26	22,05
581,73	22,18
582,2	22,07
582,669	22,1
583,139	21,95
583,609	21,99
584,078	21,65
584,548	21,76
585,017	21,62
585,486	21,21
585,955	21,47
586,424	21,29
586,893	21,37
587,362	21,14
587,83	21,08
588,299	21,07
588,767	20,75
589,236	21,03
589,704	20,75
590,172	20,74
590,64	20,52
591,108	20,42
591,576	20,26
592,043	20,26
592,511	20,32
592,978	20,29
593,446	19,89
593,913	20,19
594,38	20,22
594,847	19,92
595,314	20,13
595,781	19,92
596,248	19,85
596,715	20,07
597,181	19,76
597,647	20,09
598,114	19,78
598,58	19,69
599,046	19,79
599,512	19,72
599,978	19,81
600,444	19,62
600,91	19,48
601,375	19,54
601,841	19,55
602,306	19,65
602,771	19,61
603,236	19,37
603,702	19,19
604,167	19,19
604,631	19
605,096	19,11
605,561	19,14
606,025	18,89
606,49	18,8
606,954	19,19
607,418	18,9
607,882	18,64
608,347	18,66
608,81	18,54
609,274	18,47
609,738	18,4
610,202	18,32
610,665	18,09
611,128	18,15
611,592	18
612,055	17,83
612,518	17,73
612,981	17,72
613,444	17,67
613,907	17,49
614,369	17,41
614,832	17,34
615,294	17,26
615,757	17,27
616,219	17,08
616,681	16,95
617,143	16,81
617,605	16,91
618,067	16,8
618,529	16,82
618,99	16,63
619,452	16,48
619,913	16,4
620,375	16,48
620,836	16,37
621,297	16,18
621,758	16,22
622,219	16,23
622,68	16,09
623,14	15,99
623,601	15,9
624,061	15,98
624,522	15,82
624,982	15,78
625,442	15,86
625,902	15,75
626,362	15,74
626,822	15,72
627,282	15,71
627,742	15,66
628,201	15,76
628,661	15,65
629,12	15,59
629,579	15,56
630,038	15,55
630,497	15,5
630,956	15,6
631,415	15,5
631,874	15,5
632,332	15,51
632,791	15,29
633,249	15,31
633,708	15,23
634,166	15,17
634,624	15,18
635,082	15,21
635,54	14,97
635,998	15,06
636,455	14,92
636,913	14,76
637,37	14,68
637,828	14,72
638,285	14,41
638,742	14,34
639,199	14,26
639,656	14,07
640,113	14
640,57	13,85
641,027	13,89
641,483	13,58
641,94	13,67
642,396	13,27
642,852	13,31
643,309	13,09
643,765	12,97
644,221	12,8
644,676	12,95
645,132	12,64
645,588	12,45
646,043	12,46
646,499	12,19
646,954	12,19
647,409	11,97
647,864	11,96
648,319	11,74
648,774	11,61
649,229	11,52
649,684	11,41
650,139	11,4
650,593	11,35
651,047	11,28
651,502	11,21
651,956	11,15
652,41	11,13
652,864	11
653,318	10,98
653,772	10,92
654,225	10,8
654,679	10,91
655,133	10,82
655,586	10,65
656,039	10,66
656,492	10,54
656,946	10,5
657,399	10,32
657,851	10,33
658,304	10,32
658,757	10,17
659,209	10,18
659,662	9,86
660,114	9,93
660,567	9,79
661,019	9,71
661,471	9,54
661,923	9,47
662,375	9,42
662,826	9,18
663,278	9,26
663,73	9,03
664,181	9,01
664,632	8,85
665,084	8,85
665,535	8,87
665,986	8,67
666,437	8,7
666,888	8,64
667,338	8,64
667,789	8,55
668,24	8,54
668,69	8,47
669,14	8,52
669,591	8,57
670,041	8,48
670,491	8,55
670,941	8,57
671,391	8,52
671,84	8,6
672,29	8,65
672,74	8,6
673,189	8,66
673,638	8,73
674,088	8,78
674,537	8,9
674,986	8,86
675,435	8,95
675,883	9,01
676,332	9,16
676,781	9,28
677,229	9,25
677,678	9,44
678,126	9,42
678,574	9,61
679,022	9,7
679,47	9,71
679,918	9,95
680,366	10
680,814	10,26
681,261	10,38
681,709	10,35
682,156	10,45
682,604	10,72
683,051	10,8
683,498	10,99
683,945	11,15
684,392	11,27
684,839	11,46
685,286	11,67
685,732	11,86
686,179	11,95
686,625	12,34
687,071	12,4
687,518	12,76
687,964	12,97
688,41	13,17
688,856	13,47
689,301	13,85
689,747	14,23
690,193	14,57
690,638	14,86
691,084	15,39
691,529	15,62
691,974	16
692,419	16,59
692,864	17,09
693,309	17,45
693,754	17,93
694,199	18,48
694,643	18,94
695,088	19,32
695,532	19,77
695,977	20,3
696,421	20,72
696,865	21,17
697,309	21,58
697,753	22,17
698,197	22,66
698,64	23,09
699,084	23,62
699,527	24,08
699,971	24,49
700,414	24,94
700,857	25,49
701,3	25,67
701,743	26,31
702,186	26,63
702,629	26,99
703,072	27,13
703,515	27,53
703,957	28,13
704,399	28,26
704,842	28,71
705,284	29,13
705,726	29,33
706,168	29,58
706,61	30
707,052	29,96
707,494	30,7
707,935	30,86
708,377	30,9
708,818	31,37
709,26	31,52
709,701	31,71
710,142	32,14
710,583	32,47
711,024	32,52
711,465	32,55
711,905	33,14
712,346	33,24
712,787	33,54
713,227	33,75
713,667	33,88
714,108	34,19
714,548	34,65
714,988	34,76
715,428	34,83
715,868	34,97
716,307	35,14
716,747	35,4
717,186	35,53
717,626	35,79
718,065	35,97
718,504	35,9
718,944	36,23
719,383	36,36
719,822	36,63
720,261	36,7
720,699	36,85
721,138	36,93
721,576	36,93
722,015	37,32
722,453	37,42
722,892	37,47
723,33	37,54
723,768	37,77
724,206	37,87
724,644	38,03
725,081	37,92
725,519	38,29
725,957	38,24
726,394	38,33
726,832	38,37
727,269	38,71
727,706	38,62
728,143	38,66
728,58	38,78
729,017	38,61
729,454	38,95
729,89	38,83
730,327	38,91
730,764	39,03
731,2	39,27
731,636	39,01
732,072	39,27
732,509	39,19
732,945	39,14
733,38	39,44
733,816	39,3
734,252	39,48
734,688	39,57
735,123	39,54
735,559	39,29
735,994	39,47
736,429	39,56
736,864	39,47
737,299	39,69
737,734	39,6
738,169	39,64
738,604	39,67
739,038	39,66
739,473	39,7
739,907	39,76
740,342	39,84
740,776	39,75
741,21	39,58
741,644	39,72
742,078	39,57
742,512	39,62
742,946	39,52
743,379	39,65
743,813	39,33
744,246	39,54
744,68	39,6
745,113	39,41
745,546	39,42
745,979	39,48
746,412	39,38
746,845	39,23
747,278	39,42
747,711	39,4
748,143	39,39
748,576	39,56
749,008	39,3
749,441	39,34
749,873	39,2
750,305	39,08
750,737	39,26
751,169	39,26
751,601	39,08
752,032	39,1
752,464	39,15
752,896	39,17
753,327	38,84
753,758	39,02
754,19	39,05
754,621	38,97
755,052	38,79
755,483	38,79
755,914	38,7
756,344	38,85
756,775	38,75
757,206	38,71
757,636	38,65
758,066	38,8
758,497	38,62
758,927	38,47
759,357	38,62
759,787	38,57
760,217	38,41
760,647	38,26
761,076	38,71
761,506	38,35
761,935	38,18
762,365	38,32
762,794	38,4
763,223	38,23
763,653	38,24
764,082	38,27
764,51	38,16
764,939	38,29
765,368	37,95
765,797	38,28
766,225	38,02
766,654	38,08
767,082	38,09
767,51	37,87
767,938	37,93
768,367	38,06
768,795	38,1
769,222	38,1
769,65	37,87
770,078	37,93
770,505	37,99
770,933	37,88
771,36	37,73
771,788	37,9
772,215	37,82
772,642	37,93
773,069	37,79
773,496	37,71
773,923	37,72
774,349	37,72
774,776	37,8
775,203	37,77
775,629	37,66
776,055	37,53
776,482	37,47
776,908	37,7
777,334	37,65
777,76	37,57
778,186	37,51
778,611	37,49
779,037	37,67
779,463	37,43
779,888	37,43
780,314	37,59
780,739	37,67
781,164	37,38
781,589	37,37
782,014	37,39
782,439	37,4
782,864	37,35
783,289	37,11
783,713	37,26
784,138	37,3
784,562	37,28
784,987	37,37
785,411	37,4
785,835	37,41
786,259	37,15
786,683	37,43
787,107	37,25
787,531	37,23
787,954	37,41
788,378	37,41
788,802	37,19
789,225	37,35
789,648	37,35
790,071	37,26
790,495	37,24
790,918	37,14
791,34	37,38
791,763	37,11
792,186	37,31
792,609	37,17
793,031	37,12
793,454	37,05
793,876	37,1
794,298	37,03
794,721	36,93
795,143	37,07
795,565	37,18
795,986	37,05
796,408	37,15
796,83	37,05
797,252	37,06
797,673	36,98
798,094	37,06
798,516	36,85
798,937	36,93
799,358	36,99
799,779	37,11
800,2	36,98
800,621	36,97
801,042	37,03
801,462	36,99
801,883	37,13
802,303	36,99
802,724	36,89
803,144	37,12
803,564	37,1
803,984	36,83
804,404	37,05
804,824	36,92
805,244	36,84
805,664	36,88
806,084	36,81
806,503	37,02
806,923	37
807,342	36,87
807,761	36,94
808,18	36,93
808,599	37
809,018	36,97
809,437	36,94
809,856	36,79
810,275	36,74
810,693	36,93
811,112	36,97
811,53	36,8
811,949	37,08
812,367	36,9
812,785	36,82
813,203	37,05
813,621	37,02
814,039	36,74
814,457	36,71
814,874	36,8
815,292	36,86
815,709	36,72
816,127	37,06
816,544	36,93
816,961	36,7
817,378	36,85
817,795	36,78
818,212	36,91
818,629	36,81
819,046	36,79
819,462	36,76
819,879	36,85
820,295	36,73
820,712	36,74
821,128	36,82
821,544	36,66
821,96	36,6
822,376	36,82
822,792	36,85
823,208	36,71
823,624	36,75
824,039	36,9
824,455	36,76
824,87	36,76
825,286	36,73
825,701	36,93
826,116	36,61
826,531	36,67
826,946	36,81
827,361	36,73
827,776	36,83
828,19	36,69
828,605	36,8
829,02	36,69
829,434	36,76
829,848	36,89
830,263	36,62
830,677	36,62
831,091	36,64
831,505	36,66
831,919	36,7
832,332	36,55
832,746	36,49
833,16	36,46
833,573	36,53
833,987	36,76
834,4	36,61
834,813	36,62
835,226	36,62
835,639	36,58
836,052	36,45
836,465	36,67
836,878	36,52
837,29	36,73
837,703	36,6
838,116	36,6
838,528	36,66
838,94	36,7
839,352	36,79
839,765	36,44
840,177	36,37
