Data from C_6_0_Relative__3__00066.txt Node

Date: Mon Jan 29 12:55:33 CET 2024
User: diatiterra
Spectrometer: HDX00911
Trigger mode: 0
Integration Time (sec): 6,000000E-3
Scans to average: 4
Nonlinearity correction enabled: false
Boxcar width: 0
Storing dark spectrum: false
XAxis mode: Wavelengths
Number of Pixels in Spectrum: 2068
>>>>>Begin Spectral Data<<<<<
194,468	34,76
195,025	41,71
195,581	42,44
196,138	41,52
196,694	43,9
197,251	42,44
197,807	39,19
198,363	37,58
198,919	44,54
199,474	41,11
200,03	26,93
200,586	37,01
201,141	37,61
201,696	39,35
202,251	38,09
202,806	34,7
203,361	36,71
203,916	41,79
204,471	43,54
205,025	39,14
205,58	42,95
206,134	38,81
206,688	42,08
207,242	37,15
207,796	37,96
208,35	41,69
208,904	42,86
209,457	40,22
210,011	40,8
210,564	41,37
211,117	39,46
211,67	43,66
212,223	40,26
212,776	40,32
213,329	45,05
213,881	38,81
214,434	34,87
214,986	39,46
215,538	39,6
216,09	41,08
216,642	38,76
217,194	39,38
217,746	38,77
218,297	36,27
218,849	40,99
219,4	42,38
219,951	40,44
220,502	41,11
221,053	36,34
221,604	37,08
222,155	43,22
222,705	41,75
223,256	42,3
223,806	39,41
224,356	42,09
224,906	44,23
225,456	45,47
226,006	41,59
226,556	33,61
227,106	45,54
227,655	44,78
228,204	31,19
228,754	37,58
229,303	45,93
229,852	44,49
230,401	42,34
230,949	42,64
231,498	42,44
232,047	38,33
232,595	42,26
233,143	37,22
233,691	38,93
234,239	39,73
234,787	41,36
235,335	38,49
235,883	37,84
236,43	32,02
236,978	44,21
237,525	39,06
238,072	46,62
238,619	48,13
239,166	42,38
239,713	44,72
240,26	37,97
240,806	44,37
241,353	39,77
241,899	39,43
242,445	42,06
242,991	35,36
243,537	35,36
244,083	41,29
244,629	41,1
245,174	36,68
245,72	42,44
246,265	38
246,81	42,44
247,355	41,88
247,9	41,79
248,445	32,2
248,99	44,97
249,534	37,87
250,079	37,56
250,623	42,27
251,168	39,82
251,712	33,55
252,256	32,69
252,8	37,04
253,343	32,23
253,887	34,68
254,43	36,48
254,974	35,76
255,517	34,97
256,06	40,18
256,603	33,86
257,146	38,75
257,689	42,21
258,232	34,01
258,774	37,38
259,317	37,25
259,859	43,74
260,401	42,86
260,943	37,11
261,485	34,89
262,027	31,29
262,569	29,75
263,11	41,88
263,652	40,94
264,193	38,83
264,734	34,63
265,275	41,78
265,816	40,22
266,357	37,64
266,898	33,11
267,438	38,3
267,979	41,59
268,519	40,26
269,059	35,51
269,6	41,31
270,14	39,64
270,68	37,71
271,219	39,87
271,759	43,37
272,298	33,41
272,838	40,37
273,377	45,06
273,916	34,68
274,455	36,08
274,994	38,99
275,533	34,64
276,072	37,77
276,61	42,95
277,149	36,89
277,687	35,93
278,225	32,13
278,763	38,69
279,301	37,11
279,839	39,14
280,377	34,6
280,914	44,08
281,452	38,76
281,989	38,02
282,526	36,7
283,064	44,96
283,601	36,19
284,137	35,48
284,674	36,41
285,211	41,39
285,747	38,9
286,284	37,44
286,82	40,55
287,356	35,98
287,892	33,56
288,428	33,05
288,964	44,47
289,5	36,4
290,035	37,75
290,571	39,27
291,106	37,38
291,641	40,45
292,176	43,52
292,711	42,98
293,246	43,35
293,781	39,73
294,315	38,15
294,85	36,73
295,384	36,63
295,918	40,89
296,453	42,69
296,987	34,83
297,52	45,61
298,054	34,68
298,588	36,96
299,121	37,92
299,655	37,56
300,188	34,85
300,721	51,4
301,254	36,53
301,787	43,58
302,32	41,24
302,853	35,24
303,385	37,67
303,918	39,87
304,45	29,61
304,982	37,11
305,514	35,42
306,046	36,32
306,578	41,19
307,11	34,73
307,641	39,29
308,173	33,86
308,704	37,5
309,236	40,63
309,767	36,94
310,298	40,58
310,829	41,55
311,359	38,08
311,89	32,73
312,421	33,41
312,951	40,7
313,481	36,87
314,012	31,54
314,542	37,41
315,072	34,67
315,601	36,94
316,131	36,61
316,661	33,82
317,19	32,81
317,72	39,05
318,249	34,99
318,778	37,75
319,307	34,12
319,836	38,34
320,365	38,25
320,893	40,83
321,422	36,64
321,95	38
322,479	40,18
323,007	34,06
323,535	42,56
324,063	35,93
324,591	33,81
325,118	36,92
325,646	37,97
326,173	29,91
326,701	38,57
327,228	38,86
327,755	42,82
328,282	40,91
328,809	41,28
329,336	36,95
329,862	39,09
330,389	38,85
330,915	29,77
331,441	34,5
331,968	38,07
332,494	42,5
333,02	32,26
333,545	37,22
334,071	33,71
334,597	39,42
335,122	38,31
335,648	36,08
336,173	33,62
336,698	32,8
337,223	34,71
337,748	35,29
338,272	29,92
338,797	31,24
339,322	35,52
339,846	37,45
340,37	41,77
340,894	36,97
341,419	40,34
341,942	32,86
342,466	38,41
342,99	41,49
343,514	38,99
344,037	34
344,56	35,02
345,084	37,88
345,607	32,13
346,13	32,06
346,653	35,23
347,175	34,38
347,698	42,24
348,221	39,29
348,743	36,99
349,265	42,26
349,787	35,59
350,309	38,29
350,831	38,28
351,353	43,2
351,875	36,91
352,397	40,5
352,918	40,44
353,439	44,41
353,961	44,87
354,482	36,53
355,003	42,55
355,524	38,87
356,044	43,95
356,565	40,27
357,086	39,13
357,606	40,06
358,126	45,99
358,646	44,17
359,167	43,72
359,687	40,72
360,206	41,8
360,726	40,72
361,246	47,35
361,765	47,63
362,285	43
362,804	38,43
363,323	46,21
363,842	45,53
364,361	45,72
364,88	43,55
365,398	46,45
365,917	44,33
366,435	42,54
366,954	43,39
367,472	45,57
367,99	45,91
368,508	48,21
369,026	45,41
369,544	44,76
370,061	47,84
370,579	44,05
371,096	44,28
371,613	47,78
372,131	44,89
372,648	41,55
373,165	46,68
373,681	43,46
374,198	41,65
374,715	44,21
375,231	47,02
375,747	43,96
376,264	44,02
376,78	47,86
377,296	44,83
377,812	48,55
378,327	45,88
378,843	43,2
379,359	44,12
379,874	43,85
380,389	43,46
380,905	47,23
381,42	42,35
381,935	44,18
382,449	44,78
382,964	42,08
383,479	44,91
383,993	41,99
384,508	42,89
385,022	43,2
385,536	40,91
386,05	41,92
386,564	41,76
387,078	43,01
387,592	41,91
388,105	40,22
388,619	38,78
389,132	40,33
389,645	40,35
390,158	40,76
390,671	37,97
391,184	38,38
391,697	39,72
392,21	40,14
392,722	37,44
393,235	40,53
393,747	36,67
394,259	36,73
394,771	36,5
395,283	35,35
395,795	35,47
396,307	35,86
396,818	36,7
397,33	36,97
397,841	35,89
398,353	33,18
398,864	33,12
399,375	34,76
399,886	32,21
400,397	32,59
400,907	32,21
401,418	32,37
401,928	31,15
402,439	31,17
402,949	30,77
403,459	29,06
403,969	27,87
404,479	28,49
404,989	27,49
405,498	27,68
406,008	26,19
406,517	26,29
407,027	24,48
407,536	24,28
408,045	23,38
408,554	23,18
409,063	22,89
409,572	21,53
410,08	22,15
410,589	21,54
411,097	19,97
411,606	19,69
412,114	19,57
412,622	18,61
413,13	18,73
413,638	18,63
414,145	18,69
414,653	17,07
415,16	16,58
415,668	16,49
416,175	16,55
416,682	16,57
417,189	15,26
417,696	15,48
418,203	15,21
418,71	15,22
419,216	15,16
419,723	14,98
420,229	15,24
420,735	13,88
421,242	14,31
421,748	13,43
422,254	13,61
422,759	13,94
423,265	13,47
423,771	13,37
424,276	13,6
424,781	13,64
425,287	13,53
425,792	13,4
426,297	13,05
426,802	13,22
427,306	13,26
427,811	13,03
428,316	12,61
428,82	12,52
429,324	12,93
429,829	13,22
430,333	12,42
430,837	12,74
431,34	12,32
431,844	12,46
432,348	12,29
432,851	12,84
433,355	12,27
433,858	12,05
434,361	12,28
434,864	12,18
435,367	12,2
435,87	12,32
436,373	11,97
436,876	12,6
437,378	11,9
437,88	12,15
438,383	12,49
438,885	12,27
439,387	12,31
439,889	12,08
440,391	12,04
440,892	12,04
441,394	12,18
441,896	12,03
442,397	12,06
442,898	12,2
443,399	12,4
443,9	12,19
444,401	12,32
444,902	12,07
445,403	12,47
445,903	12,52
446,404	12,46
446,904	12,57
447,405	12,45
447,905	12,24
448,405	12,63
448,905	12,6
449,404	12,93
449,904	13,04
450,404	13,05
450,903	13,15
451,403	13,49
451,902	13,25
452,401	13,55
452,9	13,29
453,399	13,66
453,898	13,76
454,396	13,61
454,895	13,32
455,393	13,57
455,892	13,59
456,39	13,88
456,888	14,01
457,386	14,41
457,884	14,17
458,382	13,74
458,879	14,16
459,377	13,98
459,874	14,01
460,372	14,08
460,869	14,18
461,366	14,29
461,863	13,71
462,36	13,88
462,857	13,91
463,353	14,18
463,85	13,89
464,346	13,79
464,843	14,04
465,339	14,16
465,835	14
466,331	14,11
466,827	14,01
467,323	13,97
467,818	14,47
468,314	13,85
468,809	14,13
469,305	14,08
469,8	14,14
470,295	14,05
470,79	14,44
471,285	13,9
471,78	14,26
472,274	14,07
472,769	14,46
473,263	14,24
473,758	14,22
474,252	14,41
474,746	14,42
475,24	14,24
475,734	14,46
476,228	14,18
476,721	14,3
477,215	14,51
477,708	14,58
478,202	14,59
478,695	14,38
479,188	14,32
479,681	14,28
480,174	14,53
480,667	14,5
481,159	14,53
481,652	14,52
482,144	14,63
482,637	14,72
483,129	14,72
483,621	14,73
484,113	14,6
484,605	14,56
485,097	14,93
485,588	14,84
486,08	14,76
486,571	15,21
487,063	14,99
487,554	15,22
488,045	15,28
488,536	15,24
489,027	15,15
489,518	15,39
490,008	15,57
490,499	15,72
490,989	15,58
491,48	15,56
491,97	15,84
492,46	15,83
492,95	15,87
493,44	15,76
493,93	16,11
494,419	16,35
494,909	16,37
495,398	16,09
495,888	16,38
496,377	16,75
496,866	16,73
497,355	16,84
497,844	17,09
498,333	17,1
498,821	17,3
499,31	17,38
499,798	17,72
500,287	17,71
500,775	18,02
501,263	18,17
501,751	18,08
502,239	18,53
502,727	18,55
503,215	18,9
503,702	19,29
504,19	19,16
504,677	19,35
505,164	19,86
505,651	20,16
506,139	20,29
506,625	20,45
507,112	20,69
507,599	20,86
508,086	21,37
508,572	21,44
509,058	21,61
509,545	21,99
510,031	22,42
510,517	22,41
511,003	23,1
511,489	23,17
511,974	23,45
512,46	23,49
512,946	24,09
513,431	24,45
513,916	24,53
514,401	24,64
514,887	25,37
515,371	25,43
515,856	25,69
516,341	25,9
516,826	26,53
517,31	26,73
517,795	26,76
518,279	27,27
518,763	27,34
519,247	27,95
519,731	27,95
520,215	28,58
520,699	28,42
521,182	29,17
521,666	29,52
522,149	29,9
522,633	30,18
523,116	30,16
523,599	30,5
524,082	31,18
524,565	31,51
525,048	31,72
525,53	31,61
526,013	31,92
526,495	31,85
526,978	32,21
527,46	32,31
527,942	32,88
528,424	32,97
528,906	33,52
529,388	33,19
529,87	33,64
530,351	33,87
530,833	33,99
531,314	33,98
531,795	34,13
532,277	34,5
532,758	34,43
533,238	34,56
533,719	34,67
534,2	34,81
534,681	34,96
535,161	34,7
535,642	34,84
536,122	34,87
536,602	35,21
537,082	35,26
537,562	35,43
538,042	34,88
538,522	35,7
539,001	35,08
539,481	35,51
539,96	35,74
540,44	35,59
540,919	35,96
541,398	35,33
541,877	35,35
542,356	35,77
542,835	35,9
543,313	35,64
543,792	35,8
544,27	36,34
544,749	35,92
545,227	35,78
545,705	35,88
546,183	36,19
546,661	36,01
547,139	35,99
547,616	35,99
548,094	35,83
548,571	36,46
549,049	36,27
549,526	36,31
550,003	36,35
550,48	36,41
550,957	36,23
551,434	36,23
551,911	36,18
552,387	36,47
552,864	36,35
553,34	36,35
553,817	36,58
554,293	36,67
554,769	36,33
555,245	36,48
555,721	36,25
556,197	36,43
556,672	36,41
557,148	36,41
557,623	36,06
558,099	36,18
558,574	36,56
559,049	36,22
559,524	36,03
559,999	36,3
560,474	36,04
560,948	36,3
561,423	36,27
561,897	36,34
562,372	36,22
562,846	35,54
563,32	35,83
563,794	35,86
564,268	35,64
564,742	35,56
565,216	35,8
565,69	35,39
566,163	35,29
566,636	35,13
567,11	35,17
567,583	35,1
568,056	35,08
568,529	34,86
569,002	34,68
569,475	34,83
569,947	34,38
570,42	34,21
570,892	34,19
571,365	33,88
571,837	34,13
572,309	33,98
572,781	33,73
573,253	33,49
573,725	32,98
574,197	33,1
574,668	32,77
575,14	33,05
575,611	32,57
576,082	32,36
576,554	32,48
577,025	32,05
577,496	32,04
577,967	31,64
578,437	31,76
578,908	31,58
579,379	31,42
579,849	31,45
580,319	31,42
580,79	31,46
581,26	31,11
581,73	30,96
582,2	30,91
582,669	30,63
583,139	30,69
583,609	30,64
584,078	30,33
584,548	30,41
585,017	30,12
585,486	30,07
585,955	29,7
586,424	29,86
586,893	30,06
587,362	29,8
587,83	29,88
588,299	29,82
588,767	29,6
589,236	29,58
589,704	29,29
590,172	29,37
590,64	29,16
591,108	29,03
591,576	28,99
592,043	28,96
592,511	28,86
592,978	29
593,446	28,65
593,913	28,64
594,38	28,57
594,847	28,65
595,314	28,59
595,781	28,55
596,248	28,58
596,715	28,63
597,181	28,36
597,647	28,46
598,114	28,54
598,58	28,49
599,046	28,38
599,512	28,4
599,978	28,07
600,444	28,33
600,91	28,24
601,375	28
601,841	28,08
602,306	27,91
602,771	28,11
603,236	27,85
603,702	27,72
604,167	27,83
604,631	27,59
605,096	27,74
605,561	27,65
606,025	27,26
606,49	27,46
606,954	27,42
607,418	27,39
607,882	27,34
608,347	27,07
608,81	26,74
609,274	26,88
609,738	26,93
610,202	26,76
610,665	26,52
611,128	26,41
611,592	26,39
612,055	26,37
612,518	26,3
612,981	26,15
613,444	26,11
613,907	25,95
614,369	25,82
614,832	25,69
615,294	25,7
615,757	25,69
616,219	25,61
616,681	25,45
617,143	25,37
617,605	25,54
618,067	24,97
618,529	24,81
618,99	25,03
619,452	24,89
619,913	24,96
620,375	24,87
620,836	24,83
621,297	24,68
621,758	24,59
622,219	24,46
622,68	24,51
623,14	24,33
623,601	24,27
624,061	24,24
624,522	24,33
624,982	24,24
625,442	24,12
625,902	24,06
626,362	23,97
626,822	23,82
627,282	23,8
627,742	24,04
628,201	24,02
628,661	24,04
629,12	23,68
629,579	23,9
630,038	23,76
630,497	23,82
630,956	23,66
631,415	23,59
631,874	23,61
632,332	23,64
632,791	23,54
633,249	23,43
633,708	23,37
634,166	23,21
634,624	23,32
635,082	23,18
635,54	23,11
635,998	23,06
636,455	22,83
636,913	22,88
637,37	22,72
637,828	22,66
638,285	22,59
638,742	22,33
639,199	22,11
639,656	22,17
640,113	21,92
640,57	21,84
641,027	21,75
641,483	21,56
641,94	21,53
642,396	21,2
642,852	21,14
643,309	21,19
643,765	20,91
644,221	20,59
644,676	20,72
645,132	20,43
645,588	20,4
646,043	20,3
646,499	19,85
646,954	19,91
647,409	19,64
647,864	19,54
648,319	19,27
648,774	19,25
649,229	19,05
649,684	18,99
650,139	19,01
650,593	18,89
651,047	18,85
651,502	18,61
651,956	18,65
652,41	18,48
652,864	18,2
653,318	18,54
653,772	18,33
654,225	18,23
654,679	18,2
655,133	18,05
655,586	17,93
656,039	17,92
656,492	17,82
656,946	17,59
657,399	17,68
657,851	17,55
658,304	17,32
658,757	17,15
659,209	17,12
659,662	16,87
660,114	16,92
660,567	16,66
661,019	16,72
661,471	16,34
661,923	16,3
662,375	16,09
662,826	15,91
663,278	16
663,73	15,75
664,181	15,6
664,632	15,36
665,084	15,36
665,535	15,12
665,986	15,06
666,437	14,98
666,888	14,91
667,338	14,86
667,789	14,63
668,24	14,64
668,69	14,69
669,14	14,57
669,591	14,45
670,041	14,51
670,491	14,47
670,941	14,49
671,391	14,34
671,84	14,34
672,29	14,46
672,74	14,37
673,189	14,5
673,638	14,47
674,088	14,57
674,537	14,6
674,986	14,62
675,435	14,64
675,883	14,81
676,332	14,81
676,781	14,84
677,229	14,96
677,678	15,14
678,126	15,11
678,574	15,38
679,022	15,31
679,47	15,48
679,918	15,63
680,366	15,67
680,814	15,84
681,261	15,94
681,709	16,13
682,156	16,38
682,604	16,61
683,051	16,68
683,498	16,84
683,945	17,03
684,392	17,35
684,839	17,55
685,286	17,91
685,732	18,21
686,179	18,34
686,625	18,7
687,071	18,91
687,518	19,28
687,964	19,7
688,41	19,98
688,856	20,39
689,301	20,79
689,747	21,19
690,193	21,66
690,638	22,07
691,084	22,71
691,529	22,86
691,974	23,35
692,419	24,01
692,864	24,54
693,309	24,85
693,754	25,45
694,199	25,98
694,643	26,4
695,088	26,91
695,532	27,4
695,977	27,9
696,421	28,18
696,865	28,81
697,309	29,31
697,753	29,66
698,197	30,13
698,64	30,65
699,084	30,98
699,527	31,55
699,971	31,81
700,414	32,17
700,857	32,66
701,3	32,89
701,743	33,39
702,186	33,76
702,629	34,15
703,072	34,2
703,515	34,81
703,957	35,23
704,399	35,41
704,842	35,74
705,284	35,74
705,726	36,08
706,168	36,32
706,61	36,83
707,052	36,88
707,494	37,1
707,935	37,4
708,377	37,65
708,818	37,82
709,26	38,19
709,701	38,25
710,142	38,52
710,583	38,59
711,024	38,86
711,465	38,89
711,905	39,44
712,346	39,58
712,787	39,78
713,227	40,05
713,667	39,95
714,108	40,18
714,548	40,31
714,988	40,78
715,428	40,87
715,868	40,9
716,307	41,13
716,747	41,31
717,186	41,41
717,626	41,38
718,065	41,57
718,504	41,66
718,944	41,99
719,383	42,01
719,822	42,12
720,261	42,18
720,699	42,27
721,138	42,45
721,576	42,69
722,015	42,82
722,453	42,78
722,892	42,9
723,33	42,92
723,768	43,16
724,206	43,19
724,644	43,12
725,081	43,35
725,519	43,38
725,957	43,39
726,394	43,46
726,832	43,52
727,269	43,6
727,706	43,81
728,143	43,89
728,58	44,01
729,017	43,92
729,454	44,02
729,89	44,02
730,327	44,02
730,764	44,27
731,2	44,23
731,636	44,15
732,072	44,3
732,509	44,06
732,945	44,32
733,38	44,35
733,816	44,16
734,252	44,25
734,688	44,42
735,123	44,5
735,559	44,26
735,994	44,17
736,429	44,55
736,864	44,31
737,299	44,39
737,734	44,35
738,169	44,49
738,604	44,24
739,038	44,5
739,473	44,19
739,907	44,33
740,342	44,21
740,776	44,38
741,21	44,48
741,644	44,22
742,078	44,16
742,512	44,14
742,946	44,13
743,379	44,29
743,813	44,3
744,246	44,33
744,68	44,22
745,113	44,17
745,546	44,08
745,979	44,15
746,412	44,31
746,845	44,04
747,278	44,17
747,711	44,13
748,143	44,01
748,576	44,12
749,008	43,84
749,441	43,99
749,873	43,88
750,305	43,88
750,737	43,66
751,169	43,87
751,601	43,76
752,032	43,78
752,464	43,76
752,896	43,45
753,327	43,32
753,758	43,65
754,19	43,52
754,621	43,62
755,052	43,45
755,483	43,37
755,914	43,33
756,344	43,45
756,775	43,36
757,206	43,3
757,636	43,37
758,066	43,26
758,497	42,93
758,927	43,15
759,357	43,25
759,787	43,17
760,217	43,12
760,647	43,01
761,076	43,29
761,506	42,99
761,935	42,94
762,365	42,91
762,794	43,1
763,223	42,98
763,653	42,91
764,082	42,84
764,51	42,73
764,939	42,66
765,368	42,45
765,797	42,8
766,225	42,57
766,654	42,54
767,082	42,68
767,51	42,42
767,938	42,54
768,367	42,55
768,795	42,67
769,222	42,61
769,65	42,38
770,078	42,26
770,505	42,4
770,933	42,49
771,36	42,5
771,788	42,47
772,215	42,31
772,642	42,37
773,069	42,38
773,496	42,32
773,923	42,45
774,349	42,39
774,776	42,02
775,203	42,46
775,629	42,3
776,055	42,18
776,482	42,17
776,908	42,15
777,334	42,11
777,76	42,26
778,186	42,28
778,611	42,08
779,037	42,1
779,463	42,11
779,888	42,03
780,314	42,1
780,739	42,21
781,164	42,09
781,589	42,02
782,014	41,95
782,439	41,97
782,864	41,88
783,289	42,03
783,713	41,92
784,138	41,89
784,562	42,06
784,987	42,12
785,411	41,87
785,835	41,8
786,259	41,75
786,683	41,88
787,107	41,74
787,531	42,09
787,954	41,91
788,378	41,59
788,802	41,75
789,225	41,85
789,648	41,65
790,071	42,1
790,495	41,66
790,918	41,82
791,34	41,85
791,763	41,69
792,186	41,74
792,609	41,74
793,031	41,74
793,454	41,65
793,876	41,61
794,298	41,63
794,721	41,54
795,143	41,42
795,565	41,61
795,986	41,45
796,408	41,74
796,83	41,56
797,252	41,62
797,673	41,51
798,094	41,53
798,516	41,73
798,937	41,34
799,358	41,57
799,779	41,71
800,2	41,54
800,621	41,51
801,042	41,47
801,462	41,39
801,883	41,35
802,303	41,42
802,724	41,49
803,144	41,57
803,564	41,48
803,984	41,36
804,404	41,39
804,824	41,44
805,244	41,59
805,664	41,49
806,084	41,66
806,503	41,47
806,923	41,43
807,342	41,46
807,761	41,49
808,18	41,44
808,599	41,46
809,018	41,38
809,437	41,4
809,856	41,65
810,275	41,54
810,693	41,55
811,112	41,28
811,53	41,44
811,949	41,37
812,367	41,26
812,785	41,08
813,203	41,4
813,621	41,5
814,039	41,02
814,457	41,25
814,874	41,44
815,292	41,48
815,709	41,36
816,127	41,28
816,544	41,47
816,961	41,3
817,378	41,33
817,795	41,31
818,212	41,22
818,629	41,26
819,046	41,33
819,462	41,38
819,879	41,45
820,295	41,33
820,712	41,41
821,128	41,27
821,544	41,31
821,96	41,3
822,376	41,35
822,792	41,26
823,208	41,25
823,624	41,19
824,039	41,05
824,455	41,02
824,87	41,07
825,286	41,26
825,701	41,14
826,116	41,2
826,531	41,24
826,946	41,43
827,361	41,24
827,776	41,02
828,19	41,08
828,605	41,43
829,02	41,35
829,434	41,07
829,848	41,32
830,263	41,01
830,677	41,03
831,091	41,33
831,505	41,32
831,919	41,28
832,332	41,09
832,746	41,1
