Data from C_6_0_Relative__2__00065.txt Node

Date: Mon Jan 29 12:55:30 CET 2024
User: diatiterra
Spectrometer: HDX00911
Trigger mode: 0
Integration Time (sec): 6,000000E-3
Scans to average: 4
Nonlinearity correction enabled: false
Boxcar width: 0
Storing dark spectrum: false
XAxis mode: Wavelengths
Number of Pixels in Spectrum: 2068
>>>>>Begin Spectral Data<<<<<
194,468	16,46
195,025	22,61
195,581	7,56
196,138	18,71
196,694	30,49
197,251	24,93
197,807	30,88
198,363	25,27
198,919	29,76
199,474	31,11
200,03	24,94
200,586	26,4
201,141	27,35
201,696	28,82
202,251	25,87
202,806	25,26
203,361	26,37
203,916	29,21
204,471	28,8
205,025	31,4
205,58	26,17
206,134	20,94
206,688	24,95
207,242	24,63
207,796	25,1
208,35	29,38
208,904	32,24
209,457	25,16
210,011	26,43
210,564	31,6
211,117	29,59
211,67	24,95
212,223	26,34
212,776	30,65
213,329	31,31
213,881	30,8
214,434	22,93
214,986	26,98
215,538	28,32
216,09	27,77
216,642	25,91
217,194	34,17
217,746	29,03
218,297	28,76
218,849	26,18
219,4	30,48
219,951	27,11
220,502	29,12
221,053	31,09
221,604	23,54
222,155	28,74
222,705	23,38
223,256	29,28
223,806	28,93
224,356	27,35
224,906	31,45
225,456	28,21
226,006	25,23
226,556	26,72
227,106	29,69
227,655	32,84
228,204	24,78
228,754	30,6
229,303	33,19
229,852	30,67
230,401	24,55
230,949	26,15
231,498	30,67
232,047	23,98
232,595	31,17
233,143	23,35
233,691	29,92
234,239	26,12
234,787	30,23
235,335	33,33
235,883	22,83
236,43	26,45
236,978	29,17
237,525	26,56
238,072	32,24
238,619	30,14
239,166	30,68
239,713	24,84
240,26	30,91
240,806	29,87
241,353	23,22
241,899	26,65
242,445	28,45
242,991	25,16
243,537	25,29
244,083	32,57
244,629	31,36
245,174	24,89
245,72	36,67
246,265	28,9
246,81	22,12
247,355	32,71
247,9	29,76
248,445	26,65
248,99	24,44
249,534	23,36
250,079	26,22
250,623	26,57
251,168	27,74
251,712	28,17
252,256	18,71
252,8	29,19
253,343	24,17
253,887	28,3
254,43	23,61
254,974	32,47
255,517	30,28
256,06	21,63
256,603	24,77
257,146	25,75
257,689	34,2
258,232	23,58
258,774	21,04
259,317	30,7
259,859	28,47
260,401	32,25
260,943	26
261,485	27,56
262,027	26,91
262,569	28,5
263,11	32,26
263,652	30,35
264,193	27,11
264,734	20,87
265,275	33,1
265,816	22,42
266,357	32,88
266,898	24,89
267,438	24,77
267,979	24,34
268,519	34,57
269,059	26,64
269,6	29,8
270,14	25
270,68	30,08
271,219	30,59
271,759	28,99
272,298	28,51
272,838	28,21
273,377	30,86
273,916	31,1
274,455	24,94
274,994	30,18
275,533	28,18
276,072	23,82
276,61	31,5
277,149	31,55
277,687	27,69
278,225	26,47
278,763	31,22
279,301	24,22
279,839	29,89
280,377	24,64
280,914	28,07
281,452	33,26
281,989	25,27
282,526	31,33
283,064	28,23
283,601	27,15
284,137	25,95
284,674	28,16
285,211	30,5
285,747	31,03
286,284	29,22
286,82	31,89
287,356	26,49
287,892	26,08
288,428	27,47
288,964	34,82
289,5	19,55
290,035	28,48
290,571	26,83
291,106	25,25
291,641	28,18
292,176	29,58
292,711	26,75
293,246	27,29
293,781	28,44
294,315	20,45
294,85	27,21
295,384	25,62
295,918	27,33
296,453	21,23
296,987	24,88
297,52	28,51
298,054	29,31
298,588	29,13
299,121	23,06
299,655	18,55
300,188	27,33
300,721	30,7
301,254	24,89
301,787	28,57
302,32	30,65
302,853	33,26
303,385	26,87
303,918	26,28
304,45	23,25
304,982	26,44
305,514	26,16
306,046	27,79
306,578	27,92
307,11	26,57
307,641	26,79
308,173	27,05
308,704	27,46
309,236	27,98
309,767	26,35
310,298	30,38
310,829	31,22
311,359	23,36
311,89	26,86
312,421	29,37
312,951	32,56
313,481	25,58
314,012	23,04
314,542	29,18
315,072	20,35
315,601	23,87
316,131	28,15
316,661	24,64
317,19	24,43
317,72	19,52
318,249	23,25
318,778	21,08
319,307	22,82
319,836	29,79
320,365	30,41
320,893	23,51
321,422	20,97
321,95	26
322,479	28,89
323,007	24,64
323,535	26,51
324,063	25,77
324,591	25,06
325,118	30,77
325,646	26,89
326,173	21,23
326,701	29,05
327,228	25,23
327,755	20,81
328,282	20,32
328,809	27,59
329,336	23,56
329,862	27,05
330,389	27,13
330,915	22,27
331,441	32,17
331,968	22,89
332,494	23
333,02	21,08
333,545	25,55
334,071	16,52
334,597	24,28
335,122	26,95
335,648	24,48
336,173	17,35
336,698	21,1
337,223	24,08
337,748	24,16
338,272	23,64
338,797	13,45
339,322	21,49
339,846	20,64
340,37	27,09
340,894	22,27
341,419	15,97
341,942	21,7
342,466	24,01
342,99	22,2
343,514	25,16
344,037	22,2
344,56	15,18
345,084	22,54
345,607	21,48
346,13	21,76
346,653	21,4
347,175	21,29
347,698	25,93
348,221	23,09
348,743	23,98
349,265	27,13
349,787	20,64
350,309	26,67
350,831	22,24
351,353	19,62
351,875	21,31
352,397	23,17
352,918	24,74
353,439	25
353,961	25,21
354,482	19,53
355,003	19,97
355,524	21,8
356,044	22,93
356,565	22,34
357,086	20,54
357,606	20,84
358,126	24,48
358,646	27,75
359,167	25,83
359,687	23,43
360,206	21,27
360,726	25,51
361,246	26,76
361,765	26,26
362,285	25,04
362,804	25,44
363,323	28,23
363,842	24,57
364,361	24,2
364,88	19,87
365,398	24,34
365,917	19,82
366,435	23,91
366,954	24,94
367,472	25,03
367,99	21,14
368,508	24,5
369,026	21,42
369,544	22,44
370,061	24,15
370,579	26,73
371,096	26,47
371,613	26,28
372,131	24,66
372,648	23,47
373,165	26,44
373,681	26,27
374,198	24,29
374,715	24,34
375,231	26,07
375,747	22,96
376,264	21,14
376,78	24,56
377,296	22,84
377,812	24,85
378,327	23,82
378,843	26,08
379,359	26,4
379,874	21,58
380,389	21,6
380,905	22,06
381,42	20,8
381,935	24,39
382,449	25,58
382,964	23,52
383,479	23,7
383,993	21,52
384,508	21,63
385,022	21,23
385,536	19,74
386,05	21,3
386,564	20,14
387,078	21,74
387,592	22,59
388,105	20,11
388,619	20,04
389,132	20,74
389,645	22,31
390,158	20,95
390,671	19,37
391,184	19,19
391,697	18,4
392,21	19,09
392,722	18,16
393,235	19,4
393,747	16,79
394,259	18,57
394,771	17,74
395,283	18,5
395,795	18,72
396,307	18,84
396,818	18,45
397,33	18,18
397,841	16,44
398,353	16,84
398,864	17,94
399,375	16,41
399,886	17,65
400,397	16
400,907	16,42
401,418	15,53
401,928	15,72
402,439	14,61
402,949	15,17
403,459	14,62
403,969	14,63
404,479	14,81
404,989	13,78
405,498	12,86
406,008	12,43
406,517	11,92
407,027	13,2
407,536	12,14
408,045	11,3
408,554	10,98
409,063	10,35
409,572	11,65
410,08	9,88
410,589	10,09
411,097	9,61
411,606	9,57
412,114	9,87
412,622	8,83
413,13	8,12
413,638	8,29
414,145	8,7
414,653	8,19
415,16	7,57
415,668	7,5
416,175	7,6
416,682	7,44
417,189	7,12
417,696	6,99
418,203	7,04
418,71	6,63
419,216	6,7
419,723	7,18
420,229	6,8
420,735	6,05
421,242	6,44
421,748	6,16
422,254	6,47
422,759	6,32
423,265	6,33
423,771	6,02
424,276	6,23
424,781	5,94
425,287	5,94
425,792	5,93
426,297	5,96
426,802	5,71
427,306	5,48
427,811	5,72
428,316	6,08
428,82	5,61
429,324	5,58
429,829	6,05
430,333	5,65
430,837	5,68
431,34	5,69
431,844	5,61
432,348	5,4
432,851	5,5
433,355	5,64
433,858	5,26
434,361	5,37
434,864	5,04
435,367	5,45
435,87	5,37
436,373	5,21
436,876	5,66
437,378	5,09
437,88	5,11
438,383	5,69
438,885	5,52
439,387	5,34
439,889	5,5
440,391	5,59
440,892	5,42
441,394	5,38
441,896	5,37
442,397	5,56
442,898	5,22
443,399	5,48
443,9	5,51
444,401	5,59
444,902	5,5
445,403	5,64
445,903	5,81
446,404	5,71
446,904	5,77
447,405	5,41
447,905	5,72
448,405	6,36
448,905	5,72
449,404	5,96
449,904	5,99
450,404	5,93
450,903	5,99
451,403	6,11
451,902	6,31
452,401	6,22
452,9	6,28
453,399	6,26
453,898	6,39
454,396	6,51
454,895	6,51
455,393	6,55
455,892	6,15
456,39	6,6
456,888	6,61
457,386	6,54
457,884	6,77
458,382	6,47
458,879	6,44
459,377	6,54
459,874	6,91
460,372	6,74
460,869	6,58
461,366	6,69
461,863	6,67
462,36	6,84
462,857	6,73
463,353	6,64
463,85	6,74
464,346	6,59
464,843	6,6
465,339	6,68
465,835	6,6
466,331	6,66
466,827	6,62
467,323	6,66
467,818	6,72
468,314	6,52
468,809	6,77
469,305	6,61
469,8	6,59
470,295	6,79
470,79	6,77
471,285	6,46
471,78	6,69
472,274	6,7
472,769	7
473,263	6,75
473,758	6,8
474,252	6,78
474,746	6,65
475,24	6,86
475,734	6,95
476,228	6,94
476,721	6,76
477,215	6,93
477,708	6,77
478,202	6,95
478,695	6,85
479,188	6,9
479,681	7,11
480,174	7,02
480,667	7,12
481,159	6,79
481,652	6,96
482,144	7
482,637	6,88
483,129	6,95
483,621	7,01
484,113	7,25
484,605	7,17
485,097	7,08
485,588	7,1
486,08	7,22
486,571	7,25
487,063	7,3
487,554	7,27
488,045	7,2
488,536	7,42
489,027	7,32
489,518	7,54
490,008	7,59
490,499	7,67
490,989	7,77
491,48	7,68
491,97	7,98
492,46	7,84
492,95	8,17
493,44	8,09
493,93	7,81
494,419	8,19
494,909	8,4
495,398	8,52
495,888	8,38
496,377	8,67
496,866	8,84
497,355	8,8
497,844	8,93
498,333	9,13
498,821	9,42
499,31	9,29
499,798	9,48
500,287	9,7
500,775	9,72
501,263	9,81
501,751	10,08
502,239	10,2
502,727	10,17
503,215	10,45
503,702	10,73
504,19	10,94
504,677	10,92
505,164	11,13
505,651	11,47
506,139	11,88
506,625	11,91
507,112	11,87
507,599	12,2
508,086	12,49
508,572	12,59
509,058	12,82
509,545	13,19
510,031	13,15
510,517	13,38
511,003	13,8
511,489	13,93
511,974	14,14
512,46	14,59
512,946	14,79
513,431	14,87
513,916	15,1
514,401	15,4
514,887	15,72
515,371	16,1
515,856	16,34
516,341	16,35
516,826	16,65
517,31	17,37
517,795	17,18
518,279	17,39
518,763	17,38
519,247	17,84
519,731	17,95
520,215	18,36
520,699	18,55
521,182	19,19
521,666	19,27
522,149	19,33
522,633	19,55
523,116	19,85
523,599	20,13
524,082	20,36
524,565	20,7
525,048	20,68
525,53	20,92
526,013	20,96
526,495	21,47
526,978	21,46
527,46	21,79
527,942	21,94
528,424	21,87
528,906	22,42
529,388	22,15
529,87	22,49
530,351	22,54
530,833	22,6
531,314	22,38
531,795	22,86
532,277	22,95
532,758	23,13
533,238	22,95
533,719	23,03
534,2	23,42
534,681	23,35
535,161	23,61
535,642	23,5
536,122	23,75
536,602	23,89
537,082	23,76
537,562	23,71
538,042	23,82
538,522	23,89
539,001	23,89
539,481	23,87
539,96	23,93
540,44	23,92
540,919	23,74
541,398	24,19
541,877	23,88
542,356	24
542,835	24,11
543,313	24,28
543,792	24,24
544,27	24,14
544,749	24,08
545,227	24,28
545,705	24,1
546,183	24,22
546,661	24,23
547,139	24,34
547,616	24,61
548,094	24,29
548,571	24,49
549,049	24,11
549,526	24,55
550,003	24,43
550,48	24,38
550,957	24,67
551,434	24,43
551,911	24,49
552,387	24,55
552,864	24,41
553,34	24,49
553,817	24,47
554,293	24,64
554,769	24,35
555,245	24,62
555,721	24,42
556,197	24,67
556,672	24,56
557,148	24,46
557,623	24,5
558,099	24,49
558,574	24,69
559,049	24,66
559,524	24,45
559,999	24,17
560,474	24,56
560,948	24,09
561,423	24,09
561,897	24,36
562,372	24,09
562,846	23,92
563,32	23,87
563,794	23,96
564,268	24,06
564,742	23,8
565,216	23,95
565,69	23,8
566,163	23,61
566,636	23,67
567,11	23,53
567,583	23,49
568,056	23,33
568,529	23,11
569,002	22,96
569,475	23,13
569,947	23
570,42	22,68
570,892	22,77
571,365	22,49
571,837	22,47
572,309	22,39
572,781	22,2
573,253	22,14
573,725	22,18
574,197	21,8
574,668	21,55
575,14	21,66
575,611	21,46
576,082	21,42
576,554	21,39
577,025	21,33
577,496	21
577,967	21,05
578,437	20,86
578,908	20,77
579,379	20,55
579,849	20,49
580,319	20,46
580,79	20,51
581,26	20,39
581,73	20,3
582,2	20,2
582,669	20,05
583,139	20,09
583,609	19,88
584,078	19,75
584,548	19,96
585,017	19,76
585,486	19,32
585,955	19,38
586,424	19,43
586,893	19,24
587,362	19,25
587,83	19,43
588,299	19,09
588,767	19,07
589,236	18,96
589,704	18,99
590,172	18,81
590,64	18,66
591,108	18,81
591,576	18,72
592,043	18,61
592,511	18,6
592,978	18,48
593,446	18,58
593,913	18,47
594,38	18,53
594,847	18,26
595,314	18,34
595,781	18,44
596,248	18,46
596,715	18,38
597,181	18,24
597,647	18,23
598,114	18,16
598,58	18,21
599,046	18,14
599,512	18,24
599,978	18,16
600,444	17,96
600,91	17,86
601,375	18
601,841	17,96
602,306	17,94
602,771	17,87
603,236	17,86
603,702	17,64
604,167	17,69
604,631	17,7
605,096	17,69
605,561	17,63
606,025	17,66
606,49	17,28
606,954	17,59
607,418	17,3
607,882	17,1
608,347	17,24
608,81	17,18
609,274	17,08
609,738	16,96
610,202	17
610,665	16,82
611,128	16,74
611,592	16,84
612,055	16,53
612,518	16,56
612,981	16,48
613,444	16,4
613,907	16,31
614,369	16,22
614,832	16,08
615,294	16,18
615,757	15,85
616,219	16,11
616,681	15,96
617,143	15,67
617,605	15,74
618,067	15,49
618,529	15,59
618,99	15,62
619,452	15,65
619,913	15,44
620,375	15,42
620,836	15,2
621,297	15,38
621,758	15,24
622,219	15,28
622,68	15,25
623,14	15
623,601	14,9
624,061	14,9
624,522	14,98
624,982	14,86
625,442	14,76
625,902	14,76
626,362	14,9
626,822	14,94
627,282	14,8
627,742	14,81
628,201	14,83
628,661	14,7
629,12	14,61
629,579	14,62
630,038	14,58
630,497	14,73
630,956	14,62
631,415	14,49
631,874	14,53
632,332	14,56
632,791	14,41
633,249	14,31
633,708	14,28
634,166	14,24
634,624	14,34
635,082	14,04
635,54	14,13
635,998	13,99
636,455	13,85
636,913	13,8
637,37	13,84
637,828	13,66
638,285	13,62
638,742	13,51
639,199	13,37
639,656	13,11
640,113	13,09
640,57	12,96
641,027	12,8
641,483	12,79
641,94	12,68
642,396	12,58
642,852	12,49
643,309	12,38
643,765	12,21
644,221	12,03
644,676	11,89
645,132	11,82
645,588	11,74
646,043	11,57
646,499	11,32
646,954	11,19
647,409	11,1
647,864	11,05
648,319	10,92
648,774	10,78
649,229	10,64
649,684	10,64
650,139	10,57
650,593	10,49
651,047	10,37
651,502	10,34
651,956	10,25
652,41	10,26
652,864	10,18
653,318	10,22
653,772	10,03
654,225	10,13
654,679	10,01
655,133	9,99
655,586	9,82
656,039	9,93
656,492	9,74
656,946	9,74
657,399	9,5
657,851	9,47
658,304	9,41
658,757	9,29
659,209	9,31
659,662	8,99
660,114	9,1
660,567	8,91
661,019	8,88
661,471	8,64
661,923	8,63
662,375	8,45
662,826	8,37
663,278	8,34
663,73	8,22
664,181	7,97
664,632	8,06
665,084	7,9
665,535	7,74
665,986	7,69
666,437	7,54
666,888	7,46
667,338	7,53
667,789	7,45
668,24	7,39
668,69	7,3
669,14	7,33
669,591	7,28
670,041	7,34
670,491	7,39
670,941	7,29
671,391	7,27
671,84	7,24
672,29	7,31
672,74	7,37
673,189	7,29
673,638	7,36
674,088	7,44
674,537	7,45
674,986	7,6
675,435	7,67
675,883	7,69
676,332	7,77
676,781	7,77
677,229	7,91
677,678	8,03
678,126	8,06
678,574	8,18
679,022	8,24
679,47	8,34
679,918	8,55
680,366	8,65
680,814	8,8
681,261	8,93
681,709	9,05
682,156	9,16
682,604	9,42
683,051	9,47
683,498	9,68
683,945	9,87
684,392	10,03
684,839	10,1
685,286	10,46
685,732	10,75
686,179	10,86
686,625	11,23
687,071	11,35
687,518	11,62
687,964	11,94
688,41	12,28
688,856	12,55
689,301	12,94
689,747	13,3
690,193	13,72
690,638	13,99
691,084	14,41
691,529	14,71
691,974	15,18
692,419	15,55
692,864	15,98
693,309	16,39
693,754	16,79
694,199	17,26
694,643	17,55
695,088	17,92
695,532	18,42
695,977	18,81
696,421	19,35
696,865	19,52
697,309	19,92
697,753	20,3
698,197	20,65
698,64	21,06
699,084	21,28
699,527	21,63
699,971	21,88
700,414	22,31
700,857	22,55
701,3	22,75
701,743	23,12
702,186	23,28
702,629	23,58
703,072	23,92
703,515	24,22
703,957	24,42
704,399	24,52
704,842	24,99
705,284	24,96
705,726	25,12
706,168	25,49
706,61	25,64
707,052	25,76
707,494	25,98
707,935	26,26
708,377	26,34
708,818	26,6
709,26	26,69
709,701	26,73
710,142	26,86
710,583	27,19
711,024	27,33
711,465	27,31
711,905	27,57
712,346	27,67
712,787	27,83
713,227	28,13
713,667	28,02
714,108	28,24
714,548	28,53
714,988	28,71
715,428	28,7
715,868	28,85
716,307	28,84
716,747	28,96
717,186	29,14
717,626	29,18
718,065	29,12
718,504	29,45
718,944	29,51
719,383	29,49
719,822	29,57
720,261	29,67
720,699	29,7
721,138	29,79
721,576	29,96
722,015	30,03
722,453	30,06
722,892	30,11
723,33	30,16
723,768	30,34
724,206	30,2
724,644	30,41
725,081	30,38
725,519	30,5
725,957	30,57
726,394	30,5
726,832	30,58
727,269	30,77
727,706	30,77
728,143	30,83
728,58	30,83
729,017	30,8
729,454	30,81
729,89	30,99
730,327	30,86
730,764	30,97
731,2	31,02
731,636	30,84
732,072	31,2
732,509	31,18
732,945	31,22
733,38	31,13
733,816	30,88
734,252	30,99
734,688	31,06
735,123	31,29
735,559	31,12
735,994	31,08
736,429	31,2
736,864	31,19
737,299	31,3
737,734	31,1
738,169	31,22
738,604	31,25
739,038	31,25
739,473	31,37
739,907	31,26
740,342	31,24
740,776	31,22
741,21	31,22
741,644	31,12
742,078	31,13
742,512	31,05
742,946	30,86
743,379	31,07
743,813	30,96
744,246	31,17
744,68	31,14
745,113	31,07
745,546	31,04
745,979	31,07
746,412	31,12
746,845	31,07
747,278	31,03
747,711	30,94
748,143	30,93
748,576	30,91
749,008	30,78
749,441	30,95
749,873	30,69
750,305	30,67
750,737	30,59
751,169	30,64
751,601	30,69
752,032	30,68
752,464	30,7
752,896	30,65
753,327	30,68
753,758	30,57
754,19	30,48
754,621	30,42
755,052	30,38
755,483	30,4
755,914	30,36
756,344	30,35
756,775	30,33
757,206	30,32
757,636	30,38
758,066	30,46
758,497	30,27
758,927	30,21
759,357	30,24
759,787	30,18
760,217	29,99
760,647	30,14
761,076	30,34
761,506	30,03
761,935	30
762,365	29,99
762,794	29,96
763,223	29,87
763,653	29,92
764,082	29,74
764,51	29,83
764,939	29,77
765,368	29,8
765,797	29,78
766,225	29,72
766,654	29,84
767,082	29,87
767,51	29,84
767,938	29,88
768,367	29,78
768,795	29,92
769,222	29,73
769,65	29,81
770,078	29,61
770,505	29,64
770,933	29,67
771,36	29,53
771,788	29,69
772,215	29,73
772,642	29,62
773,069	29,65
773,496	29,66
773,923	29,66
774,349	29,65
774,776	29,61
775,203	29,46
775,629	29,52
776,055	29,49
776,482	29,47
776,908	29,65
777,334	29,4
777,76	29,28
778,186	29,42
778,611	29,47
779,037	29,58
779,463	29,43
779,888	29,37
780,314	29,49
780,739	29,29
781,164	29,25
781,589	29,4
782,014	29,18
782,439	29,32
782,864	29,54
783,289	29,3
783,713	29,24
784,138	29,09
784,562	29,27
784,987	29,33
785,411	29,27
785,835	29,08
786,259	29,15
786,683	29,32
787,107	29,19
787,531	29,33
787,954	29,35
788,378	29,03
788,802	29,05
789,225	29,31
789,648	29,18
790,071	29,13
790,495	29,14
790,918	29,05
791,34	29,15
791,763	29,01
792,186	29,25
792,609	29,05
793,031	29,06
793,454	29,09
793,876	29,04
794,298	28,97
794,721	29,07
795,143	29
795,565	29,02
795,986	29,07
796,408	29,11
796,83	28,86
797,252	29,1
797,673	29,09
798,094	28,96
798,516	29
798,937	29,01
799,358	28,84
799,779	29,16
800,2	28,83
800,621	28,97
801,042	28,99
801,462	28,87
801,883	29,11
802,303	28,72
802,724	28,95
803,144	29,03
803,564	28,94
803,984	28,94
804,404	28,83
804,824	28,97
805,244	28,9
805,664	28,78
806,084	28,92
806,503	28,95
806,923	28,92
807,342	28,87
807,761	28,88
808,18	28,87
808,599	28,92
809,018	28,63
809,437	28,81
809,856	29,03
810,275	28,85
810,693	29,11
811,112	28,94
811,53	28,85
811,949	28,9
812,367	28,81
812,785	28,85
813,203	28,77
813,621	28,66
814,039	28,72
814,457	28,86
814,874	28,8
815,292	28,79
815,709	28,71
816,127	28,96
816,544	28,83
816,961	28,87
817,378	28,76
817,795	28,76
818,212	28,68
818,629	28,82
819,046	28,8
819,462	28,72
819,879	28,84
820,295	28,68
820,712	28,72
821,128	28,82
821,544	28,64
821,96	28,89
822,376	28,76
822,792	28,86
823,208	28,79
823,624	28,76
824,039	28,78
824,455	28,75
824,87	28,66
825,286	28,88
825,701	28,82
826,116	28,69
826,531	28,86
826,946	28,63
827,361	28,93
827,776	28,82
828,19	28,48
828,605	28,83
829,02	28,59
829,434	28,67
829,848	28,71
830,263	28,83
830,677	28,73
831,091	28,64
831,505	28,64
831,919	28,76
832,332	28,56
832,746	28,62
833,16	28,57
833,573	28,55
833,987	28,69
834,4	28,51
834,813	28,64
835,226	28,44
835,639	28,72
836,052	28,56
836,465	28,6
836,878	28,67
837,29	28,73
837,703	28,8
838,116	28,59
838,528	28,59
838,94	28,47
839,352	28,76
839,765	28,57
840,177	28,6
840,589	28,67
841	28,53
841,412	28,5
