Data from D_3_0_Relative__0__00083.txt Node

Date: Mon Jan 29 12:57:12 CET 2024
User: diatiterra
Spectrometer: HDX00911
Trigger mode: 0
Integration Time (sec): 6,000000E-3
Scans to average: 2
Nonlinearity correction enabled: false
Boxcar width: 0
Storing dark spectrum: false
XAxis mode: Wavelengths
Number of Pixels in Spectrum: 2068
>>>>>Begin Spectral Data<<<<<
194,468	40,24
195,025	49,25
195,581	31,98
196,138	22,81
196,694	40,55
197,251	47,21
197,807	39,43
198,363	40,82
198,919	37,9
199,474	35,11
200,03	27,15
200,586	39,5
201,141	33,76
201,696	40,86
202,251	28,11
202,806	34,09
203,361	37,97
203,916	42,43
204,471	33,79
205,025	31,61
205,58	44,52
206,134	31,42
206,688	34,49
207,242	27,81
207,796	36,73
208,35	34,17
208,904	37,96
209,457	37,2
210,011	33,62
210,564	40,12
211,117	38,1
211,67	32,8
212,223	33,4
212,776	38,51
213,329	37,17
213,881	39,01
214,434	33,72
214,986	41,72
215,538	34,73
216,09	40,18
216,642	33,83
217,194	39,17
217,746	38,77
218,297	31,33
218,849	33,05
219,4	37,58
219,951	35,11
220,502	39,4
221,053	39,29
221,604	40,62
222,155	29,43
222,705	33,61
223,256	41,87
223,806	38,36
224,356	45,51
224,906	35,22
225,456	41,05
226,006	42,05
226,556	33,82
227,106	45,09
227,655	33,9
228,204	29,42
228,754	33,88
229,303	33,63
229,852	43,63
230,401	33,33
230,949	48,57
231,498	49,11
232,047	42,18
232,595	31,59
233,143	27,75
233,691	40,16
234,239	36,61
234,787	34,32
235,335	38,92
235,883	42,49
236,43	32,23
236,978	40,05
237,525	33,26
238,072	33,55
238,619	39,25
239,166	34,22
239,713	32,09
240,26	36,72
240,806	40,48
241,353	30,11
241,899	36,56
242,445	33,61
242,991	29,72
243,537	33,49
244,083	31,95
244,629	37,92
245,174	31
245,72	33,78
246,265	42,66
246,81	38,15
247,355	40,94
247,9	47,26
248,445	28,36
248,99	38,19
249,534	32,2
250,079	37,33
250,623	43,96
251,168	32,44
251,712	37,42
252,256	31,18
252,8	40,09
253,343	28,2
253,887	37,87
254,43	28,11
254,974	36,94
255,517	37,95
256,06	32,01
256,603	32,27
257,146	33,41
257,689	40,91
258,232	38,55
258,774	29,46
259,317	36,12
259,859	42,82
260,401	40,69
260,943	28,22
261,485	28,89
262,027	28,88
262,569	34
263,11	41,24
263,652	38,59
264,193	35,57
264,734	33,94
265,275	39,2
265,816	34,95
266,357	35,83
266,898	38,58
267,438	42,2
267,979	37,61
268,519	42,23
269,059	27,57
269,6	35,89
270,14	34,68
270,68	38,14
271,219	29,11
271,759	44,72
272,298	33,85
272,838	38,53
273,377	38,07
273,916	39,6
274,455	45,66
274,994	37
275,533	39,26
276,072	35,41
276,61	45,81
277,149	38,83
277,687	37,99
278,225	35,97
278,763	39,82
279,301	39,33
279,839	27,31
280,377	31,99
280,914	31,09
281,452	32,8
281,989	40,44
282,526	32,4
283,064	36,49
283,601	36,66
284,137	45,71
284,674	32,28
285,211	41,83
285,747	27,68
286,284	41,78
286,82	45,79
287,356	43,49
287,892	34,01
288,428	35,19
288,964	48,94
289,5	38,65
290,035	41,94
290,571	43,17
291,106	37,87
291,641	32,27
292,176	39,61
292,711	41,01
293,246	42,2
293,781	33,41
294,315	33,67
294,85	35,62
295,384	46,29
295,918	40,44
296,453	39,62
296,987	41,47
297,52	34,87
298,054	48,1
298,588	45,43
299,121	36,36
299,655	33,26
300,188	38,27
300,721	43,49
301,254	28,08
301,787	41,89
302,32	45,16
302,853	39,87
303,385	40,09
303,918	36,97
304,45	31,58
304,982	32,22
305,514	32,18
306,046	38,51
306,578	27,46
307,11	37,53
307,641	36,16
308,173	41,36
308,704	37,95
309,236	39,42
309,767	31,76
310,298	40,8
310,829	32,86
311,359	41,82
311,89	33,18
312,421	36,1
312,951	39,07
313,481	35,94
314,012	36,24
314,542	34,82
315,072	33,92
315,601	44,14
316,131	39,82
316,661	37,92
317,19	31
317,72	26,19
318,249	32,05
318,778	37,75
319,307	31,53
319,836	36,26
320,365	34,56
320,893	37,21
321,422	33,87
321,95	30,44
322,479	37,02
323,007	41,06
323,535	28,6
324,063	29,79
324,591	29,79
325,118	36,04
325,646	34,43
326,173	31,28
326,701	44,52
327,228	34,09
327,755	32,78
328,282	43,32
328,809	43,93
329,336	33,95
329,862	32,95
330,389	40,23
330,915	25,45
331,441	37,3
331,968	35,9
332,494	33,5
333,02	25,16
333,545	31,19
334,071	39,51
334,597	36,06
335,122	31,18
335,648	29,64
336,173	20,17
336,698	34,4
337,223	30,8
337,748	34,87
338,272	38,7
338,797	31,24
339,322	34,16
339,846	37,23
340,37	37,97
340,894	32,74
341,419	34,66
341,942	29,21
342,466	41,34
342,99	34,02
343,514	38,99
344,037	34,4
344,56	25,3
345,084	31,82
345,607	31,77
346,13	28,24
346,653	36,93
347,175	28,45
347,698	32,02
348,221	32,59
348,743	27,51
349,265	34,96
349,787	34,88
350,309	37,09
350,831	38,1
351,353	35,97
351,875	31,54
352,397	31,67
352,918	33,79
353,439	34,79
353,961	32,44
354,482	33,67
355,003	29,13
355,524	32,16
356,044	30,89
356,565	36,78
357,086	34,93
357,606	34,25
358,126	34,27
358,646	39,08
359,167	34,92
359,687	44,34
360,206	36,63
360,726	33,33
361,246	31,32
361,765	34,29
362,285	35,79
362,804	35,18
363,323	40,59
363,842	33,64
364,361	34,76
364,88	31,45
365,398	34,61
365,917	32,86
366,435	35,6
366,954	34,91
367,472	35,04
367,99	33,07
368,508	33,51
369,026	33,78
369,544	32,44
370,061	33,14
370,579	31,71
371,096	35,38
371,613	35,04
372,131	31,7
372,648	33,26
373,165	34,85
373,681	36,14
374,198	34,29
374,715	33,26
375,231	35,29
375,747	29,64
376,264	29,44
376,78	33,33
377,296	31,28
377,812	30,17
378,327	31,14
378,843	32,92
379,359	31,1
379,874	31,11
380,389	28,49
380,905	32,18
381,42	31,95
381,935	28,03
382,449	30,96
382,964	28,88
383,479	28,28
383,993	28,82
384,508	27,36
385,022	27,04
385,536	26,66
386,05	27,81
386,564	27,93
387,078	27,7
387,592	27,77
388,105	26,73
388,619	27,87
389,132	25,36
389,645	25,92
390,158	26,13
390,671	25,87
391,184	24,41
391,697	23,81
392,21	26,48
392,722	24,81
393,235	27,37
393,747	23,66
394,259	24,18
394,771	24,11
395,283	24,35
395,795	20,74
396,307	23,41
396,818	21,74
397,33	25,96
397,841	23,08
398,353	21,72
398,864	20,92
399,375	21,75
399,886	19,49
400,397	22,8
400,907	19,78
401,418	21,06
401,928	19,3
402,439	19,35
402,949	21,52
403,459	17,35
403,969	17,14
404,479	18,25
404,989	16,66
405,498	17,49
406,008	17,63
406,517	17,33
407,027	15,84
407,536	15,2
408,045	15,33
408,554	14,79
409,063	15,2
409,572	13,94
410,08	13,58
410,589	14,58
411,097	13,23
411,606	13,13
412,114	12,33
412,622	12,64
413,13	11,62
413,638	11,7
414,145	11,74
414,653	10,41
415,16	10,52
415,668	11,1
416,175	11,64
416,682	10,83
417,189	10,43
417,696	9,51
418,203	9,52
418,71	9,93
419,216	9,58
419,723	9,66
420,229	9,18
420,735	8,74
421,242	9,54
421,748	9,01
422,254	9,59
422,759	8,86
423,265	8,34
423,771	9,26
424,276	9,11
424,781	8,21
425,287	8,87
425,792	8,81
426,297	9,06
426,802	8,72
427,306	8,65
427,811	8,53
428,316	8,22
428,82	8,09
429,324	8,68
429,829	8,32
430,333	8,39
430,837	8,41
431,34	8,46
431,844	7,82
432,348	7,99
432,851	8,13
433,355	8,2
433,858	8,42
434,361	8,18
434,864	8,02
435,367	8,22
435,87	7,74
436,373	8,05
436,876	7,97
437,378	8,13
437,88	7,88
438,383	8,05
438,885	7,69
439,387	7,73
439,889	8,02
440,391	8,59
440,892	8,01
441,394	8,28
441,896	7,75
442,397	7,99
442,898	8,18
443,399	7,59
443,9	8,4
444,401	7,86
444,902	7,74
445,403	7,85
445,903	8,63
446,404	7,88
446,904	8,07
447,405	7,83
447,905	8,15
448,405	8,34
448,905	8,1
449,404	7,84
449,904	8,42
450,404	7,78
450,903	8,19
451,403	8,1
451,902	8,48
452,401	7,83
452,9	7,98
453,399	7,96
453,898	8,6
454,396	8,24
454,895	8,55
455,393	8,35
455,892	8,21
456,39	8,06
456,888	8,67
457,386	7,77
457,884	8,68
458,382	8,2
458,879	8,25
459,377	8,24
459,874	8,86
460,372	8,55
460,869	8,34
461,366	8,35
461,863	8,3
462,36	8,1
462,857	8,43
463,353	8,4
463,85	8,11
464,346	8,24
464,843	8,59
465,339	8,57
465,835	8,2
466,331	8,35
466,827	8,34
467,323	8,47
467,818	8,13
468,314	8,34
468,809	8,49
469,305	8,15
469,8	8,22
470,295	8,43
470,79	8,52
471,285	7,97
471,78	8,36
472,274	8,45
472,769	8,63
473,263	8,48
473,758	8,51
474,252	8,36
474,746	8,24
475,24	8,2
475,734	8,35
476,228	8,44
476,721	8,26
477,215	8,25
477,708	8,69
478,202	8,43
478,695	8,35
479,188	8,84
479,681	8,58
480,174	8,67
480,667	8,79
481,159	8,23
481,652	8,51
482,144	8,65
482,637	8,74
483,129	8,41
483,621	8,85
484,113	8,77
484,605	8,63
485,097	8,83
485,588	8,68
486,08	8,6
486,571	8,8
487,063	8,77
487,554	8,63
488,045	9,02
488,536	8,67
489,027	8,68
489,518	8,95
490,008	8,79
490,499	8,77
490,989	8,75
491,48	8,88
491,97	8,71
492,46	9,05
492,95	9,01
493,44	9,15
493,93	8,95
494,419	8,94
494,909	9,09
495,398	9,2
495,888	9,14
496,377	9,08
496,866	9,37
497,355	9,14
497,844	9,6
498,333	9,71
498,821	9,6
499,31	9,49
499,798	9,68
500,287	9,9
500,775	9,74
501,263	10,17
501,751	10,19
502,239	10,22
502,727	10,48
503,215	10,4
503,702	10,55
504,19	10,66
504,677	10,57
505,164	10,6
505,651	10,89
506,139	11,18
506,625	11,04
507,112	11,36
507,599	11,56
508,086	12,14
508,572	12,03
509,058	12,16
509,545	12
510,031	12,44
510,517	12,84
511,003	12,66
511,489	13,26
511,974	13,3
512,46	13,66
512,946	13,87
513,431	13,86
513,916	13,82
514,401	14,5
514,887	14,79
515,371	14,73
515,856	15,38
516,341	15,4
516,826	15,89
517,31	15,74
517,795	16,07
518,279	16,17
518,763	16,87
519,247	17,08
519,731	17,19
520,215	17,17
520,699	17,87
521,182	18,06
521,666	18,54
522,149	19,06
522,633	19,37
523,116	19,33
523,599	19,6
524,082	19,96
524,565	20,49
525,048	20,39
525,53	20,68
526,013	21,03
526,495	21,21
526,978	21,55
527,46	21,57
527,942	21,88
528,424	21,82
528,906	22,37
529,388	22,65
529,87	22,76
530,351	22,96
530,833	23,17
531,314	23,53
531,795	23,68
532,277	23,54
532,758	23,6
533,238	23,95
533,719	23,84
534,2	24,5
534,681	24,32
535,161	24,43
535,642	24,07
536,122	24,59
536,602	24,71
537,082	24,34
537,562	24,78
538,042	24,78
538,522	24,93
539,001	24,6
539,481	24,82
539,96	24,67
540,44	25,12
540,919	24,91
541,398	25,23
541,877	25,31
542,356	24,93
542,835	25,35
543,313	25,25
543,792	25,31
544,27	25,45
544,749	25,24
545,227	24,93
545,705	25,37
546,183	25,5
546,661	25,4
547,139	25,38
547,616	25,39
548,094	25,46
548,571	25,8
549,049	25,57
549,526	26,1
550,003	25,42
550,48	25,52
550,957	25,6
551,434	25,82
551,911	25,74
552,387	25,78
552,864	25,8
553,34	25,55
553,817	25,93
554,293	25,71
554,769	25,79
555,245	25,72
555,721	25,53
556,197	25,82
556,672	25,98
557,148	25,49
557,623	25,55
558,099	25,52
558,574	25,69
559,049	25,42
559,524	25,23
559,999	25,3
560,474	25,36
560,948	25,17
561,423	25,44
561,897	25,15
562,372	24,8
562,846	24,72
563,32	24,99
563,794	24,99
564,268	25,03
564,742	24,88
565,216	24,68
565,69	24,21
566,163	24,51
566,636	24,13
567,11	24,04
567,583	23,52
568,056	23,69
568,529	23,48
569,002	23,4
569,475	23,58
569,947	23,24
570,42	22,93
570,892	22,73
571,365	22,65
571,837	22,73
572,309	22,57
572,781	22,29
573,253	22,17
573,725	22,14
574,197	21,63
574,668	21,46
575,14	21,34
575,611	21,33
576,082	21,14
576,554	21,17
577,025	20,81
577,496	20,62
577,967	20,49
578,437	20,42
578,908	20,28
579,379	19,75
579,849	19,85
580,319	19,76
580,79	19,85
581,26	19,56
581,73	19,55
582,2	19,43
582,669	19,23
583,139	19,24
583,609	18,83
584,078	18,97
584,548	18,96
585,017	18,96
585,486	18,76
585,955	18,67
586,424	18,7
586,893	18,64
587,362	18,53
587,83	18,49
588,299	18,19
588,767	18,11
589,236	18,45
589,704	18,28
590,172	18,01
590,64	17,91
591,108	17,82
591,576	17,73
592,043	17,81
592,511	17,8
592,978	17,74
593,446	17,75
593,913	17,59
594,38	17,58
594,847	17,44
595,314	17,58
595,781	17,31
596,248	17,23
596,715	17,45
597,181	17,37
597,647	17,38
598,114	17,25
598,58	17,59
599,046	17,19
599,512	17,02
599,978	17,1
600,444	17,03
600,91	17,03
601,375	16,8
601,841	17,01
602,306	17,11
602,771	16,67
603,236	16,69
603,702	16,56
604,167	16,77
604,631	16,7
605,096	16,67
605,561	16,67
606,025	16,28
606,49	16,23
606,954	16,37
607,418	16,21
607,882	16,27
608,347	16,22
608,81	16,07
609,274	16,15
609,738	15,88
610,202	15,72
610,665	15,84
611,128	15,42
611,592	15,7
612,055	15,46
612,518	15,17
612,981	15,36
613,444	15,02
613,907	15,07
614,369	15,09
614,832	15,02
615,294	14,9
615,757	14,68
616,219	14,8
616,681	14,62
617,143	14,71
617,605	14,5
618,067	14,49
618,529	14,47
618,99	14,56
619,452	14,17
619,913	14,26
620,375	14,04
620,836	14
621,297	13,99
621,758	14,04
622,219	13,97
622,68	13,84
623,14	13,72
623,601	13,68
624,061	13,87
624,522	13,82
624,982	13,56
625,442	13,7
625,902	13,32
626,362	13,52
626,822	13,54
627,282	13,56
627,742	13,38
628,201	13,53
628,661	13,42
629,12	13,55
629,579	13,35
630,038	13,29
630,497	13,56
630,956	13,33
631,415	13,27
631,874	13,26
632,332	13,27
632,791	13,17
633,249	13,24
633,708	13,1
634,166	13,09
634,624	13,22
635,082	12,97
635,54	13,04
635,998	12,91
636,455	12,76
636,913	12,88
637,37	12,67
637,828	12,54
638,285	12,37
638,742	12,32
639,199	12,27
639,656	12,15
640,113	12,1
640,57	12,02
641,027	12,03
641,483	11,71
641,94	11,71
642,396	11,56
642,852	11,53
643,309	11,32
643,765	11,39
644,221	11,24
644,676	11,05
645,132	10,98
645,588	10,8
646,043	10,88
646,499	10,47
646,954	10,44
647,409	10,64
647,864	10,46
648,319	10,27
648,774	10,35
649,229	10,17
649,684	10,25
650,139	10,07
650,593	10,08
651,047	9,96
651,502	9,93
651,956	9,88
652,41	9,97
652,864	9,84
653,318	9,68
653,772	9,65
654,225	9,67
654,679	9,76
655,133	9,68
655,586	9,57
656,039	9,58
656,492	9,4
656,946	9,51
657,399	9,34
657,851	9,32
658,304	9,35
658,757	9,24
659,209	9,19
659,662	9,05
660,114	9,02
660,567	8,93
661,019	8,98
661,471	8,83
661,923	8,83
662,375	8,7
662,826	8,63
663,278	8,72
663,73	8,62
664,181	8,58
664,632	8,44
665,084	8,54
665,535	8,4
665,986	8,45
666,437	8,46
666,888	8,32
667,338	8,33
667,789	8,4
668,24	8,44
668,69	8,45
669,14	8,48
669,591	8,49
670,041	8,42
670,491	8,54
670,941	8,53
671,391	8,53
671,84	8,61
672,29	8,67
672,74	8,79
673,189	8,7
673,638	8,8
674,088	9,04
674,537	9
674,986	9,05
675,435	8,99
675,883	9,15
676,332	9,33
676,781	9,41
677,229	9,4
677,678	9,51
678,126	9,58
678,574	9,8
679,022	9,87
679,47	9,99
679,918	10,03
680,366	10,15
680,814	10,25
681,261	10,28
681,709	10,43
682,156	10,59
682,604	10,53
683,051	10,69
683,498	10,86
683,945	10,9
684,392	10,99
684,839	11,14
685,286	11,27
685,732	11,46
686,179	11,46
686,625	11,66
687,071	11,67
687,518	11,72
687,964	12,13
688,41	11,94
688,856	12,27
689,301	12,5
689,747	12,7
690,193	12,96
690,638	13,24
691,084	13,57
691,529	13,86
691,974	14,33
692,419	14,5
692,864	15,02
693,309	15,24
693,754	15,88
694,199	16,25
694,643	16,68
695,088	17,09
695,532	17,55
695,977	18,1
696,421	18,62
696,865	19,05
697,309	19,58
697,753	19,97
698,197	20,36
698,64	20,99
699,084	21,55
699,527	21,98
699,971	22,38
700,414	22,63
700,857	23,28
701,3	23,63
701,743	24,11
702,186	24,63
702,629	25,03
703,072	25,51
703,515	25,91
703,957	26,32
704,399	26,96
704,842	27,08
705,284	27,51
705,726	28,23
706,168	28,32
706,61	28,67
707,052	28,82
707,494	29,21
707,935	29,85
708,377	30
708,818	30,37
709,26	30,71
709,701	31,04
710,142	31,34
710,583	31,75
711,024	31,95
711,465	32,08
711,905	32,88
712,346	32,85
712,787	33,47
713,227	33,52
713,667	33,91
714,108	34,19
714,548	34,58
714,988	34,79
715,428	35,1
715,868	35,18
716,307	35,37
716,747	35,63
717,186	35,8
717,626	36,13
718,065	36,17
718,504	36,68
718,944	36,81
719,383	37,04
719,822	37,49
720,261	37,69
720,699	37,71
721,138	38,3
721,576	38,39
722,015	38,57
722,453	38,4
722,892	38,59
723,33	38,88
723,768	38,99
724,206	39,34
724,644	39,44
725,081	39,18
725,519	39,93
725,957	39,74
726,394	39,87
726,832	40,24
727,269	40,23
727,706	40,26
728,143	40,38
728,58	40,58
729,017	40,79
729,454	40,61
729,89	40,89
730,327	40,62
730,764	40,75
731,2	41,22
731,636	41,12
732,072	41,2
732,509	41,44
732,945	41,66
733,38	41,31
733,816	41,47
734,252	41,67
734,688	41,67
735,123	41,89
735,559	41,67
735,994	41,76
736,429	42,22
736,864	42,02
737,299	41,93
737,734	41,96
738,169	41,88
738,604	42
739,038	41,95
739,473	41,88
739,907	42,04
740,342	42,29
740,776	42,2
741,21	41,95
741,644	42,09
742,078	42,28
742,512	42,24
742,946	42,16
743,379	42,37
743,813	42,12
744,246	42,23
744,68	41,94
745,113	42,02
745,546	42,09
745,979	42,2
746,412	42,01
746,845	42,13
747,278	42,06
747,711	42,02
748,143	41,82
748,576	41,87
749,008	42,04
749,441	42,1
749,873	41,78
750,305	41,7
750,737	41,66
751,169	41,8
751,601	41,86
752,032	41,91
752,464	41,53
752,896	41,57
753,327	41,68
753,758	41,71
754,19	41,63
754,621	41,45
755,052	41,34
755,483	41,5
755,914	41,39
756,344	41,35
756,775	41,39
757,206	41,14
757,636	41,28
758,066	41,33
758,497	40,95
758,927	41,14
759,357	41,29
759,787	41,07
760,217	41,07
760,647	41,12
761,076	41,24
761,506	41,01
761,935	41,1
762,365	41,06
762,794	41,11
763,223	41,04
763,653	40,65
764,082	40,67
764,51	40,55
764,939	40,76
765,368	40,49
765,797	40,48
766,225	40,55
766,654	40,49
767,082	40,59
767,51	40,55
767,938	40,52
768,367	40,41
768,795	40,82
769,222	40,39
769,65	40,64
770,078	40,5
770,505	40,42
770,933	40,6
771,36	40,23
771,788	40,51
772,215	40,8
772,642	40,45
773,069	40,46
773,496	40,42
773,923	40,14
774,349	40,13
774,776	40,37
775,203	40,39
775,629	40,21
776,055	40,13
776,482	39,96
776,908	40,18
777,334	39,8
777,76	39,89
778,186	39,76
778,611	39,83
779,037	40,01
779,463	39,95
779,888	40,11
780,314	39,81
780,739	40,22
781,164	40,23
781,589	39,69
782,014	39,95
782,439	39,71
782,864	39,93
783,289	39,67
783,713	39,96
784,138	39,9
784,562	40,08
784,987	39,74
785,411	39,83
785,835	39,62
786,259	39,56
786,683	40,09
787,107	39,75
787,531	39,84
787,954	40,05
788,378	39,48
788,802	39,45
789,225	39,52
789,648	39,99
790,071	39,8
790,495	39,48
790,918	39,65
791,34	39,69
791,763	39,7
792,186	39,81
792,609	39,76
793,031	39,15
793,454	39,74
793,876	39,53
794,298	39,47
794,721	39,62
795,143	39,52
795,565	39,53
795,986	39,44
796,408	39,54
796,83	39,34
797,252	39,24
797,673	39,42
798,094	39,38
798,516	39,53
798,937	39,24
799,358	39,6
799,779	39,44
800,2	39,3
800,621	39,56
801,042	39,32
801,462	39,28
801,883	39,35
802,303	39,31
802,724	39,45
803,144	39,25
803,564	39,3
803,984	39,63
804,404	39,39
804,824	39,26
805,244	39,53
805,664	39,7
806,084	39,38
806,503	39,47
806,923	39,56
807,342	39,44
807,761	39,02
808,18	39,4
808,599	39,45
809,018	39,43
809,437	39,33
809,856	39,27
810,275	39,19
810,693	39,37
811,112	39,37
811,53	39,26
811,949	39,31
812,367	39,11
812,785	39,19
813,203	39,03
813,621	39,46
814,039	39,03
814,457	39,34
814,874	39,31
815,292	39,27
815,709	39,26
816,127	39,2
816,544	39,42
816,961	39,09
817,378	39,33
817,795	39,17
818,212	39,58
818,629	39,22
819,046	39,28
819,462	39,42
819,879	38,96
820,295	39,29
820,712	39,26
821,128	39,02
821,544	39,09
821,96	39,05
822,376	39,17
822,792	39,36
823,208	39,05
823,624	39,24
824,039	39,3
824,455	39,05
824,87	39
825,286	39,16
825,701	39,18
826,116	39,34
826,531	38,97
826,946	39,07
827,361	39,13
827,776	39,17
828,19	38,95
828,605	39,14
829,02	39,06
829,434	39,04
829,848	39,05
830,263	39
830,677	39,62
831,091	38,94
831,505	39,18
831,919	39,21
832,332	38,94
832,746	39,04
833,16	38,86
833,573	39,11
833,987	39,04
834,4	38,93
834,813	39,17
835,226	38,83
835,639	39,26
836,052	39,07
836,465	38,88
836,878	39,21
837,29	38,94
837,703	38,72
838,116	39,04
838,528	38,98
838,94	39
839,352	39,21
839,765	39
840,177	38,77
840,589	38,85
