Data from E_2_0_Relative__8__00109.txt Node

Date: Mon Jan 29 12:59:20 CET 2024
User: diatiterra
Spectrometer: HDX00911
Trigger mode: 0
Integration Time (sec): 6,000000E-3
Scans to average: 2
Nonlinearity correction enabled: false
Boxcar width: 0
Storing dark spectrum: false
XAxis mode: Wavelengths
Number of Pixels in Spectrum: 2068
>>>>>Begin Spectral Data<<<<<
194,468	26,83
195,025	15,08
195,581	22,67
196,138	29,82
196,694	25,91
197,251	25,99
197,807	23,75
198,363	23,11
198,919	23,77
199,474	15,56
200,03	20,97
200,586	20,37
201,141	17,52
201,696	19,35
202,251	18,74
202,806	16,43
203,361	27
203,916	27,93
204,471	30,61
205,025	21,29
205,58	21,25
206,134	16,22
206,688	24,95
207,242	22,72
207,796	22,86
208,35	23,23
208,904	24,49
209,457	27,31
210,011	22,62
210,564	23,91
211,117	23,79
211,67	28,77
212,223	21,84
212,776	20,77
213,329	29,09
213,881	19,3
214,434	21
214,986	14,51
215,538	25,88
216,09	23,02
216,642	20,13
217,194	17,5
217,746	20,97
218,297	20,6
218,849	26,61
219,4	25,05
219,951	18,67
220,502	22,27
221,053	19,54
221,604	22,29
222,155	21,15
222,705	26,93
223,256	16,7
223,806	17,4
224,356	27,56
224,906	23,06
225,456	22,11
226,006	21,14
226,556	22,55
227,106	25
227,655	28,36
228,204	10,4
228,754	21,56
229,303	26,15
229,852	23,33
230,401	20,27
230,949	21,76
231,498	26
232,047	19,06
232,595	15,69
233,143	20,26
233,691	23,77
234,239	16,96
234,787	14,32
235,335	16,56
235,883	20,93
236,43	15,7
236,978	21,99
237,525	17,63
238,072	20,48
238,619	32,71
239,166	22,74
239,713	21,33
240,26	15,98
240,806	22,29
241,353	10,34
241,899	27,75
242,445	20,41
242,991	18
243,537	10,07
244,083	23,65
244,629	21,4
245,174	14,41
245,72	20,89
246,265	17,48
246,81	25,06
247,355	18,82
247,9	28,45
248,445	15,57
248,99	22,59
249,534	18,59
250,079	20,89
250,623	23,67
251,168	23,04
251,712	22,8
252,256	19,57
252,8	19,61
253,343	13,98
253,887	19,57
254,43	15,67
254,974	26,12
255,517	24,31
256,06	21,85
256,603	19,55
257,146	19,49
257,689	14,07
258,232	22,22
258,774	13,61
259,317	25,28
259,859	19,59
260,401	19,05
260,943	14,44
261,485	20
262,027	19,26
262,569	17,5
263,11	25,85
263,652	17,88
264,193	27,33
264,734	19,72
265,275	18,54
265,816	21,32
266,357	19,5
266,898	17,12
267,438	29,82
267,979	25,22
268,519	27,35
269,059	24,77
269,6	21,9
270,14	22,07
270,68	26,69
271,219	23,21
271,759	24,04
272,298	29,4
272,838	13,3
273,377	18,31
273,916	15,44
274,455	19,82
274,994	29,96
275,533	20,32
276,072	21,24
276,61	26,43
277,149	15,53
277,687	23,8
278,225	14,71
278,763	23,08
279,301	18,44
279,839	23,44
280,377	24,41
280,914	19,03
281,452	18,12
281,989	24,62
282,526	22,1
283,064	20,77
283,601	22,74
284,137	23,81
284,674	25,49
285,211	23,53
285,747	27,21
286,284	19,86
286,82	25,74
287,356	33,77
287,892	24,94
288,428	10,3
288,964	31,53
289,5	20,22
290,035	20,75
290,571	29,02
291,106	22,03
291,641	22,27
292,176	17,6
292,711	19,96
293,246	26,15
293,781	31,6
294,315	13,22
294,85	18,36
295,384	22,47
295,918	23,56
296,453	16,98
296,987	17,3
297,52	25,66
298,054	21,25
298,588	23,26
299,121	19,96
299,655	20,14
300,188	10,93
300,721	21,16
301,254	17,12
301,787	15,25
302,32	21,2
302,853	24,01
303,385	20,26
303,918	6,68
304,45	19,74
304,982	11,33
305,514	16,9
306,046	18,82
306,578	18,76
307,11	23,08
307,641	18,3
308,173	15,91
308,704	16,07
309,236	17,52
309,767	18,59
310,298	23,06
310,829	17,37
311,359	26,87
311,89	25,96
312,421	16,82
312,951	27,91
313,481	23,96
314,012	17,45
314,542	16,94
315,072	9,8
315,601	18,47
316,131	20,59
316,661	15,22
317,19	20,59
317,72	17,62
318,249	18,06
318,778	10,29
319,307	23,53
319,836	20,09
320,365	17,05
320,893	18,09
321,422	25,58
321,95	21,11
322,479	20,32
323,007	20,29
323,535	22,09
324,063	15,13
324,591	18,44
325,118	26,37
325,646	23,11
326,173	23,97
326,701	26,9
327,228	21,36
327,755	16,51
328,282	13,9
328,809	23,62
329,336	20,09
329,862	16,59
330,389	14,48
330,915	18,64
331,441	22,38
331,968	13,25
332,494	26
333,02	15,27
333,545	21,13
334,071	14,06
334,597	13,46
335,122	18,26
335,648	17,27
336,173	16,7
336,698	23,39
337,223	19,52
337,748	21,01
338,272	24,06
338,797	15,62
339,322	14,25
339,846	14,68
340,37	17,22
340,894	8,69
341,419	20,38
341,942	15,01
342,466	19,62
342,99	21,58
343,514	27,25
344,037	16,8
344,56	11,54
345,084	20,08
345,607	15,88
346,13	9,16
346,653	13,07
347,175	15,18
347,698	18,27
348,221	21,42
348,743	18,96
349,265	17,22
349,787	10,32
350,309	14,19
350,831	18,45
351,353	8,78
351,875	13,09
352,397	21,67
352,918	17,06
353,439	20,45
353,961	21,01
354,482	13,8
355,003	17,02
355,524	20,27
356,044	15,29
356,565	14,89
357,086	15,14
357,606	14,54
358,126	19,73
358,646	20,69
359,167	21,65
359,687	16,35
360,206	15,36
360,726	15,07
361,246	17,79
361,765	18,51
362,285	20,77
362,804	22,46
363,323	12,5
363,842	19,49
364,361	18,72
364,88	22,76
365,398	15,92
365,917	18,77
366,435	15,81
366,954	18,45
367,472	15,79
367,99	15,43
368,508	14,97
369,026	15,67
369,544	17,8
370,061	18,2
370,579	16,76
371,096	23,12
371,613	21,62
372,131	16,25
372,648	16,04
373,165	18,03
373,681	19,07
374,198	15,6
374,715	18,6
375,231	18,32
375,747	16,29
376,264	17,28
376,78	18,13
377,296	17,82
377,812	17,41
378,327	16,5
378,843	19,23
379,359	17,54
379,874	16,38
380,389	17,81
380,905	19,2
381,42	15,47
381,935	14,46
382,449	19,7
382,964	18,17
383,479	15,07
383,993	17,38
384,508	17,34
385,022	16,9
385,536	15,68
386,05	17,67
386,564	16,14
387,078	16,17
387,592	18,07
388,105	17,2
388,619	14,3
389,132	15,02
389,645	19,66
390,158	17,58
390,671	14,31
391,184	13,3
391,697	14,5
392,21	14,35
392,722	16,32
393,235	13,53
393,747	15,08
394,259	13,58
394,771	13,73
395,283	14,85
395,795	12,56
396,307	14,45
396,818	12,12
397,33	13,68
397,841	13,47
398,353	12,89
398,864	14,05
399,375	13,28
399,886	12,23
400,397	13,29
400,907	12,92
401,418	11,87
401,928	11,56
402,439	11,45
402,949	10,55
403,459	11,47
403,969	9,4
404,479	10,7
404,989	8,96
405,498	10,42
406,008	8,98
406,517	9,36
407,027	9,16
407,536	8,43
408,045	8
408,554	9,69
409,063	8,1
409,572	8,07
410,08	7,32
410,589	7,64
411,097	6,57
411,606	6,69
412,114	7,72
412,622	7,16
413,13	7,04
413,638	6,17
414,145	6,39
414,653	5,5
415,16	6,26
415,668	6,04
416,175	5,68
416,682	6,01
417,189	5,55
417,696	5,69
418,203	5,68
418,71	5,76
419,216	4,92
419,723	5,14
420,229	5,05
420,735	4,46
421,242	4,66
421,748	4,62
422,254	4,47
422,759	4,7
423,265	4,31
423,771	4,55
424,276	5,31
424,781	4,43
425,287	4,81
425,792	4,48
426,297	4,47
426,802	4,43
427,306	4,19
427,811	4,14
428,316	4,3
428,82	3,75
429,324	4,33
429,829	4,83
430,333	4,39
430,837	4,53
431,34	4,09
431,844	4,27
432,348	4,22
432,851	4,12
433,355	4,24
433,858	3,71
434,361	4,19
434,864	3,61
435,367	4,14
435,87	3,71
436,373	4,1
436,876	4,21
437,378	4,29
437,88	3,98
438,383	4,33
438,885	4,25
439,387	4,37
439,889	4,41
440,391	3,91
440,892	4,02
441,394	4,22
441,896	4,15
442,397	4,21
442,898	4,3
443,399	3,95
443,9	4,01
444,401	3,84
444,902	4,09
445,403	4,39
445,903	3,73
446,404	4,24
446,904	3,84
447,405	3,9
447,905	4,19
448,405	4,45
448,905	4,07
449,404	4,19
449,904	4,03
450,404	4,04
450,903	3,89
451,403	4,25
451,902	4,71
452,401	4,21
452,9	4
453,399	4,33
453,898	4,39
454,396	4,21
454,895	4,45
455,393	4,82
455,892	4,3
456,39	4,31
456,888	4,5
457,386	4,31
457,884	4,22
458,382	4,32
458,879	4,35
459,377	4,49
459,874	4,36
460,372	4,58
460,869	4,46
461,366	4,44
461,863	4,29
462,36	4,51
462,857	4,49
463,353	4,69
463,85	4,58
464,346	4,2
464,843	4,4
465,339	4,37
465,835	4,6
466,331	4,6
466,827	4,39
467,323	4,37
467,818	4,63
468,314	4,41
468,809	4,46
469,305	4,34
469,8	4,65
470,295	4,43
470,79	4,71
471,285	4,37
471,78	4,39
472,274	4,57
472,769	4,71
473,263	4,42
473,758	4,45
474,252	4,67
474,746	4,42
475,24	4,52
475,734	4,65
476,228	4,64
476,721	4,68
477,215	4,86
477,708	4,62
478,202	4,81
478,695	4,59
479,188	4,63
479,681	4,75
480,174	4,69
480,667	4,71
481,159	4,59
481,652	4,64
482,144	4,8
482,637	4,88
483,129	4,88
483,621	4,8
484,113	4,82
484,605	4,6
485,097	4,66
485,588	4,76
486,08	4,57
486,571	5,09
487,063	4,73
487,554	4,77
488,045	4,85
488,536	4,74
489,027	5
489,518	5,16
490,008	4,71
490,499	5,2
490,989	4,99
491,48	5,12
491,97	5,11
492,46	4,96
492,95	5,07
493,44	5,28
493,93	5,11
494,419	5,43
494,909	5,34
495,398	5,39
495,888	5,32
496,377	5,47
496,866	5,62
497,355	5,37
497,844	5,64
498,333	5,64
498,821	5,65
499,31	6,1
499,798	5,88
500,287	5,84
500,775	5,98
501,263	6,16
501,751	6,38
502,239	6,47
502,727	6,44
503,215	6,54
503,702	6,71
504,19	6,88
504,677	6,86
505,164	6,76
505,651	7,02
506,139	7,07
506,625	7,31
507,112	7,29
507,599	7,09
508,086	7,62
508,572	7,43
509,058	7,89
509,545	7,86
510,031	8,27
510,517	8,13
511,003	8,76
511,489	8,73
511,974	8,96
512,46	9,06
512,946	8,84
513,431	9
513,916	9,35
514,401	9,34
514,887	9,56
515,371	9,78
515,856	10,19
516,341	10,33
516,826	10,41
517,31	10,38
517,795	11,03
518,279	10,64
518,763	10,88
519,247	11,06
519,731	11,47
520,215	11,53
520,699	12,18
521,182	12,02
521,666	12,36
522,149	12,43
522,633	12,87
523,116	12,52
523,599	12,97
524,082	13,15
524,565	13,42
525,048	13,02
525,53	13,67
526,013	13,78
526,495	13,8
526,978	14,09
527,46	13,99
527,942	14,27
528,424	14,07
528,906	14,92
529,388	14,62
529,87	14,77
530,351	14,64
530,833	15,33
531,314	15,16
531,795	15,28
532,277	15,52
532,758	15,53
533,238	15,63
533,719	15,6
534,2	15,57
534,681	15,79
535,161	15,74
535,642	15,72
536,122	15,75
536,602	16,13
537,082	15,96
537,562	15,7
538,042	15,89
538,522	15,92
539,001	16,32
539,481	16,11
539,96	16,29
540,44	15,99
540,919	16,11
541,398	16,11
541,877	16,29
542,356	16,29
542,835	15,93
543,313	16,34
543,792	16,21
544,27	16,35
544,749	16,46
545,227	15,95
545,705	16,43
546,183	16,2
546,661	16,31
547,139	16,42
547,616	16,52
548,094	16,4
548,571	16,99
549,049	16,74
549,526	16,68
550,003	16,64
550,48	16,57
550,957	16,28
551,434	16,61
551,911	16,76
552,387	16,64
552,864	16,47
553,34	16,38
553,817	16,77
554,293	16,81
554,769	16,66
555,245	16,88
555,721	16,6
556,197	16,56
556,672	16,47
557,148	16,51
557,623	16,6
558,099	16,59
558,574	16,57
559,049	16,56
559,524	16,61
559,999	16,33
560,474	16,57
560,948	16,36
561,423	16,39
561,897	16,46
562,372	16,58
562,846	16,25
563,32	16,24
563,794	16,27
564,268	16,18
564,742	16,07
565,216	16,06
565,69	16,23
566,163	15,72
566,636	15,52
567,11	15,66
567,583	15,63
568,056	15,88
568,529	15,48
569,002	15,35
569,475	15,09
569,947	15,3
570,42	15,03
570,892	15,17
571,365	14,86
571,837	15,02
572,309	14,83
572,781	14,67
573,253	14,41
573,725	14,57
574,197	14,16
574,668	13,87
575,14	13,97
575,611	14
576,082	14,25
576,554	14,05
577,025	13,92
577,496	13,9
577,967	13,63
578,437	13,9
578,908	13,67
579,379	13,39
579,849	13,14
580,319	13,23
580,79	13,32
581,26	12,95
581,73	13,22
582,2	12,89
582,669	13,12
583,139	13
583,609	12,86
584,078	12,91
584,548	12,94
585,017	12,6
585,486	12,41
585,955	12,15
586,424	12,46
586,893	12,55
587,362	12,3
587,83	12,35
588,299	12,31
588,767	12,28
589,236	12,24
589,704	12,08
590,172	12,09
590,64	11,76
591,108	12,04
591,576	11,88
592,043	11,73
592,511	11,85
592,978	11,94
593,446	11,7
593,913	11,81
594,38	11,54
594,847	11,59
595,314	11,75
595,781	11,83
596,248	11,56
596,715	11,83
597,181	11,78
597,647	11,63
598,114	11,45
598,58	11,61
599,046	11,46
599,512	11,56
599,978	11,49
600,444	11,54
600,91	11,29
601,375	11,31
601,841	11,36
602,306	11,36
602,771	11,31
603,236	11,39
603,702	11,18
604,167	11,13
604,631	11,12
605,096	10,98
605,561	11,05
606,025	10,98
606,49	11,04
606,954	10,79
607,418	10,94
607,882	10,78
608,347	10,86
608,81	10,62
609,274	10,59
609,738	10,61
610,202	10,68
610,665	10,63
611,128	10,46
611,592	10,25
612,055	10,31
612,518	10,43
612,981	10,34
613,444	10,26
613,907	10,1
614,369	10,19
614,832	9,99
615,294	10,03
615,757	9,8
616,219	9,89
616,681	9,82
617,143	9,75
617,605	9,86
618,067	9,62
618,529	9,65
618,99	9,64
619,452	9,64
619,913	9,44
620,375	9,52
620,836	9,35
621,297	9,46
621,758	9,53
622,219	9,36
622,68	9,31
623,14	9,21
623,601	9,28
624,061	9,1
624,522	9,26
624,982	9,07
625,442	9,15
625,902	9,01
626,362	9,16
626,822	9,07
627,282	8,95
627,742	9,1
628,201	9,04
628,661	9,08
629,12	8,87
629,579	9
630,038	8,99
630,497	8,92
630,956	8,91
631,415	8,99
631,874	8,92
632,332	8,95
632,791	8,87
633,249	8,81
633,708	8,94
634,166	8,75
634,624	8,79
635,082	8,72
635,54	8,6
635,998	8,57
636,455	8,61
636,913	8,38
637,37	8,46
637,828	8,54
638,285	8,35
638,742	8,3
639,199	8,2
639,656	8,17
640,113	7,96
640,57	8,01
641,027	8
641,483	7,7
641,94	7,89
642,396	7,76
642,852	7,41
643,309	7,63
643,765	7,44
644,221	7,42
644,676	7,39
645,132	7,24
645,588	7,22
646,043	7,1
646,499	6,91
646,954	6,91
647,409	6,88
647,864	6,89
648,319	6,72
648,774	6,73
649,229	6,57
649,684	6,56
650,139	6,51
650,593	6,49
651,047	6,44
651,502	6,44
651,956	6,36
652,41	6,28
652,864	6,26
653,318	6,27
653,772	6,32
654,225	6,18
654,679	6,22
655,133	6,07
655,586	6,08
656,039	6,02
656,492	5,97
656,946	5,94
657,399	5,95
657,851	5,86
658,304	5,89
658,757	5,71
659,209	5,74
659,662	5,63
660,114	5,67
660,567	5,6
661,019	5,49
661,471	5,34
661,923	5,39
662,375	5,33
662,826	5,25
663,278	5,21
663,73	5,17
664,181	4,99
664,632	5,08
665,084	5
665,535	5
665,986	4,85
666,437	4,86
666,888	4,76
667,338	4,81
667,789	4,8
668,24	4,83
668,69	4,73
669,14	4,91
669,591	4,8
670,041	4,76
670,491	4,88
670,941	4,87
671,391	4,76
671,84	4,8
672,29	4,91
672,74	4,98
673,189	4,88
673,638	4,99
674,088	4,98
674,537	5,03
674,986	5,14
675,435	5,16
675,883	5,2
676,332	5,31
676,781	5,29
677,229	5,34
677,678	5,4
678,126	5,43
678,574	5,59
679,022	5,68
679,47	5,64
679,918	5,76
680,366	5,94
680,814	5,87
681,261	5,99
681,709	6,05
682,156	6,23
682,604	6,31
683,051	6,37
683,498	6,38
683,945	6,52
684,392	6,54
684,839	6,77
685,286	6,75
685,732	6,97
686,179	7,06
686,625	7,11
687,071	7,29
687,518	7,6
687,964	7,46
688,41	7,85
688,856	7,87
689,301	8,05
689,747	8,3
690,193	8,44
690,638	8,73
691,084	8,97
691,529	9,18
691,974	9,5
692,419	9,71
692,864	9,98
693,309	10,41
693,754	10,53
694,199	10,8
694,643	11,23
695,088	11,3
695,532	11,73
695,977	12,12
696,421	12,35
696,865	12,59
697,309	12,89
697,753	13,26
698,197	13,46
698,64	13,78
699,084	14
699,527	14,36
699,971	14,52
700,414	14,75
700,857	15,12
701,3	15,35
701,743	15,59
702,186	15,79
702,629	15,87
703,072	16,44
703,515	16,63
703,957	16,96
704,399	17,02
704,842	17,23
705,284	17,25
705,726	17,57
706,168	17,66
706,61	17,99
707,052	18,11
707,494	18,33
707,935	18,66
708,377	18,69
708,818	18,87
709,26	19,19
709,701	19,12
710,142	19,3
710,583	19,77
711,024	19,67
711,465	19,77
711,905	20,11
712,346	20,22
712,787	20,4
713,227	20,7
713,667	20,61
714,108	20,85
714,548	21,03
714,988	21,02
715,428	21,26
715,868	21,41
716,307	21,55
716,747	21,49
717,186	21,64
717,626	21,73
718,065	21,89
718,504	22,07
718,944	22,05
719,383	22,11
719,822	22,46
720,261	22,24
720,699	22,43
721,138	22,77
721,576	22,92
722,015	22,67
722,453	22,95
722,892	23,15
723,33	22,89
723,768	23,11
724,206	23,15
724,644	23,01
725,081	23,43
725,519	23,37
725,957	23,55
726,394	23,37
726,832	23,44
727,269	23,73
727,706	23,6
728,143	23,8
728,58	24,02
729,017	24,07
729,454	24,15
729,89	23,96
730,327	24,31
730,764	23,97
731,2	24,03
731,636	24,15
732,072	24,36
732,509	24,18
732,945	24,27
733,38	24,18
733,816	24,3
734,252	24,39
734,688	24,66
735,123	24,36
735,559	24,34
735,994	24,43
736,429	24,39
736,864	24,36
737,299	24,41
737,734	24,31
738,169	24,36
738,604	24,27
739,038	24,64
739,473	24,38
739,907	24,44
740,342	24,62
740,776	24,4
741,21	24,65
741,644	24,46
742,078	24,56
742,512	24,4
742,946	24,31
743,379	24,49
743,813	24,58
744,246	24,53
744,68	24,24
745,113	24,43
745,546	24,39
745,979	24,22
746,412	24,32
746,845	24,31
747,278	24,53
747,711	24,32
748,143	24,14
748,576	24,4
749,008	24,23
749,441	24,47
749,873	24,21
750,305	24,2
750,737	24,13
751,169	24,11
751,601	24,17
752,032	24,08
752,464	24,05
752,896	24,2
753,327	24,16
753,758	24,23
754,19	24,13
754,621	23,97
755,052	23,96
755,483	23,94
755,914	23,85
756,344	23,82
756,775	23,84
757,206	23,91
757,636	24,06
758,066	23,97
758,497	23,73
758,927	23,9
759,357	23,92
759,787	23,75
760,217	23,83
760,647	23,68
761,076	23,84
761,506	23,88
761,935	23,73
762,365	23,68
762,794	23,82
763,223	23,72
763,653	23,68
764,082	23,47
764,51	23,7
764,939	23,63
765,368	23,5
765,797	23,69
766,225	23,65
766,654	23,66
767,082	23,53
767,51	23,54
767,938	23,41
768,367	23,57
768,795	23,41
769,222	23,31
769,65	23,38
770,078	23,36
770,505	23,47
770,933	23,39
771,36	23,28
771,788	23,51
772,215	23,52
772,642	23,46
773,069	23,45
773,496	23,41
773,923	23,37
774,349	23,55
774,776	23,29
775,203	23,23
775,629	23,05
776,055	23,42
776,482	23,16
776,908	23,27
777,334	23,28
777,76	23,29
778,186	23,08
778,611	23,3
779,037	23,1
779,463	23,43
779,888	23,22
780,314	23,31
780,739	23,03
781,164	23,25
781,589	22,98
782,014	23,11
782,439	23,05
782,864	23,11
783,289	23,01
783,713	23,03
784,138	23,05
784,562	23,29
784,987	23,1
785,411	23,04
785,835	23,11
786,259	22,99
786,683	23,29
787,107	23,04
787,531	23,05
787,954	23,11
788,378	23,13
788,802	23
789,225	22,97
789,648	23,32
790,071	23,01
790,495	22,92
790,918	23,04
791,34	22,9
791,763	22,87
792,186	22,99
792,609	23,19
793,031	22,98
793,454	23
793,876	22,89
794,298	23,03
794,721	22,92
795,143	22,8
795,565	22,85
795,986	22,97
796,408	22,91
796,83	22,86
797,252	22,88
797,673	22,8
798,094	22,86
798,516	22,82
798,937	22,78
799,358	22,99
799,779	22,81
800,2	22,91
800,621	22,99
801,042	23,05
801,462	22,81
801,883	22,97
802,303	23,05
802,724	22,92
803,144	22,98
803,564	23,01
803,984	22,93
804,404	23,01
804,824	22,82
805,244	22,83
805,664	22,99
806,084	23
806,503	22,85
806,923	22,93
807,342	23,01
807,761	22,74
808,18	22,99
808,599	22,92
809,018	22,66
809,437	22,79
809,856	22,77
810,275	22,88
810,693	22,96
811,112	22,81
811,53	22,92
811,949	22,76
812,367	22,87
812,785	22,54
813,203	22,9
813,621	22,79
814,039	22,77
814,457	22,89
814,874	22,62
815,292	22,84
815,709	22,64
816,127	22,92
816,544	22,91
816,961	22,68
817,378	22,66
817,795	22,67
818,212	22,99
818,629	22,85
819,046	22,75
819,462	22,81
819,879	22,78
820,295	22,68
820,712	22,86
821,128	22,75
821,544	22,59
821,96	22,66
822,376	22,88
822,792	22,91
823,208	22,71
823,624	23,04
824,039	22,77
824,455	22,67
824,87	22,74
825,286	22,82
825,701	22,92
826,116	22,66
826,531	22,73
826,946	22,64
827,361	22,77
827,776	22,67
828,19	22,67
828,605	22,69
829,02	22,57
829,434	22,67
829,848	22,8
830,263	22,88
830,677	22,71
831,091	22,68
831,505	22,51
831,919	22,7
832,332	22,63
832,746	22,6
833,16	22,56
833,573	22,64
833,987	22,8
834,4	22,68
834,813	22,64
835,226	22,52
835,639	22,67
836,052	22,69
836,465	22,67
836,878	22,59
837,29	22,58
837,703	22,83
838,116	22,47
838,528	22,41
838,94	22,68
839,352	22,75
839,765	22,45
840,177	22,87
840,589	22,7
841	22,62
841,412	22,51
841,824	22,63
842,235	22,61
842,647	22,6
843,058	22,57
843,47	22,65
843,881	22,78
844,292	22,63
844,703	22,59
845,114	22,72
845,525	22,57
