Data from E_2_0_Relative__6__00107.txt Node

Date: Mon Jan 29 12:59:14 CET 2024
User: diatiterra
Spectrometer: HDX00911
Trigger mode: 0
Integration Time (sec): 6,000000E-3
Scans to average: 2
Nonlinearity correction enabled: false
Boxcar width: 0
Storing dark spectrum: false
XAxis mode: Wavelengths
Number of Pixels in Spectrum: 2068
>>>>>Begin Spectral Data<<<<<
194,468	35,37
195,025	17,09
195,581	20,35
196,138	9,94
196,694	29,57
197,251	33,42
197,807	20,9
198,363	22,25
198,919	30,62
199,474	30,67
200,03	20,97
200,586	21,62
201,141	23,93
201,696	18,49
202,251	17,52
202,806	17,25
203,361	18,99
203,916	20,26
204,471	22,9
205,025	22,58
205,58	26,17
206,134	21,56
206,688	20,17
207,242	22,29
207,796	20,41
208,35	28,7
208,904	22,86
209,457	28,6
210,011	30,23
210,564	25,16
211,117	20,31
211,67	23,54
212,223	25,7
212,776	18,75
213,329	29,9
213,881	23,41
214,434	23,7
214,986	21,32
215,538	24,12
216,09	28,44
216,642	22,27
217,194	28,33
217,746	23,52
218,297	25,32
218,849	16,74
219,4	27,56
219,951	21,78
220,502	22,27
221,053	24,58
221,604	26,46
222,155	18,85
222,705	27,35
223,256	22,34
223,806	34,59
224,356	26,71
224,906	23,48
225,456	28
226,006	24,32
226,556	15,03
227,106	27,68
227,655	21,54
228,204	26,33
228,754	27,31
229,303	20
229,852	20,3
230,401	28,83
230,949	24,84
231,498	24,67
232,047	21,63
232,595	26,99
233,143	17,62
233,691	27,46
234,239	25
234,787	29,77
235,335	22,58
235,883	29,39
236,43	22,73
236,978	20,6
237,525	18,08
238,072	27,89
238,619	35,98
239,166	32,89
239,713	25,47
240,26	30,91
240,806	30,52
241,353	14,94
241,899	26,87
242,445	24,12
242,991	23,64
243,537	26,93
244,083	32,78
244,629	24,79
245,174	17,9
245,72	28,89
246,265	31,93
246,81	30,47
247,355	29,65
247,9	23,19
248,445	18,55
248,99	23
249,534	19,05
250,079	26,67
250,623	24,64
251,168	27,96
251,712	21,51
252,256	26,88
252,8	23,97
253,343	23,93
253,887	28,51
254,43	19,53
254,974	28
255,517	27,29
256,06	33,33
256,603	15
257,146	19,95
257,689	26,19
258,232	32,2
258,774	22,03
259,317	19,41
259,859	21,87
260,401	16,88
260,943	24,67
261,485	22,22
262,027	13,57
262,569	23
263,11	27,14
263,652	23,53
264,193	19,96
264,734	16,06
265,275	27,93
265,816	19,12
266,357	30,84
266,898	23,97
267,438	26,61
267,979	21,68
268,519	31,73
269,059	21,5
269,6	25,51
270,14	26,13
270,68	27,12
271,219	18,99
271,759	26,74
272,298	23,61
272,838	25,23
273,377	28,6
273,916	20,81
274,455	26,5
274,994	28,19
275,533	20,79
276,072	22,96
276,61	30,84
277,149	29,13
277,687	24,26
278,225	34,62
278,763	24,89
279,301	24,67
279,839	27,31
280,377	16,82
280,914	21,35
281,452	29,13
281,989	28,13
282,526	27,25
283,064	23,99
283,601	26,91
284,137	24,29
284,674	24,03
285,211	31,81
285,747	22,91
286,284	30,37
286,82	22,55
287,356	20,97
287,892	22,22
288,428	22,32
288,964	34,35
289,5	24,72
290,035	29,14
290,571	27,07
291,106	17,08
291,641	21,82
292,176	31,3
292,711	21,27
293,246	32,11
293,781	23,48
294,315	18,7
294,85	19,69
295,384	27,42
295,918	28
296,453	30,19
296,987	27,73
297,52	26,97
298,054	30,65
298,588	28,04
299,121	27,05
299,655	23,3
300,188	15,49
300,721	35,58
301,254	18,49
301,787	22,52
302,32	26,73
302,853	27,97
303,385	23,79
303,918	21,83
304,45	23,25
304,982	27,78
305,514	19,68
306,046	27,57
306,578	22,88
307,11	20,75
307,641	29,02
308,173	29,55
308,704	20,54
309,236	30,17
309,767	13,41
310,298	31,04
310,829	26,76
311,359	27,34
311,89	27,31
312,421	20,4
312,951	24,65
313,481	29,95
314,012	22,82
314,542	21,65
315,072	18,34
315,601	26,58
316,131	23,34
316,661	16,18
317,19	14,71
317,72	19,52
318,249	23,93
318,778	25
319,307	21,18
319,836	25,64
320,365	29,49
320,893	27,39
321,422	23,73
321,95	30,89
322,479	25,73
323,007	27,05
323,535	23,02
324,063	26
324,591	19,86
325,118	26,37
325,646	24,06
326,173	24,43
326,701	27,86
327,228	26,36
327,755	16,99
328,282	15,51
328,809	23,62
329,336	19,17
329,862	23,86
330,389	24,14
330,915	23,18
331,441	32,63
331,968	16,63
332,494	16
333,02	22,15
333,545	23,94
334,071	18,53
334,597	25
335,122	27,17
335,648	19,85
336,173	24,08
336,698	19,27
337,223	20,82
337,748	20,17
338,272	23,64
338,797	20,39
339,322	28,28
339,846	21,06
340,37	16,71
340,894	30,96
341,419	23,32
341,942	28,8
342,466	30,48
342,99	20,33
343,514	31,87
344,037	18
344,56	22,47
345,084	27,65
345,607	18,05
346,13	20,23
346,653	21,78
347,175	23,91
347,698	27,31
348,221	26,63
348,743	19,33
349,265	23,13
349,787	18,51
350,309	21,03
350,831	19,48
351,353	21,86
351,875	21,14
352,397	17
352,918	16,38
353,439	20,45
353,961	24,37
354,482	15,49
355,003	13,09
355,524	20,58
356,044	23,57
356,565	19,45
357,086	20,24
357,606	16,8
358,126	23
358,646	22,66
359,167	17,89
359,687	24,53
360,206	18,91
360,726	17,1
361,246	26,32
361,765	18,22
362,285	23,12
362,804	16,24
363,323	23,17
363,842	20,03
364,361	20,86
364,88	14,34
365,398	20,66
365,917	19,3
366,435	17,61
366,954	19,7
367,472	23,23
367,99	23,22
368,508	16,29
369,026	20,07
369,544	18,78
370,061	20,3
370,579	19,25
371,096	18,96
371,613	19,8
372,131	18,98
372,648	17,12
373,165	14,71
373,681	17,52
374,198	19,34
374,715	18,81
375,231	18,12
375,747	19,04
376,264	17,86
376,78	17,54
377,296	17,06
377,812	20,89
378,327	19,28
378,843	19,4
379,359	19,71
379,874	17,42
380,389	14,54
380,905	19,2
381,42	18,47
381,935	15,75
382,449	18,38
382,964	15,84
383,479	16,78
383,993	15,27
384,508	17,2
385,022	15,58
385,536	12,26
386,05	16,03
386,564	12,07
387,078	16,3
387,592	15,98
388,105	12,25
388,619	13,19
389,132	12,47
389,645	12,81
390,158	16,62
390,671	14,53
391,184	12,96
391,697	16,88
392,21	14,14
392,722	11,92
393,235	13
393,747	10,64
394,259	14,09
394,771	12,49
395,283	13,65
395,795	12,85
396,307	13,11
396,818	12,71
397,33	14,25
397,841	12,72
398,353	13,62
398,864	13,42
399,375	11,6
399,886	12,23
400,397	12,42
400,907	13,36
401,418	10,31
401,928	11,28
402,439	10,58
402,949	10,83
403,459	10,63
403,969	11,24
404,479	11,37
404,989	8,57
405,498	10,17
406,008	10,12
406,517	9,13
407,027	8,7
407,536	8,16
408,045	8,16
408,554	9,69
409,063	8,05
409,572	7,4
410,08	8,05
410,589	8,17
411,097	7,28
411,606	6,23
412,114	6,8
412,622	6,12
413,13	6,89
413,638	6,31
414,145	6,43
414,653	5,7
415,16	5,94
415,668	5,34
416,175	5,28
416,682	5,56
417,189	4,91
417,696	5,19
418,203	5,04
418,71	5,38
419,216	5
419,723	5,12
420,229	4,95
420,735	4,49
421,242	4,21
421,748	4,6
422,254	4,71
422,759	4,54
423,265	4,59
423,771	4,84
424,276	4,44
424,781	4,32
425,287	4,15
425,792	4,38
426,297	4,1
426,802	4,26
427,306	4,45
427,811	4,16
428,316	4,3
428,82	4,16
429,324	4,35
429,829	4,29
430,333	4,12
430,837	4,09
431,34	3,91
431,844	3,7
432,348	4,41
432,851	4,11
433,355	3,85
433,858	4,29
434,361	4,39
434,864	4,16
435,367	3,92
435,87	4,06
436,373	3,92
436,876	4,4
437,378	3,53
437,88	3,68
438,383	4,09
438,885	3,74
439,387	4,49
439,889	4,38
440,391	4,37
440,892	4,28
441,394	4,12
441,896	3,75
442,397	3,92
442,898	4,06
443,399	3,74
443,9	3,96
444,401	4,13
444,902	4
445,403	4,25
445,903	4,12
446,404	4,16
446,904	4,25
447,405	4,03
447,905	4,31
448,405	4,34
448,905	4,11
449,404	4,24
449,904	4,11
450,404	3,93
450,903	4,29
451,403	3,93
451,902	4,58
452,401	3,98
452,9	4,25
453,399	4,39
453,898	4,27
454,396	4,54
454,895	4,53
455,393	4,52
455,892	4,48
456,39	4,57
456,888	4,71
457,386	4,66
457,884	4,76
458,382	4,48
458,879	4,21
459,377	4,69
459,874	4,71
460,372	4,28
460,869	4,72
461,366	4,61
461,863	4,7
462,36	4,34
462,857	4,55
463,353	4,5
463,85	4,55
464,346	4,67
464,843	4,44
465,339	4,71
465,835	4,47
466,331	4,82
466,827	4,32
467,323	4,51
467,818	4,35
468,314	4,45
468,809	4,57
469,305	4,29
469,8	4,52
470,295	4,53
470,79	4,6
471,285	4,34
471,78	4,41
472,274	4,57
472,769	4,67
473,263	4,6
473,758	4,64
474,252	4,29
474,746	4,47
475,24	4,3
475,734	4,5
476,228	4,68
476,721	4,71
477,215	4,83
477,708	4,51
478,202	4,82
478,695	4,7
479,188	4,59
479,681	4,5
480,174	4,83
480,667	4,89
481,159	4,44
481,652	4,64
482,144	4,83
482,637	4,62
483,129	4,68
483,621	4,64
484,113	4,84
484,605	4,75
485,097	4,85
485,588	4,68
486,08	4,79
486,571	4,56
487,063	4,76
487,554	4,89
488,045	4,95
488,536	5,03
489,027	4,95
489,518	5,12
490,008	5,07
490,499	5,12
490,989	5,24
491,48	5,1
491,97	5,32
492,46	5,07
492,95	5,41
493,44	5,25
493,93	5,22
494,419	5,24
494,909	5,4
495,398	5,48
495,888	5,39
496,377	5,47
496,866	5,51
497,355	5,47
497,844	5,88
498,333	6,02
498,821	5,96
499,31	5,9
499,798	5,84
500,287	6,29
500,775	6,04
501,263	6,36
501,751	6,55
502,239	6,24
502,727	6,67
503,215	6,52
503,702	6,83
504,19	6,75
504,677	6,72
505,164	7,07
505,651	7,26
506,139	7,16
506,625	7,44
507,112	7,53
507,599	7,51
508,086	7,75
508,572	7,81
509,058	8
509,545	8,31
510,031	8,49
510,517	8,66
511,003	8,88
511,489	9,05
511,974	9,12
512,46	9,47
512,946	9,47
513,431	9,48
513,916	10,49
514,401	10,18
514,887	10,44
515,371	10,65
515,856	10,74
516,341	10,53
516,826	11,45
517,31	11,15
517,795	11,34
518,279	11,44
518,763	11,85
519,247	12,39
519,731	12,42
520,215	12,58
520,699	13,14
521,182	13,03
521,666	12,99
522,149	13,52
522,633	13,63
523,116	13,93
523,599	14,1
524,082	14,4
524,565	14,37
525,048	14,63
525,53	14,7
526,013	14,89
526,495	15,13
526,978	15,57
527,46	15,86
527,942	15,2
528,424	15,39
528,906	15,72
529,388	15,98
529,87	15,73
530,351	16,24
530,833	16,35
531,314	16,37
531,795	16,5
532,277	16,46
532,758	16,91
533,238	16,85
533,719	16,98
534,2	17,21
534,681	17,4
535,161	17,13
535,642	17,06
536,122	17,23
536,602	17,4
537,082	17,61
537,562	17,44
538,042	17,52
538,522	17,33
539,001	17,77
539,481	17,81
539,96	17,85
540,44	17,57
540,919	17,59
541,398	17,63
541,877	17,75
542,356	17,55
542,835	17,83
543,313	17,97
543,792	17,59
544,27	17,67
544,749	17,81
545,227	18,13
545,705	18,14
546,183	18,15
546,661	18,02
547,139	17,67
547,616	17,94
548,094	17,7
548,571	18,07
549,049	18,03
549,526	18,13
550,003	18,12
550,48	18
550,957	18,23
551,434	18,14
551,911	18,07
552,387	18,02
552,864	17,73
553,34	18,45
553,817	18,1
554,293	18,55
554,769	18,08
555,245	18,4
555,721	18,15
556,197	18,2
556,672	18,24
557,148	18,17
557,623	18,19
558,099	18,19
558,574	18,35
559,049	18,1
559,524	18,24
559,999	18,08
560,474	17,79
560,948	17,82
561,423	17,95
561,897	17,78
562,372	17,96
562,846	17,41
563,32	17,67
563,794	17,8
564,268	17,88
564,742	17,34
565,216	17,19
565,69	17,39
566,163	17,1
566,636	17,11
567,11	17,08
567,583	17,42
568,056	16,78
568,529	16,73
569,002	16,66
569,475	16,59
569,947	16,69
570,42	16,4
570,892	16,14
571,365	16,11
571,837	16,14
572,309	15,87
572,781	15,92
573,253	15,68
573,725	15,48
574,197	15,57
574,668	15,44
575,14	15,27
575,611	15,34
576,082	14,92
576,554	14,92
577,025	14,99
577,496	14,76
577,967	14,47
578,437	14,56
578,908	14,32
579,379	14,2
579,849	14,46
580,319	14,34
580,79	14,55
581,26	13,96
581,73	13,92
582,2	13,93
582,669	13,89
583,139	13,99
583,609	13,93
584,078	13,51
584,548	13,66
585,017	13,4
585,486	13,36
585,955	13,3
586,424	13,19
586,893	13,45
587,362	12,93
587,83	12,91
588,299	13,12
588,767	12,8
589,236	12,93
589,704	13,13
590,172	12,75
590,64	12,86
591,108	12,46
591,576	12,78
592,043	12,62
592,511	12,55
592,978	12,54
593,446	12,45
593,913	12,46
594,38	12,57
594,847	12,54
595,314	12,39
595,781	12,19
596,248	12,56
596,715	12,32
597,181	12,31
597,647	12,35
598,114	12,3
598,58	12,14
599,046	12,19
599,512	11,99
599,978	12,2
600,444	12,16
600,91	12,26
601,375	12,28
601,841	12,11
602,306	11,95
602,771	12,21
603,236	11,86
603,702	11,99
604,167	11,94
604,631	11,84
605,096	11,88
605,561	11,89
606,025	11,78
606,49	11,58
606,954	11,72
607,418	11,52
607,882	11,56
608,347	11,31
608,81	11,24
609,274	11,43
609,738	11,52
610,202	11,37
610,665	11,01
611,128	11,08
611,592	11,02
612,055	10,97
612,518	10,82
612,981	11
613,444	10,89
613,907	10,75
614,369	10,67
614,832	10,53
615,294	10,66
615,757	10,42
616,219	10,45
616,681	10,46
617,143	10,26
617,605	10,31
618,067	10,19
618,529	10,21
618,99	10,18
619,452	10,14
619,913	10,11
620,375	9,93
620,836	9,64
621,297	9,92
621,758	9,93
622,219	9,94
622,68	9,74
623,14	9,68
623,601	9,82
624,061	9,59
624,522	9,71
624,982	9,56
625,442	9,66
625,902	9,48
626,362	9,6
626,822	9,57
627,282	9,38
627,742	9,56
628,201	9,53
628,661	9,5
629,12	9,44
629,579	9,54
630,038	9,38
630,497	9,57
630,956	9,44
631,415	9,39
631,874	9,33
632,332	9,46
632,791	9,25
633,249	9,32
633,708	9,47
634,166	9,33
634,624	9,26
635,082	9,2
635,54	9,23
635,998	8,9
636,455	8,78
636,913	8,86
637,37	8,85
637,828	8,69
638,285	8,84
638,742	8,6
639,199	8,6
639,656	8,53
640,113	8,27
640,57	8,27
641,027	8,17
641,483	8,17
641,94	8
642,396	7,91
642,852	7,79
643,309	7,94
643,765	7,69
644,221	7,66
644,676	7,61
645,132	7,32
645,588	7,39
646,043	7,35
646,499	7,06
646,954	7,05
647,409	6,93
647,864	6,91
648,319	6,92
648,774	6,87
649,229	6,85
649,684	6,65
650,139	6,73
650,593	6,73
651,047	6,46
651,502	6,42
651,956	6,5
652,41	6,55
652,864	6,47
653,318	6,42
653,772	6,5
654,225	6,4
654,679	6,36
655,133	6,38
655,586	6,22
656,039	6,2
656,492	6,15
656,946	6,15
657,399	6,14
657,851	6,07
658,304	6,02
658,757	5,85
659,209	5,86
659,662	5,74
660,114	5,81
660,567	5,6
661,019	5,59
661,471	5,43
661,923	5,51
662,375	5,43
662,826	5,37
663,278	5,25
663,73	5,23
664,181	5,14
664,632	5,16
665,084	5,11
665,535	5,13
665,986	5,04
666,437	5
666,888	5,09
667,338	5,01
667,789	4,91
668,24	5,01
668,69	4,96
669,14	4,91
669,591	4,87
670,041	4,96
670,491	4,89
670,941	4,99
671,391	5,06
671,84	4,97
672,29	5,04
672,74	5,05
673,189	5,08
673,638	5,18
674,088	5,19
674,537	5,31
674,986	5,28
675,435	5,3
675,883	5,35
676,332	5,48
676,781	5,61
677,229	5,58
677,678	5,69
678,126	5,8
678,574	5,87
679,022	5,88
679,47	6
679,918	6,12
680,366	6,09
680,814	6,16
681,261	6,27
681,709	6,44
682,156	6,54
682,604	6,66
683,051	6,71
683,498	6,69
683,945	6,98
684,392	6,96
684,839	7,09
685,286	7,1
685,732	7,46
686,179	7,59
686,625	7,53
687,071	7,63
687,518	7,95
687,964	8,07
688,41	8,25
688,856	8,37
689,301	8,61
689,747	8,77
690,193	9,08
690,638	9,44
691,084	9,7
691,529	9,98
691,974	10,24
692,419	10,5
692,864	10,79
693,309	11,15
693,754	11,6
694,199	11,86
694,643	12,21
695,088	12,39
695,532	13,09
695,977	13,38
696,421	13,5
696,865	13,8
697,309	14,28
697,753	14,42
698,197	14,94
698,64	15,27
699,084	15,72
699,527	16,02
699,971	16,18
700,414	16,58
700,857	16,74
701,3	16,83
701,743	17,49
702,186	17,68
702,629	18,02
703,072	18,3
703,515	18,36
703,957	18,67
704,399	18,9
704,842	19,31
705,284	19,4
705,726	19,88
706,168	19,94
706,61	20,35
707,052	20,48
707,494	20,79
707,935	20,95
708,377	21,02
708,818	21,21
709,26	21,6
709,701	21,54
710,142	21,6
710,583	21,93
711,024	22,4
711,465	22,19
711,905	22,48
712,346	22,68
712,787	22,95
713,227	22,92
713,667	23,34
714,108	23,27
714,548	23,59
714,988	23,72
715,428	23,98
715,868	23,88
716,307	24,14
716,747	24,32
717,186	24,46
717,626	24,36
718,065	24,59
718,504	24,84
718,944	24,93
719,383	24,99
719,822	25,01
720,261	24,98
720,699	25,35
721,138	25,38
721,576	25,52
722,015	25,47
722,453	25,81
722,892	25,72
723,33	25,99
723,768	25,94
724,206	26,12
724,644	26,21
725,081	26,34
725,519	26,26
725,957	26,47
726,394	26,29
726,832	26,66
727,269	26,59
727,706	26,65
728,143	26,77
728,58	26,85
729,017	26,9
729,454	26,8
729,89	26,85
730,327	27,02
730,764	26,81
731,2	26,97
731,636	27,2
732,072	27,22
732,509	26,99
732,945	27,27
733,38	27,07
733,816	27,23
734,252	27,33
734,688	27,22
735,123	27,23
735,559	27,27
735,994	27,12
736,429	27,53
736,864	27,32
737,299	27,47
737,734	27,25
738,169	27,38
738,604	27,51
739,038	27,4
739,473	27,43
739,907	27,59
740,342	27,43
740,776	27,4
741,21	27,29
741,644	27,45
742,078	27,26
742,512	27,26
742,946	27,3
743,379	27,41
743,813	27,34
744,246	27,57
744,68	27,49
745,113	27,18
745,546	27,31
745,979	27,49
746,412	27,35
746,845	27,34
747,278	27,2
747,711	27,42
748,143	27,39
748,576	27,4
749,008	27,22
749,441	27,33
749,873	27,22
750,305	27,1
750,737	27,03
751,169	27,22
751,601	27,11
752,032	27,12
752,464	27,02
752,896	27,12
753,327	26,98
753,758	26,86
754,19	27,05
754,621	26,91
755,052	26,98
755,483	27,05
755,914	26,8
756,344	26,81
756,775	26,54
757,206	26,83
757,636	26,94
758,066	26,87
758,497	26,55
758,927	26,85
759,357	26,75
759,787	26,5
760,217	26,66
760,647	26,46
761,076	26,7
761,506	26,61
761,935	26,57
762,365	26,67
762,794	26,61
763,223	26,27
763,653	26,5
764,082	26,56
764,51	26,32
764,939	26,42
765,368	26,35
765,797	26,37
766,225	26,21
766,654	26,36
767,082	26,2
767,51	26,28
767,938	26,25
768,367	26,28
768,795	26,42
769,222	26,28
769,65	26,2
770,078	26
770,505	26,04
770,933	26,18
771,36	26,09
771,788	26,23
772,215	26,29
772,642	26,12
773,069	26,07
773,496	25,82
773,923	26,15
774,349	25,93
774,776	25,98
775,203	26,02
775,629	25,98
776,055	25,88
776,482	25,98
776,908	26,23
777,334	25,79
777,76	25,73
778,186	26,03
778,611	26
779,037	26,04
779,463	26,04
779,888	25,84
780,314	26,1
780,739	25,81
781,164	25,9
781,589	25,94
782,014	25,94
782,439	25,71
782,864	25,83
783,289	25,96
783,713	25,94
784,138	25,83
784,562	25,73
784,987	25,87
785,411	25,9
785,835	25,76
786,259	25,65
786,683	25,73
787,107	25,64
787,531	25,71
787,954	25,77
788,378	25,7
788,802	25,73
789,225	25,67
789,648	25,43
790,071	25,9
790,495	25,79
790,918	25,64
791,34	25,85
791,763	25,57
792,186	25,52
792,609	25,57
793,031	25,53
793,454	25,87
793,876	25,43
794,298	25,6
794,721	25,46
795,143	25,56
795,565	25,51
795,986	25,52
796,408	25,6
796,83	25,53
797,252	25,65
797,673	25,66
798,094	25,65
798,516	25,57
798,937	25,5
799,358	25,66
799,779	25,65
800,2	25,55
800,621	25,33
801,042	25,55
801,462	25,76
801,883	25,45
802,303	25,55
802,724	25,44
803,144	25,47
803,564	25,72
803,984	25,74
804,404	25,23
804,824	25,55
805,244	25,48
805,664	25,32
806,084	25,44
806,503	25,66
806,923	25,62
807,342	25,66
807,761	25,58
808,18	25,52
808,599	25,66
809,018	25,42
809,437	25,64
809,856	25,5
810,275	25,64
810,693	25,64
811,112	25,74
811,53	25,31
811,949	25,51
812,367	25,58
812,785	25,42
813,203	25,38
813,621	25,48
814,039	25,21
814,457	25,52
814,874	25,51
815,292	25,46
815,709	25,74
816,127	25,37
816,544	25,7
816,961	25,21
817,378	25,51
817,795	25,42
818,212	25,25
818,629	25,53
819,046	25,38
819,462	25,46
819,879	25,23
820,295	25,26
820,712	25,47
821,128	25,28
821,544	25,29
821,96	25,45
822,376	25,45
822,792	25,27
823,208	25,3
823,624	25,4
824,039	25,3
824,455	25,12
824,87	25,3
825,286	25,43
825,701	25,2
826,116	25,32
826,531	25,06
826,946	25,36
827,361	25,25
827,776	25,31
828,19	25,45
828,605	25,3
829,02	25,63
829,434	25,36
829,848	25,34
830,263	25,24
830,677	25,35
831,091	25,32
831,505	25,26
831,919	25,16
832,332	25,11
832,746	25,17
833,16	25,23
833,573	25,12
833,987	25,32
834,4	25,2
834,813	25,07
835,226	25,22
835,639	24,9
836,052	25,18
836,465	25,33
836,878	25,32
837,29	25,22
837,703	25,38
838,116	25,29
838,528	25,36
838,94	25,11
839,352	25,13
839,765	25,15
840,177	25,16
840,589	25,16
841	25,26
841,412	25,29
841,824	25,17
842,235	25,18
842,647	25,16
843,058	25,32
843,47	25,09
843,881	25,27
844,292	25,03
844,703	25,22
845,114	25,21
845,525	25,39
