Data from E_6_0_Relative__8__00128.txt Node

Date: Mon Jan 29 13:02:51 CET 2024
User: diatiterra
Spectrometer: HDX00911
Trigger mode: 0
Integration Time (sec): 6,000000E-3
Scans to average: 2
Nonlinearity correction enabled: false
Boxcar width: 0
Storing dark spectrum: false
XAxis mode: Wavelengths
Number of Pixels in Spectrum: 2068
>>>>>Begin Spectral Data<<<<<
194,468	17,07
195,025	19,1
195,581	5,23
196,138	11,11
196,694	17,99
197,251	15,92
197,807	25,65
198,363	16,63
198,919	19,49
199,474	22,22
200,03	13,91
200,586	20,79
201,141	18,38
201,696	16,34
202,251	17,52
202,806	16,84
203,361	17,3
203,916	18,55
204,471	17,91
205,025	19,57
205,58	21,25
206,134	20,33
206,688	23,21
207,242	17,2
207,796	22,45
208,35	19,13
208,904	24,49
209,457	24,73
210,011	23,89
210,564	26,4
211,117	26,5
211,67	21,53
212,223	17,13
212,776	19,56
213,329	31,11
213,881	20,53
214,434	19,85
214,986	24,94
215,538	23,67
216,09	23,02
216,642	27,84
217,194	22,5
217,746	26,06
218,297	21,46
218,849	19,74
219,4	29,23
219,951	13,33
220,502	22,7
221,053	24,58
221,604	26,46
222,155	23,45
222,705	20,25
223,256	24,51
223,806	22,85
224,356	24,57
224,906	25,16
225,456	25,89
226,006	20,23
226,556	23,8
227,106	33,04
227,655	19,83
228,204	20,13
228,754	29,77
229,303	23,08
229,852	28,94
230,401	18,92
230,949	20,44
231,498	24,22
232,047	18,2
232,595	24,48
233,143	22,47
233,691	28,28
234,239	19,2
234,787	17,95
235,335	20,43
235,883	18,39
236,43	22,73
236,978	14,12
237,525	21,65
238,072	10,89
238,619	25,7
239,166	31,57
239,713	18,84
240,26	23,86
240,806	27,92
241,353	13,1
241,899	26,43
242,445	21,65
242,991	17,14
243,537	14,75
244,083	21,99
244,629	28,18
245,174	20,52
245,72	25,33
246,265	21,21
246,81	20,09
247,355	21,65
247,9	23,63
248,445	19,83
248,99	23,41
249,534	26,76
250,079	8
250,623	22,71
251,168	23,04
251,712	23,23
252,256	22,15
252,8	20,92
253,343	17,3
253,887	25,53
254,43	23,39
254,974	14,82
255,517	22,17
256,06	26,27
256,603	13,64
257,146	17,17
257,689	21,86
258,232	20,41
258,774	18,07
259,317	22,12
259,859	27,33
260,401	20,35
260,943	22
261,485	23,56
262,027	15,75
262,569	13,5
263,11	16,45
263,652	17,41
264,193	22,56
264,734	6,88
265,275	21,83
265,816	16,92
266,357	15,87
266,898	12,1
267,438	20,18
267,979	19,47
268,519	24,29
269,059	14,02
269,6	16,03
270,14	18,92
270,68	23,31
271,219	20,25
271,759	20,9
272,298	17,82
272,838	20,18
273,377	21,19
273,916	18,12
274,455	17,15
274,994	33,04
275,533	21,25
276,072	14,81
276,61	19,38
277,149	17,96
277,687	9,61
278,225	11,99
278,763	27,15
279,301	5,11
279,839	18,28
280,377	21,09
280,914	12,53
281,452	11,24
281,989	25,49
282,526	18,67
283,064	20,36
283,601	14,39
284,137	23,81
284,674	16,75
285,211	26,58
285,747	24,34
286,284	16,67
286,82	23,01
287,356	22,3
287,892	19,95
288,428	18,03
288,964	26,82
289,5	15,73
290,035	24,28
290,571	11,46
291,106	8,17
291,641	16,82
292,176	20,54
292,711	21,27
293,246	20,64
293,781	21,22
294,315	9,73
294,85	15,27
295,384	20,22
295,918	20
296,453	17,45
296,987	7,35
297,52	23,46
298,054	22,6
298,588	16,74
299,121	18,63
299,655	20,59
300,188	20,5
300,721	29,07
301,254	28,08
301,787	16,71
302,32	20,28
302,853	16,96
303,385	23,79
303,918	16,93
304,45	17,54
304,982	17,11
305,514	19,68
306,046	19,69
306,578	14,19
307,11	22,61
307,641	19,2
308,173	19,55
308,704	29,46
309,236	21,41
309,767	18,59
310,298	20,84
310,829	20,66
311,359	21,73
311,89	15,58
312,421	16,37
312,951	22,79
313,481	25,35
314,012	24,61
314,542	19,29
315,072	16,83
315,601	22,52
316,131	23,34
316,661	19,57
317,19	18,78
317,72	17,14
318,249	20,77
318,778	17,65
319,307	21,18
319,836	12,7
320,365	19,35
320,893	17,57
321,422	18,2
321,95	17,56
322,479	22,12
323,007	20,29
323,535	16,51
324,063	23,64
324,591	26,48
325,118	22,86
325,646	22,64
326,173	15,3
326,701	27,86
327,228	25,45
327,755	16,51
328,282	14,97
328,809	20,97
329,336	11,32
329,862	21,59
330,389	14,48
330,915	15,91
331,441	12,59
331,968	16,14
332,494	23
333,02	10,97
333,545	25,96
334,071	8,26
334,597	19,71
335,122	19,6
335,648	12,11
336,173	24,51
336,698	19,72
337,223	18,22
337,748	24,79
338,272	12,76
338,797	13,88
339,322	21,04
339,846	22,77
340,37	22,78
340,894	13,59
341,419	20,8
341,942	18,66
342,466	21,71
342,99	26,97
343,514	23,9
344,037	12,4
344,56	10,32
345,084	19,7
345,607	15,52
346,13	12,21
346,653	19,89
347,175	17,28
347,698	15,52
348,221	16,57
348,743	19,7
349,265	19,3
349,787	19,57
350,309	16,58
350,831	17,07
351,353	19,79
351,875	16,11
352,397	15,33
352,918	12,29
353,439	17,66
353,961	19,66
354,482	18,86
355,003	14,08
355,524	18,45
356,044	20,38
356,565	11,85
357,086	17,84
357,606	16,8
358,126	19,73
358,646	18,72
359,167	19,62
359,687	19,81
360,206	19,5
360,726	19,13
361,246	24,26
361,765	17,65
362,285	19,59
362,804	18,67
363,323	19,52
363,842	19,49
364,361	14,17
364,88	17,76
365,398	20,39
365,917	14,08
366,435	18,64
366,954	14,96
367,472	21,18
367,99	19,58
368,508	17,35
369,026	16,89
369,544	15,85
370,061	20,07
370,579	19,48
371,096	15,72
371,613	20,02
372,131	16,7
372,648	16,9
373,165	16,26
373,681	19,07
374,198	14,95
374,715	16,68
375,231	18,53
375,747	12,76
376,264	14,19
376,78	15,79
377,296	15,55
377,812	15,09
378,327	14,27
378,843	16,07
379,359	15,91
379,874	16,55
380,389	16,61
380,905	13,67
381,42	16,64
381,935	15,11
382,449	13,91
382,964	13,2
383,479	14,45
383,993	13,47
384,508	15,46
385,022	14,99
385,536	13,11
386,05	14,52
386,564	13,02
387,078	12,86
387,592	13,1
388,105	13,61
388,619	12,08
389,132	14,54
389,645	12,57
390,158	13,37
390,671	12,99
391,184	14,31
391,697	13,1
392,21	13,08
392,722	12,74
393,235	10,59
393,747	11,26
394,259	12,86
394,771	13,32
395,283	11,15
395,795	11,5
396,307	12,26
396,818	11,83
397,33	13,12
397,841	9,61
398,353	10,49
398,864	11,52
399,375	10,63
399,886	11,33
400,397	10,22
400,907	9,59
401,418	8,89
401,928	10,91
402,439	8,34
402,949	10,91
403,459	8,62
403,969	9,2
404,479	9,56
404,989	6,44
405,498	7,66
406,008	9,16
406,517	8,32
407,027	6,84
407,536	8,49
408,045	6,81
408,554	7,78
409,063	6,55
409,572	6,92
410,08	7,27
410,589	6,01
411,097	6,66
411,606	6,06
412,114	6,24
412,622	5,28
413,13	6,07
413,638	5,34
414,145	6,5
414,653	5,56
415,16	5,29
415,668	5,37
416,175	5,06
416,682	4,86
417,189	4,65
417,696	4,73
418,203	5,06
418,71	4,72
419,216	4,16
419,723	4,72
420,229	4,6
420,735	3,63
421,242	4,46
421,748	4,12
422,254	4,33
422,759	3,98
423,265	3,92
423,771	3,9
424,276	3,76
424,781	3,75
425,287	4,23
425,792	3,53
426,297	4,08
426,802	3,91
427,306	4,15
427,811	4,06
428,316	3,97
428,82	3,79
429,324	3,73
429,829	3,73
430,333	4,18
430,837	3,54
431,34	3,51
431,844	3,3
432,348	3,57
432,851	4,35
433,355	3,76
433,858	3,8
434,361	3,83
434,864	3,63
435,367	3,3
435,87	3,79
436,373	3,66
436,876	4,08
437,378	3,39
437,88	3,62
438,383	3,84
438,885	3,94
439,387	3,76
439,889	3,89
440,391	3,93
440,892	3,96
441,394	3,85
441,896	3,42
442,397	3,97
442,898	4,07
443,399	4,03
443,9	3,63
444,401	3,68
444,902	3,85
445,403	4,01
445,903	4,03
446,404	3,84
446,904	3,6
447,405	3,76
447,905	3,97
448,405	4,07
448,905	4,28
449,404	4
449,904	4,19
450,404	3,62
450,903	3,56
451,403	3,98
451,902	4,28
452,401	3,83
452,9	3,9
453,399	3,98
453,898	4,41
454,396	3,97
454,895	3,87
455,393	4,09
455,892	3,95
456,39	4,12
456,888	4,42
457,386	4,12
457,884	4,34
458,382	4,12
458,879	3,82
459,377	4,12
459,874	3,97
460,372	4,2
460,869	4,05
461,366	3,85
461,863	3,95
462,36	4,05
462,857	4,15
463,353	4,22
463,85	3,81
464,346	3,99
464,843	4,06
465,339	4,05
465,835	4,13
466,331	3,95
466,827	3,92
467,323	4,04
467,818	4,23
468,314	3,92
468,809	3,96
469,305	4,07
469,8	4,29
470,295	3,96
470,79	4,12
471,285	4,04
471,78	3,98
472,274	4,37
472,769	4,14
473,263	4,07
473,758	4,03
474,252	3,93
474,746	4,07
475,24	4,03
475,734	4,09
476,228	4,22
476,721	4,01
477,215	3,99
477,708	4,46
478,202	4,18
478,695	4,16
479,188	4,18
479,681	4,28
480,174	4,14
480,667	4,3
481,159	3,88
481,652	4,15
482,144	4,13
482,637	4,4
483,129	4,37
483,621	4,54
484,113	4,35
484,605	4,5
485,097	4,39
485,588	4,22
486,08	4,46
486,571	4,35
487,063	4,58
487,554	4,28
488,045	4,3
488,536	4,3
489,027	4,61
489,518	4,47
490,008	4,39
490,499	4,41
490,989	4,7
491,48	4,78
491,97	4,37
492,46	4,37
492,95	4,69
493,44	4,59
493,93	4,65
494,419	4,9
494,909	4,78
495,398	4,71
495,888	4,8
496,377	4,93
496,866	4,87
497,355	5,13
497,844	5,06
498,333	5,35
498,821	5,2
499,31	5,38
499,798	5,43
500,287	5,4
500,775	5,4
501,263	5,61
501,751	5,46
502,239	5,37
502,727	5,85
503,215	5,63
503,702	6,06
504,19	6,08
504,677	5,84
505,164	6,25
505,651	6,26
506,139	6,33
506,625	6,13
507,112	6,63
507,599	6,7
508,086	7,23
508,572	6,93
509,058	7,3
509,545	7,21
510,031	7,22
510,517	7,46
511,003	7,55
511,489	8,05
511,974	7,91
512,46	8,08
512,946	8,26
513,431	8,43
513,916	8,7
514,401	8,69
514,887	9,03
515,371	8,96
515,856	9,06
516,341	9,49
516,826	9,61
517,31	9,59
517,795	9,89
518,279	10,08
518,763	10,31
519,247	10,23
519,731	10,68
520,215	10,99
520,699	11,09
521,182	10,9
521,666	11,26
522,149	11,45
522,633	11,42
523,116	11,9
523,599	11,95
524,082	12,29
524,565	12,19
525,048	12,45
525,53	12,69
526,013	13,04
526,495	12,76
526,978	12,87
527,46	13,34
527,942	13,17
528,424	13,17
528,906	13,66
529,388	13,67
529,87	13,69
530,351	14,13
530,833	13,95
531,314	13,96
531,795	14,13
532,277	14
532,758	14,49
533,238	14,36
533,719	14,39
534,2	14,57
534,681	14,42
535,161	14,75
535,642	14,81
536,122	14,68
536,602	14,95
537,082	15,05
537,562	14,89
538,042	14,88
538,522	15,01
539,001	15,07
539,481	15,25
539,96	15,13
540,44	15,19
540,919	15,1
541,398	15,15
541,877	15,25
542,356	15,5
542,835	15,32
543,313	15,27
543,792	15,03
544,27	15,34
544,749	15,22
545,227	15,27
545,705	15,28
546,183	15,39
546,661	15,66
547,139	15,52
547,616	15,46
548,094	15,12
548,571	15,44
549,049	15,53
549,526	15,51
550,003	15,59
550,48	15,72
550,957	15,46
551,434	15,47
551,911	15,21
552,387	15,59
552,864	15,78
553,34	15,57
553,817	15,54
554,293	15,72
554,769	15,64
555,245	15,56
555,721	15,57
556,197	15,66
556,672	15,51
557,148	15,89
557,623	15,35
558,099	15,68
558,574	15,7
559,049	15,47
559,524	15,39
559,999	15,45
560,474	15,54
560,948	15,21
561,423	15,27
561,897	15,39
562,372	15,16
562,846	14,92
563,32	15,23
563,794	15,09
564,268	14,87
564,742	14,74
565,216	14,93
565,69	14,79
566,163	14,4
566,636	14,69
567,11	14,53
567,583	14,43
568,056	14,55
568,529	14,33
569,002	14,26
569,475	14,46
569,947	14,34
570,42	13,92
570,892	13,94
571,365	13,97
571,837	13,96
572,309	13,51
572,781	13,33
573,253	13,45
573,725	13,17
574,197	13,23
574,668	13,11
575,14	13,11
575,611	13,04
576,082	12,95
576,554	12,77
577,025	12,8
577,496	12,77
577,967	12,55
578,437	12,66
578,908	12,17
579,379	12,3
579,849	12,23
580,319	12,18
580,79	12,15
581,26	11,94
581,73	12,04
582,2	11,84
582,669	11,83
583,139	11,78
583,609	11,74
584,078	11,6
584,548	11,65
585,017	11,68
585,486	11,55
585,955	11,42
586,424	11,53
586,893	11,4
587,362	11,29
587,83	11,62
588,299	11,23
588,767	11,12
589,236	11,07
589,704	11,08
590,172	11,14
590,64	11,05
591,108	10,95
591,576	10,83
592,043	10,93
592,511	10,86
592,978	10,91
593,446	10,79
593,913	10,72
594,38	10,74
594,847	10,64
595,314	10,65
595,781	10,6
596,248	10,7
596,715	10,53
597,181	10,78
597,647	10,52
598,114	10,51
598,58	10,54
599,046	10,74
599,512	10,48
599,978	10,43
600,444	10,48
600,91	10,27
601,375	10,49
601,841	10,32
602,306	10,24
602,771	10,31
603,236	10,43
603,702	10,15
604,167	10,17
604,631	10,3
605,096	10,5
605,561	10,16
606,025	10,16
606,49	10,14
606,954	9,99
607,418	9,8
607,882	9,99
608,347	9,81
608,81	9,76
609,274	9,92
609,738	9,7
610,202	9,71
610,665	9,59
611,128	9,59
611,592	9,34
612,055	9,6
612,518	9,43
612,981	9,36
613,444	9,37
613,907	9,22
614,369	9,16
614,832	9,09
615,294	8,95
615,757	9,25
616,219	9,05
616,681	8,85
617,143	8,82
617,605	8,7
618,067	8,72
618,529	8,77
618,99	8,64
619,452	8,73
619,913	8,58
620,375	8,59
620,836	8,56
621,297	8,65
621,758	8,55
622,219	8,45
622,68	8,48
623,14	8,44
623,601	8,46
624,061	8,43
624,522	8,4
624,982	8,37
625,442	8,24
625,902	8,28
626,362	8,23
626,822	8,32
627,282	8,16
627,742	8,22
628,201	8,01
628,661	8,23
629,12	8,05
629,579	8,19
630,038	8,11
630,497	8,19
630,956	8,14
631,415	8,05
631,874	7,97
632,332	8,09
632,791	7,93
633,249	8,09
633,708	8,03
634,166	7,92
634,624	7,9
635,082	7,82
635,54	7,84
635,998	7,87
636,455	7,81
636,913	7,73
637,37	7,43
637,828	7,49
638,285	7,5
638,742	7,48
639,199	7,46
639,656	7,23
640,113	7,23
640,57	7,26
641,027	7,04
641,483	7,11
641,94	7,14
642,396	6,87
642,852	6,86
643,309	6,86
643,765	6,64
644,221	6,58
644,676	6,55
645,132	6,46
645,588	6,37
646,043	6,34
646,499	6,19
646,954	6,22
647,409	6,15
647,864	6,17
648,319	6,03
648,774	5,98
649,229	5,94
649,684	5,85
650,139	5,85
650,593	5,8
651,047	5,82
651,502	5,72
651,956	5,71
652,41	5,68
652,864	5,6
653,318	5,49
653,772	5,52
654,225	5,5
654,679	5,56
655,133	5,55
655,586	5,5
656,039	5,47
656,492	5,53
656,946	5,32
657,399	5,39
657,851	5,24
658,304	5,26
658,757	5,2
659,209	5,09
659,662	5,1
660,114	4,98
660,567	4,91
661,019	4,93
661,471	4,75
661,923	4,88
662,375	4,69
662,826	4,75
663,278	4,62
663,73	4,6
664,181	4,55
664,632	4,46
665,084	4,53
665,535	4,54
665,986	4,5
666,437	4,43
666,888	4,44
667,338	4,39
667,789	4,38
668,24	4,39
668,69	4,36
669,14	4,35
669,591	4,43
670,041	4,41
670,491	4,41
670,941	4,35
671,391	4,43
671,84	4,51
672,29	4,44
672,74	4,59
673,189	4,54
673,638	4,56
674,088	4,54
674,537	4,63
674,986	4,65
675,435	4,72
675,883	4,76
676,332	4,82
676,781	4,81
677,229	4,96
677,678	4,9
678,126	5,11
678,574	5,14
679,022	5,19
679,47	5,22
679,918	5,4
680,366	5,46
680,814	5,47
681,261	5,64
681,709	5,55
682,156	5,71
682,604	5,82
683,051	5,94
683,498	5,96
683,945	6,03
684,392	6,03
684,839	6,16
685,286	6,29
685,732	6,31
686,179	6,57
686,625	6,57
687,071	6,7
687,518	6,77
687,964	6,88
688,41	7,04
688,856	7,18
689,301	7,41
689,747	7,49
690,193	7,8
690,638	7,95
691,084	8,36
691,529	8,43
691,974	8,69
692,419	8,89
692,864	9,25
693,309	9,44
693,754	9,94
694,199	10,12
694,643	10,4
695,088	10,64
695,532	10,94
695,977	11,13
696,421	11,45
696,865	11,88
697,309	12,12
697,753	12,49
698,197	12,57
698,64	13,02
699,084	13,37
699,527	13,59
699,971	13,73
700,414	14,21
700,857	14,32
701,3	14,44
701,743	14,88
702,186	15
702,629	15,47
703,072	15,45
703,515	15,71
703,957	16,08
704,399	16,04
704,842	16,29
705,284	16,51
705,726	16,71
706,168	16,84
706,61	17,2
707,052	17,23
707,494	17,51
707,935	17,7
708,377	17,86
708,818	17,91
709,26	18,29
709,701	18,34
710,142	18,54
710,583	18,75
711,024	18,77
711,465	18,73
711,905	19,21
712,346	19,36
712,787	19,59
713,227	19,65
713,667	19,75
714,108	19,84
714,548	20,13
714,988	20,14
715,428	20,21
715,868	20,53
716,307	20,44
716,747	20,45
717,186	20,85
717,626	20,85
718,065	20,9
718,504	21,09
718,944	21,39
719,383	21,2
719,822	21,22
720,261	21,22
720,699	21,3
721,138	21,75
721,576	21,65
722,015	21,8
722,453	21,89
722,892	21,81
723,33	21,83
723,768	22,14
724,206	22,16
724,644	22,11
725,081	22,43
725,519	22,28
725,957	22,43
726,394	22,46
726,832	22,56
727,269	22,39
727,706	22,63
728,143	22,72
728,58	22,88
729,017	22,92
729,454	22,71
729,89	22,84
730,327	22,86
730,764	23,11
731,2	23,04
731,636	23,06
732,072	23,09
732,509	23,11
732,945	23,25
733,38	23,3
733,816	23,12
734,252	23,2
734,688	23,19
735,123	23,3
735,559	23,06
735,994	23,16
736,429	23,38
736,864	23,55
737,299	23,23
737,734	23,08
738,169	23,42
738,604	23,4
739,038	23,44
739,473	23,53
739,907	23,17
740,342	23,37
740,776	23,29
741,21	23,29
741,644	23,45
742,078	23,42
742,512	23,32
742,946	23,12
743,379	23,37
743,813	23,19
744,246	23,18
744,68	23,35
745,113	23,22
745,546	23,24
745,979	23,28
746,412	23,28
746,845	23,12
747,278	23,19
747,711	23,44
748,143	23,23
748,576	23,19
749,008	23,22
749,441	23,18
749,873	22,99
750,305	23,08
750,737	23,2
751,169	23,11
751,601	22,97
752,032	23,07
752,464	23
752,896	22,79
753,327	22,91
753,758	22,78
754,19	22,81
754,621	22,86
755,052	22,69
755,483	22,9
755,914	22,85
756,344	22,89
756,775	22,96
757,206	22,94
757,636	22,83
758,066	22,62
758,497	22,5
758,927	22,59
759,357	22,72
759,787	22,48
760,217	22,54
760,647	22,55
761,076	22,71
761,506	22,55
761,935	22,5
762,365	22,61
762,794	22,43
763,223	22,43
763,653	22,56
764,082	22,46
764,51	22,36
764,939	22,49
765,368	22,43
765,797	22,35
766,225	22,29
766,654	22,37
767,082	22,3
767,51	22,3
767,938	22,33
768,367	22,64
768,795	22,37
769,222	22,25
769,65	22,45
770,078	22,35
770,505	22,16
770,933	22,26
771,36	22,23
771,788	22,37
772,215	22,14
772,642	22,2
773,069	22,15
773,496	22,22
773,923	22,09
774,349	22,19
774,776	22,23
775,203	22,12
775,629	22,1
776,055	21,99
776,482	22
776,908	22,18
777,334	22,03
777,76	22,13
778,186	21,93
778,611	22,24
779,037	21,95
779,463	22,02
779,888	21,8
780,314	22,19
780,739	22,12
781,164	22,03
781,589	21,93
782,014	21,97
782,439	22,02
782,864	22,04
783,289	22,01
783,713	22
784,138	21,91
784,562	21,97
784,987	21,91
785,411	21,93
785,835	21,97
786,259	21,82
786,683	22,04
787,107	21,79
787,531	22,01
787,954	22,03
788,378	21,67
788,802	21,87
789,225	21,93
789,648	21,77
790,071	21,78
790,495	21,58
790,918	21,87
791,34	21,89
791,763	21,91
792,186	21,69
792,609	21,76
793,031	21,74
793,454	21,98
793,876	21,8
794,298	21,75
794,721	21,71
795,143	21,76
795,565	21,99
795,986	21,6
796,408	21,77
796,83	21,79
797,252	21,78
797,673	21,73
798,094	21,63
798,516	21,72
798,937	21,71
799,358	21,68
799,779	21,81
800,2	21,54
800,621	21,69
801,042	21,52
801,462	21,75
801,883	21,93
802,303	21,52
802,724	21,54
803,144	21,68
803,564	21,72
803,984	21,66
804,404	21,62
804,824	21,6
805,244	21,91
805,664	21,53
806,084	21,47
806,503	21,52
806,923	21,68
807,342	21,7
807,761	21,5
808,18	21,42
808,599	21,75
809,018	21,42
809,437	21,65
809,856	21,72
810,275	21,44
810,693	21,62
811,112	21,45
811,53	21,77
811,949	21,67
812,367	21,33
812,785	21,41
813,203	21,49
813,621	21,59
814,039	21,65
814,457	21,52
814,874	21,73
815,292	21,39
815,709	21,76
816,127	21,6
816,544	21,64
816,961	21,55
817,378	21,66
817,795	21,55
818,212	21,75
818,629	21,54
819,046	21,24
819,462	21,63
819,879	21,58
820,295	21,49
820,712	21,69
821,128	21,43
821,544	21,53
821,96	21,7
822,376	21,6
822,792	21,62
823,208	21,54
823,624	21,52
824,039	21,59
824,455	21,43
824,87	21,49
825,286	21,56
825,701	21,29
826,116	21,48
826,531	21,48
826,946	21,59
827,361	21,47
827,776	21,74
828,19	21,38
828,605	21,56
829,02	21,44
829,434	21,5
829,848	21,48
830,263	21,37
830,677	21,4
831,091	21,31
831,505	21,66
831,919	21,37
832,332	21,45
832,746	21,19
833,16	21,37
833,573	21,44
833,987	21,56
834,4	21,5
834,813	21,39
835,226	21,43
835,639	21,43
836,052	21,4
836,465	21,25
836,878	21,35
837,29	21,34
837,703	21,57
838,116	21,37
838,528	21,52
838,94	21,47
839,352	21,33
839,765	21,28
840,177	21,42
840,589	21,37
841	21,34
841,412	21,37
841,824	21,37
842,235	21,34
842,647	21,12
843,058	21,39
843,47	21,37
843,881	21,53
844,292	21,51
844,703	21,3
845,114	21,48
845,525	21,27
845,935	21,4
