Data from F_5_0_Relative__0__00138.txt Node

Date: Mon Jan 29 13:04:39 CET 2024
User: diatiterra
Spectrometer: HDX00911
Trigger mode: 0
Integration Time (sec): 6,000000E-3
Scans to average: 2
Nonlinearity correction enabled: false
Boxcar width: 0
Storing dark spectrum: false
XAxis mode: Wavelengths
Number of Pixels in Spectrum: 2068
>>>>>Begin Spectral Data<<<<<
194,468	40,24
195,025	47,24
195,581	28,49
196,138	27,49
196,694	44,82
197,251	38,73
197,807	53,68
198,363	42,55
198,919	34,48
199,474	45,33
200,03	32,45
200,586	40,75
201,141	36,32
201,696	43,87
202,251	39,51
202,806	36,55
203,361	44,3
203,916	41,15
204,471	41,04
205,025	49,25
205,58	35,12
206,134	37,58
206,688	38,83
207,242	44,8
207,796	44,49
208,35	45,56
208,904	47,35
209,457	40,22
210,011	45,45
210,564	41,37
211,117	39,65
211,67	35,21
212,223	35,12
212,776	36,9
213,329	40
213,881	39,01
214,434	30,64
214,986	40,82
215,538	42,7
216,09	51,47
216,642	36,4
217,194	47,92
217,746	37,08
218,297	42,06
218,849	44,64
219,4	38
219,951	40,89
220,502	37,26
221,053	38,45
221,604	28,96
222,155	49,2
222,705	41,13
223,256	38,39
223,806	40,88
224,356	33,12
224,906	38,16
225,456	41,05
226,006	48,86
226,556	37,58
227,106	44,64
227,655	34,75
228,204	38,27
228,754	44,56
229,303	37,14
229,852	40,17
230,401	39,19
230,949	40,22
231,498	45,11
232,047	41,76
232,595	44,98
233,143	29,52
233,691	35,25
234,239	41,07
234,787	45,23
235,335	41,51
235,883	44,19
236,43	37,6
236,978	32,64
237,525	33,71
238,072	40,52
238,619	40,19
239,166	46,58
239,713	37,89
240,26	32,99
240,806	42,64
241,353	36,09
241,899	42,29
242,445	31,96
242,991	47,51
243,537	34,43
244,083	44,4
244,629	35,38
245,174	34,5
245,72	47,56
246,265	44,06
246,81	37,7
247,355	37,65
247,9	35,45
248,445	33,05
248,99	43,53
249,534	43,99
250,079	45,33
250,623	35,75
251,168	32,89
251,712	34,41
252,256	38,49
252,8	40,52
253,343	29,62
253,887	40,43
254,43	42,7
254,974	45,41
255,517	37,53
256,06	32,89
256,603	33,64
257,146	32,95
257,689	37,45
258,232	36,73
258,774	40,35
259,317	42,89
259,859	27,33
260,401	47,62
260,943	36,67
261,485	32,44
262,027	32,82
262,569	39,5
263,11	31,84
263,652	36,71
264,193	35,57
264,734	34,86
265,275	35,45
265,816	29,23
266,357	43,08
266,898	33,56
267,438	48,62
267,979	38,5
268,519	40,04
269,059	42,52
269,6	34,54
270,14	35,14
270,68	41,1
271,219	30,8
271,759	34,83
272,298	36,08
272,838	33,03
273,377	42,18
273,916	40,04
274,455	37,19
274,994	41,85
275,533	44,34
276,072	39,7
276,61	34,36
277,149	36,41
277,687	43,02
278,225	35,52
278,763	37,1
279,301	35,78
279,839	38,49
280,377	37,2
280,914	40,84
281,452	41,97
281,989	39,56
282,526	36,7
283,064	27,62
283,601	34,34
284,137	40
284,674	41,99
285,211	45,75
285,747	25,3
286,284	35,84
286,82	32,57
287,356	37,31
287,892	39,91
288,428	41,2
288,964	44,24
289,5	39,1
290,035	32,23
290,571	50,49
291,106	38,37
291,641	41,36
292,176	38,14
292,711	35,31
293,246	33,94
293,781	39,28
294,315	40,65
294,85	31,19
295,384	33,26
295,918	37,33
296,453	41,51
296,987	39,1
297,52	36,62
298,054	36,47
298,588	38,04
299,121	33,7
299,655	25,57
300,188	34,17
300,721	41,63
301,254	27,17
301,787	38,98
302,32	41,01
302,853	43,39
303,385	34,8
303,918	32,07
304,45	32,89
304,982	38
305,514	41,44
306,046	38,51
306,578	37,53
307,11	31,47
307,641	34,82
308,173	35
308,704	38,39
309,236	37,47
309,767	38,82
310,298	42,13
310,829	42,72
311,359	38,08
311,89	34,99
312,421	32,06
312,951	42,33
313,481	34,56
314,012	31,77
314,542	41,41
315,072	22,86
315,601	37,84
316,131	33,87
316,661	32,13
317,19	38,69
317,72	39,05
318,249	35,67
318,778	38,73
319,307	35,76
319,836	39,95
320,365	34,1
320,893	39,79
321,422	33,87
321,95	38
322,479	28,44
323,007	35,75
323,535	34,19
324,063	45,86
324,591	37,35
325,118	43,52
325,646	45,75
326,173	43,15
326,701	41,19
327,228	47,73
327,755	42,82
328,282	39,04
328,809	32,01
329,336	36,72
329,862	34,32
330,389	40,69
330,915	38,18
331,441	38,69
331,968	30,12
332,494	40,5
333,02	34,19
333,545	43,26
334,071	37,72
334,597	41,35
335,122	35,63
335,648	38,4
336,173	29,28
336,698	41,74
337,223	26,03
337,748	34,45
338,272	31,59
338,797	34,27
339,322	34,16
339,846	29,15
340,37	34,94
340,894	33,63
341,419	32,56
341,942	27,99
342,466	38,83
342,99	39
343,514	34,38
344,037	24
344,56	28,54
345,084	32,2
345,607	27,44
346,13	32,06
346,653	28,6
347,175	26,35
347,698	34,77
348,221	40,41
348,743	37,17
349,265	32,52
349,787	27,4
350,309	37,44
350,831	31,9
351,353	31,84
351,875	34,23
352,397	32
352,918	31,4
353,439	34,09
353,961	39,83
354,482	31,31
355,003	27,5
355,524	31,86
356,044	28,66
356,565	29,18
357,086	33,13
357,606	26,17
358,126	33,38
358,646	32,84
359,167	32,32
359,687	29,25
360,206	27,47
360,726	27,54
361,246	33,97
361,765	28,55
362,285	27,25
362,804	34,64
363,323	34,13
363,842	35,51
364,361	32,35
364,88	30,66
365,398	31,18
365,917	33,38
366,435	27,38
366,954	27,43
367,472	34,27
367,99	27,11
368,508	33,25
369,026	30,35
369,544	28,29
370,061	28
370,579	28,77
371,096	29,36
371,613	32,31
372,131	28,07
372,648	25,94
373,165	32,41
373,681	29,93
374,198	30,11
374,715	33,26
375,231	29,01
375,747	29,05
376,264	30,02
376,78	28,07
377,296	24,64
377,812	25,92
378,327	26,51
378,843	30,64
379,359	30,02
379,874	28,68
380,389	30,55
380,905	28,03
381,42	28,29
381,935	25,93
382,449	27,15
382,964	26,55
383,479	26,11
383,993	27,01
384,508	27,36
385,022	26,75
385,536	24,95
386,05	27,53
386,564	24,27
387,078	25,45
387,592	27,37
388,105	23,27
388,619	24,54
389,132	25,12
389,645	29,28
390,158	27,81
390,671	23,67
391,184	23,18
391,697	22,19
392,21	22,75
392,722	22,66
393,235	23,28
393,747	20,56
394,259	22,53
394,771	23,7
395,283	21,05
395,795	20,36
396,307	22,46
396,818	20,07
397,33	21,37
397,841	21,38
398,353	21,17
398,864	22,82
399,375	20,07
399,886	21,2
400,397	18,79
400,907	20
401,418	17,92
401,928	17,71
402,439	17,83
402,949	17,26
403,459	17,91
403,969	16,73
404,479	18,86
404,989	17,88
405,498	15,67
406,008	14,74
406,517	15,7
407,027	15,31
407,536	14,05
408,045	12,57
408,554	13,48
409,063	13,4
409,572	12,83
410,08	13,44
410,589	12,59
411,097	12,02
411,606	12,12
412,114	10,69
412,622	11,22
413,13	10,69
413,638	10,12
414,145	9,99
414,653	10,31
415,16	10,26
415,668	10,69
416,175	9,88
416,682	9,1
417,189	8,92
417,696	9,04
418,203	9,38
418,71	9,1
419,216	9,26
419,723	8,38
420,229	8,76
420,735	8,04
421,242	7,79
421,748	7,43
422,254	8,42
422,759	7,68
423,265	7,71
423,771	8,14
424,276	8,69
424,781	7,88
425,287	7,87
425,792	7,93
426,297	8,25
426,802	8,17
427,306	6,9
427,811	7,73
428,316	7,88
428,82	8,03
429,324	7,63
429,829	8,02
430,333	7,14
430,837	7,75
431,34	7,94
431,844	7,07
432,348	7,23
432,851	7,68
433,355	7,19
433,858	7,81
434,361	7,72
434,864	6,89
435,367	7,4
435,87	7,63
436,373	6,99
436,876	7,74
437,378	7,46
437,88	7,38
438,383	7,81
438,885	7,73
439,387	7,07
439,889	7,95
440,391	7,39
440,892	7,16
441,394	7,31
441,896	7,57
442,397	7,12
442,898	7,54
443,399	7,29
443,9	7,51
444,401	7,43
444,902	7,63
445,403	7,39
445,903	7,09
446,404	7,23
446,904	7,19
447,405	7,1
447,905	7,44
448,405	7,63
448,905	7,54
449,404	7,25
449,904	7,2
450,404	7,15
450,903	7,26
451,403	7,45
451,902	7,54
452,401	7,43
452,9	7,32
453,399	7,63
453,898	7,41
454,396	8,09
454,895	7,28
455,393	7,4
455,892	7,13
456,39	7,36
456,888	7,71
457,386	7,53
457,884	7,79
458,382	7,67
458,879	7,4
459,377	7,63
459,874	7,61
460,372	7,39
460,869	7,85
461,366	7,47
461,863	7,59
462,36	7,43
462,857	7,16
463,353	7,37
463,85	7,22
464,346	7,82
464,843	7,55
465,339	7,56
465,835	7,74
466,331	7,53
466,827	7,72
467,323	7,77
467,818	7,32
468,314	7,69
468,809	7,58
469,305	7,66
469,8	7,71
470,295	7,57
470,79	7,72
471,285	7,44
471,78	7,34
472,274	7,56
472,769	7,64
473,263	7,68
473,758	7,41
474,252	7,65
474,746	7,74
475,24	7,68
475,734	7,8
476,228	7,6
476,721	7,34
477,215	7,89
477,708	7,9
478,202	7,91
478,695	7,37
479,188	7,73
479,681	7,68
480,174	7,77
480,667	7,69
481,159	7,32
481,652	7,91
482,144	7,63
482,637	7,82
483,129	7,84
483,621	7,67
484,113	7,47
484,605	7,63
485,097	7,91
485,588	7,57
486,08	7,91
486,571	7,74
487,063	7,7
487,554	7,82
488,045	7,68
488,536	8,05
489,027	8,04
489,518	8,16
490,008	7,84
490,499	8,08
490,989	8,21
491,48	7,99
491,97	8,09
492,46	8,21
492,95	8,05
493,44	8,29
493,93	8,14
494,419	8,36
494,909	7,88
495,398	8,31
495,888	8,54
496,377	8,56
496,866	8,46
497,355	8,47
497,844	8,88
498,333	8,48
498,821	8,63
499,31	8,76
499,798	9,04
500,287	9,12
500,775	9,08
501,263	9,16
501,751	9,23
502,239	9,72
502,727	9,5
503,215	9,72
503,702	9,83
504,19	9,94
504,677	9,77
505,164	10,29
505,651	10,4
506,139	10,5
506,625	10,47
507,112	10,59
507,599	10,79
508,086	11,16
508,572	11,22
509,058	11,53
509,545	11,64
510,031	12
510,517	12,15
511,003	12,31
511,489	12,45
511,974	12,72
512,46	12,99
512,946	13,31
513,431	13,37
513,916	13,74
514,401	13,51
514,887	14,19
515,371	14,46
515,856	14,68
516,341	14,84
516,826	15,76
517,31	15,46
517,795	15,99
518,279	16,23
518,763	16,27
519,247	16,98
519,731	17,35
520,215	17,38
520,699	17,88
521,182	17,98
521,666	18,44
522,149	18,76
522,633	19,09
523,116	19,48
523,599	19,58
524,082	19,93
524,565	20,2
525,048	20,35
525,53	20,67
526,013	20,97
526,495	21,06
526,978	21,63
527,46	21,58
527,942	21,84
528,424	22,07
528,906	22,35
529,388	22,47
529,87	22,62
530,351	23,24
530,833	23,18
531,314	23,41
531,795	23,42
532,277	23,74
532,758	23,93
533,238	23,95
533,719	24,05
534,2	24,11
534,681	24,37
535,161	24,71
535,642	24,65
536,122	24,62
536,602	24,88
537,082	24,8
537,562	24,97
538,042	25,08
538,522	25,45
539,001	24,9
539,481	25,03
539,96	25,34
540,44	25,46
540,919	25,17
541,398	25,23
541,877	25,03
542,356	25,37
542,835	25,65
543,313	25,63
543,792	25,6
544,27	25,66
544,749	25,53
545,227	25,79
545,705	25,53
546,183	25,66
546,661	25,8
547,139	25,57
547,616	25,82
548,094	25,91
548,571	26,14
549,049	26,14
549,526	26,24
550,003	26,14
550,48	25,79
550,957	25,93
551,434	26,36
551,911	25,79
552,387	26,11
552,864	26,27
553,34	25,77
553,817	26,09
554,293	26,22
554,769	26,29
555,245	26,43
555,721	26,07
556,197	25,87
556,672	26,14
557,148	26,08
557,623	25,55
558,099	26,08
558,574	25,98
559,049	25,86
559,524	25,96
559,999	25,57
560,474	25,68
560,948	25,82
561,423	25,68
561,897	25,22
562,372	25,54
562,846	25,17
563,32	25,33
563,794	25,24
564,268	24,99
564,742	24,6
565,216	24,57
565,69	24,66
566,163	24,82
566,636	24,41
567,11	23,69
567,583	23,99
568,056	23,81
568,529	23,81
569,002	22,96
569,475	23,38
569,947	23,45
570,42	22,91
570,892	23,11
571,365	22,57
571,837	22,43
572,309	22,18
572,781	21,9
573,253	21,99
573,725	21,66
574,197	21,83
574,668	21,29
575,14	21,67
575,611	21,08
576,082	20,93
576,554	21,03
577,025	20,82
577,496	20,27
577,967	20,53
578,437	20,43
578,908	20,15
579,379	19,86
579,849	19,88
580,319	19,65
580,79	19,68
581,26	19,44
581,73	19,54
582,2	19,2
582,669	19,22
583,139	19,26
583,609	19,02
584,078	18,64
584,548	18,61
585,017	18,58
585,486	18,68
585,955	18,36
586,424	18,25
586,893	18,4
587,362	18,04
587,83	18,32
588,299	17,87
588,767	17,69
589,236	17,92
589,704	17,94
590,172	17,8
590,64	17,65
591,108	17,46
591,576	17,38
592,043	17,48
592,511	17,12
592,978	17,33
593,446	17,26
593,913	17,35
594,38	17,26
594,847	16,89
595,314	17,12
595,781	17,21
596,248	16,96
596,715	16,89
597,181	17,04
597,647	16,97
598,114	16,94
598,58	16,88
599,046	16,81
599,512	16,96
599,978	16,61
600,444	16,81
600,91	16,7
601,375	16,81
601,841	16,61
602,306	16,62
602,771	16,66
603,236	16,43
603,702	16,48
604,167	16,31
604,631	16,38
605,096	16,58
605,561	16,22
606,025	16,14
606,49	16,02
606,954	15,97
607,418	15,82
607,882	15,52
608,347	15,78
608,81	15,49
609,274	15,45
609,738	15,26
610,202	15,6
610,665	15,26
611,128	15,05
611,592	14,99
612,055	14,82
612,518	14,92
612,981	14,61
613,444	14,64
613,907	14,81
614,369	14,59
614,832	14,46
615,294	14,25
615,757	14,34
616,219	14,19
616,681	14,14
617,143	13,97
617,605	13,73
618,067	13,95
618,529	13,77
618,99	13,81
619,452	13,63
619,913	13,63
620,375	13,65
620,836	13,53
621,297	13,49
621,758	13,41
622,219	13,48
622,68	13,33
623,14	13,24
623,601	13,13
624,061	13,15
624,522	13,21
624,982	13,13
625,442	13,02
625,902	12,91
626,362	13,09
626,822	13,02
627,282	12,85
627,742	13,14
628,201	13,07
628,661	13,12
629,12	12,77
629,579	12,85
630,038	12,78
630,497	12,85
630,956	12,78
631,415	12,87
631,874	12,94
632,332	12,67
632,791	12,72
633,249	12,77
633,708	12,65
634,166	12,58
634,624	12,54
635,082	12,33
635,54	12,33
635,998	12,39
636,455	12,35
636,913	12,22
637,37	12,05
637,828	12
638,285	11,92
638,742	11,93
639,199	11,79
639,656	11,7
640,113	11,51
640,57	11,49
641,027	11,47
641,483	11,18
641,94	11,03
642,396	10,79
642,852	10,91
643,309	10,92
643,765	10,79
644,221	10,49
644,676	10,4
645,132	10,31
645,588	10,27
646,043	10,28
646,499	9,94
646,954	9,93
647,409	9,83
647,864	9,92
648,319	9,69
648,774	9,66
649,229	9,51
649,684	9,46
650,139	9,5
650,593	9,37
651,047	9,43
651,502	9,29
651,956	9,25
652,41	9,29
652,864	9,2
653,318	9,09
653,772	9,14
654,225	8,98
654,679	9,05
655,133	8,97
655,586	8,95
656,039	9,1
656,492	8,82
656,946	8,73
657,399	8,68
657,851	8,74
658,304	8,57
658,757	8,47
659,209	8,63
659,662	8,45
660,114	8,38
660,567	8,36
661,019	8,3
661,471	8,26
661,923	8,19
662,375	8,14
662,826	7,93
663,278	8,16
663,73	7,95
664,181	8,07
664,632	7,83
665,084	7,92
665,535	7,89
665,986	7,82
666,437	7,88
666,888	7,95
667,338	7,86
667,789	7,81
668,24	7,87
668,69	7,93
669,14	7,86
669,591	7,91
670,041	8,01
670,491	8,08
670,941	8,07
671,391	8,07
671,84	8,13
672,29	8,36
672,74	8,2
673,189	8,36
673,638	8,38
674,088	8,46
674,537	8,54
674,986	8,8
675,435	8,66
675,883	8,91
676,332	8,96
676,781	9,08
677,229	9,16
677,678	9,2
678,126	9,37
678,574	9,47
679,022	9,57
679,47	9,71
679,918	9,79
680,366	9,9
680,814	10,08
681,261	10,13
681,709	10,32
682,156	10,49
682,604	10,54
683,051	10,53
683,498	10,66
683,945	10,91
684,392	10,78
684,839	10,96
685,286	11,13
685,732	11,31
686,179	11,34
686,625	11,47
687,071	11,75
687,518	11,69
687,964	11,87
688,41	11,98
688,856	12,28
689,301	12,48
689,747	12,62
690,193	12,9
690,638	13,17
691,084	13,62
691,529	13,75
691,974	14,07
692,419	14,45
692,864	15,07
693,309	15,4
693,754	15,76
694,199	16,31
694,643	16,82
695,088	17,17
695,532	17,72
695,977	18,17
696,421	18,7
696,865	19,08
697,309	19,81
697,753	20,24
698,197	20,81
698,64	21,27
699,084	22,01
699,527	22,33
699,971	22,85
700,414	23,17
700,857	24,06
701,3	24,38
701,743	24,7
702,186	25,32
702,629	25,81
703,072	26,13
703,515	26,72
703,957	27,2
704,399	27,48
704,842	27,98
705,284	28,53
705,726	29,03
706,168	29,1
706,61	29,8
707,052	30,3
707,494	30,64
707,935	31,08
708,377	31,34
708,818	31,9
709,26	32,28
709,701	32,6
710,142	33
710,583	33,25
711,024	33,61
711,465	33,76
711,905	34,35
712,346	34,66
712,787	34,79
713,227	35,27
713,667	35,76
714,108	36,1
714,548	36,27
714,988	36,76
715,428	36,9
715,868	37,35
716,307	37,4
716,747	37,92
717,186	37,93
717,626	38,37
718,065	38,68
718,504	38,86
718,944	39,52
719,383	39,48
719,822	39,54
720,261	39,6
720,699	39,97
721,138	40,37
721,576	40,51
722,015	40,98
722,453	40,98
722,892	41,32
723,33	41,22
723,768	41,52
724,206	41,67
724,644	41,92
725,081	42,29
725,519	42,16
725,957	42,69
726,394	42,53
726,832	42,65
727,269	43,01
727,706	43,18
728,143	43,36
728,58	43,23
729,017	43,55
729,454	43,6
729,89	43,65
730,327	43,79
730,764	44
731,2	44,28
731,636	44,1
732,072	44,34
732,509	44,28
732,945	44,54
733,38	44,51
733,816	44,48
734,252	44,44
734,688	44,83
735,123	44,82
735,559	44,85
735,994	44,88
736,429	45,05
736,864	44,74
737,299	44,83
737,734	45,34
738,169	45,17
738,604	45,11
739,038	45,34
739,473	45,24
739,907	45,11
740,342	45,09
740,776	45,42
741,21	45,26
741,644	45,19
742,078	45,19
742,512	45,21
742,946	45,19
743,379	44,95
743,813	45,07
744,246	44,92
744,68	45,29
745,113	44,88
745,546	45,38
745,979	45,02
746,412	45,04
746,845	45,08
747,278	45,03
747,711	45,1
748,143	45,23
748,576	45,01
749,008	44,95
749,441	45,27
749,873	44,75
750,305	44,77
750,737	45,01
751,169	44,74
751,601	44,86
752,032	44,84
752,464	44,91
752,896	44,69
753,327	44,8
753,758	44,72
754,19	44,74
754,621	44,41
755,052	44,43
755,483	44,36
755,914	44,6
756,344	44,22
756,775	44,2
757,206	44,02
757,636	44,22
758,066	44,22
758,497	43,85
758,927	44,06
759,357	44,15
759,787	44,22
760,217	43,84
760,647	44,03
761,076	44,26
761,506	43,86
761,935	43,92
762,365	44
762,794	43,93
763,223	43,57
763,653	43,79
764,082	43,76
764,51	43,8
764,939	43,77
765,368	43,55
765,797	43,67
766,225	43,38
766,654	43,53
767,082	43,5
767,51	43,31
767,938	43,4
768,367	43,46
768,795	43,46
769,222	43,18
769,65	43,59
770,078	43,2
770,505	43,3
770,933	43,37
771,36	43,38
771,788	43,26
772,215	43,23
772,642	43,09
773,069	42,99
773,496	43,05
773,923	43,16
774,349	43,21
774,776	43,07
775,203	43,05
775,629	43,07
776,055	42,98
776,482	42,93
776,908	43,34
777,334	42,93
777,76	42,76
778,186	42,95
778,611	42,66
779,037	42,65
779,463	42,78
779,888	42,77
780,314	43,03
780,739	42,84
781,164	42,7
781,589	42,69
782,014	42,98
782,439	42,86
782,864	42,64
783,289	42,57
783,713	42,64
784,138	42,48
784,562	42,57
784,987	42,49
785,411	42,82
785,835	42,44
786,259	42,54
786,683	42,75
787,107	42,42
787,531	42,57
787,954	42,67
788,378	42,31
788,802	42,47
789,225	42,52
789,648	42,35
790,071	42,66
790,495	42,4
790,918	42,41
791,34	42,18
791,763	42,19
792,186	42,4
792,609	42,58
793,031	42,12
793,454	42,28
793,876	42,37
794,298	42,1
794,721	42,42
795,143	42,04
795,565	42,31
795,986	42,09
796,408	42,63
796,83	42,22
797,252	42,18
797,673	42,46
798,094	42,05
798,516	42,11
798,937	42,03
799,358	42,19
799,779	42,08
800,2	42,44
800,621	42,09
801,042	41,97
801,462	42,12
801,883	42,33
802,303	41,88
802,724	42,09
803,144	42,21
803,564	42,29
803,984	42,06
804,404	42,21
804,824	42,13
805,244	42,34
805,664	42,1
806,084	41,99
806,503	42,3
806,923	42,08
807,342	42,29
807,761	42,03
808,18	42,22
808,599	42,28
809,018	42,05
809,437	41,97
809,856	42,31
810,275	42,21
810,693	42,32
811,112	42,08
811,53	42,21
811,949	42,4
812,367	41,99
812,785	41,99
813,203	42,05
813,621	42,03
814,039	41,67
814,457	41,73
814,874	41,83
815,292	41,93
815,709	42,17
816,127	42,13
816,544	41,8
816,961	41,89
817,378	42,09
817,795	41,99
818,212	41,84
818,629	42,16
819,046	41,8
819,462	41,92
819,879	42,05
820,295	41,82
820,712	41,91
821,128	41,99
821,544	41,9
821,96	41,92
822,376	41,87
822,792	42,08
823,208	41,78
823,624	41,89
824,039	42,05
824,455	42,02
824,87	41,67
825,286	41,81
825,701	41,89
826,116	41,77
826,531	41,86
826,946	42
827,361	41,51
827,776	41,96
828,19	41,5
828,605	41,81
829,02	41,93
829,434	41,74
829,848	41,77
830,263	41,7
830,677	41,94
831,091	41,53
831,505	41,81
831,919	41,73
832,332	41,5
832,746	41,64
833,16	41,75
833,573	41,64
833,987	41,74
834,4	41,49
834,813	41,72
835,226	41,78
835,639	41,8
836,052	41,77
836,465	41,69
836,878	41,62
837,29	41,79
837,703	41,58
838,116	41,71
838,528	41,49
838,94	41,56
839,352	41,42
839,765	41,77
840,177	41,88
840,589	41,49
841	41,38
