Data from F_5_0_Relative__2__00140.txt Node

Date: Mon Jan 29 13:04:49 CET 2024
User: diatiterra
Spectrometer: HDX00911
Trigger mode: 0
Integration Time (sec): 6,000000E-3
Scans to average: 2
Nonlinearity correction enabled: false
Boxcar width: 0
Storing dark spectrum: false
XAxis mode: Wavelengths
Number of Pixels in Spectrum: 2068
>>>>>Begin Spectral Data<<<<<
194,468	29,27
195,025	24,12
195,581	22,67
196,138	16,96
196,694	24,09
197,251	36,07
197,807	29,93
198,363	32,61
198,919	25,91
199,474	26,67
200,03	22,3
200,586	22,87
201,141	24,79
201,696	27,53
202,251	30,14
202,806	32,85
203,361	29,11
203,916	37,74
204,471	29,25
205,025	29,46
205,58	27,52
206,134	29,77
206,688	27,98
207,242	27,81
207,796	31,43
208,35	38,72
208,904	40,41
209,457	41,08
210,011	29,81
210,564	30,15
211,117	29,98
211,67	27,57
212,223	39,83
212,776	33,67
213,329	31,11
213,881	27,1
214,434	32,95
214,986	35,83
215,538	35,62
216,09	32,96
216,642	35,12
217,194	32,08
217,746	37,92
218,297	37,34
218,849	22,32
219,4	36,33
219,951	32
220,502	29,55
221,053	27,94
221,604	32,71
222,155	28,51
222,705	36,53
223,256	31,45
223,806	37,11
224,356	30,13
224,906	29,35
225,456	35,16
226,006	32,5
226,556	30,48
227,106	30,36
227,655	33,9
228,204	30,75
228,754	32,65
229,303	35,38
229,852	29,81
230,401	36,04
230,949	38,9
231,498	30,44
232,047	30,62
232,595	32,85
233,143	33,04
233,691	25
234,239	26,79
234,787	24,77
235,335	36,34
235,883	28,96
236,43	28,93
236,978	26,62
237,525	25,22
238,072	33,12
238,619	40,19
239,166	36,42
239,713	28,78
240,26	28,84
240,806	34,85
241,353	25,52
241,899	35,24
242,445	31,96
242,991	23,21
243,537	27,4
244,083	32,78
244,629	29,45
245,174	21,4
245,72	40
246,265	30,07
246,81	38,6
247,355	38,59
247,9	34,57
248,445	25,8
248,99	36,14
249,534	33,11
250,079	27,11
250,623	27,54
251,168	28,86
251,712	29,68
252,256	24,73
252,8	31,37
253,343	31,52
253,887	25,96
254,43	36,27
254,974	28
255,517	28,57
256,06	24,06
256,603	24,55
257,146	25,99
257,689	32,25
258,232	39,46
258,774	25,5
259,317	29,35
259,859	35,54
260,401	23,81
260,943	28,22
261,485	30,22
262,027	24,95
262,569	25,5
263,11	32,26
263,652	23,06
264,193	26,03
264,734	29,82
265,275	34,98
265,816	35,82
266,357	32,65
266,898	23,06
267,438	34,4
267,979	34,96
268,519	33,48
269,059	25,7
269,6	25,06
270,14	27,48
270,68	32,2
271,219	26,58
271,759	32,58
272,298	21,83
272,838	35,78
273,377	30,66
273,916	29,31
274,455	28,29
274,994	29,07
275,533	38,34
276,072	30,26
276,61	37,89
277,149	23,79
277,687	27
278,225	25,57
278,763	33,94
279,301	30
279,839	28,6
280,377	17,77
280,914	27,84
281,452	34,17
281,989	34,29
282,526	26,82
283,064	28,83
283,601	21,35
284,137	30,48
284,674	25
285,211	30,94
285,747	20,05
286,284	32,65
286,82	26,2
287,356	25,39
287,892	34,01
288,428	27,47
288,964	30,59
289,5	28,31
290,035	33,55
290,571	33,9
291,106	30,94
291,641	19,55
292,176	32,27
292,711	29,17
293,246	20,18
293,781	32,51
294,315	19,2
294,85	16,15
295,384	33,26
295,918	28,89
296,453	24,06
296,987	30,09
297,52	23,9
298,054	24,83
298,588	26,3
299,121	33,26
299,655	21,95
300,188	29,61
300,721	24,88
301,254	26,71
301,787	32,69
302,32	19,35
302,853	24,45
303,385	28,63
303,918	25,39
304,45	19,3
304,982	31,78
305,514	27,55
306,046	21,88
306,578	27
307,11	21,21
307,641	19,64
308,173	30
308,704	29,46
309,236	28,22
309,767	23,29
310,298	27,49
310,829	38,03
311,359	24,53
311,89	37,7
312,421	21,75
312,951	29,77
313,481	22,58
314,012	23,27
314,542	28,24
315,072	17,84
315,601	29,28
316,131	25,17
316,661	29,23
317,19	31,45
317,72	21,43
318,249	23,48
318,778	27,45
319,307	29,65
319,836	27,48
320,365	35,02
320,893	22,74
321,422	29,26
321,95	26,44
322,479	27,54
323,007	20,77
323,535	36,98
324,063	26
324,591	18,91
325,118	25,93
325,646	25,94
326,173	32,19
326,701	29,76
327,228	33,64
327,755	25,12
328,282	22,99
328,809	26,27
329,336	25,64
329,862	24,32
330,389	24,6
330,915	22,27
331,441	26,11
331,968	20,96
332,494	28
333,02	18,28
333,545	27,16
334,071	27,46
334,597	22,12
335,122	24,5
335,648	22,94
336,173	23,21
336,698	32,11
337,223	20,82
337,748	29,83
338,272	21,97
338,797	15,62
339,322	21,04
339,846	22,77
340,37	26,33
340,894	22,94
341,419	25,84
341,942	25,56
342,466	20,88
342,99	31,95
343,514	25,58
344,037	20
344,56	19,64
345,084	21,97
345,607	25,63
346,13	22,52
346,653	22,92
347,175	17,28
347,698	26,92
348,221	24,02
348,743	27,14
349,265	27,65
349,787	16,37
350,309	30,6
350,831	27,41
351,353	27,02
351,875	20,13
352,397	22,33
352,918	17,75
353,439	26,75
353,961	28,07
354,482	20,54
355,003	22,91
355,524	23,93
356,044	28,66
356,565	27,66
357,086	25,94
357,606	24,88
358,126	25,07
358,646	27,91
359,167	28,57
359,687	25,16
360,206	23,34
360,726	24,35
361,246	24,26
361,765	24,25
362,285	25,48
362,804	20,84
363,323	29,35
363,842	26,17
364,361	24,6
364,88	24,08
365,398	21,18
365,917	23,21
366,435	23,01
366,954	24,69
367,472	27,09
367,99	29,7
368,508	24,77
369,026	23,75
369,544	24,15
370,061	22,87
370,579	26,27
371,096	24,05
371,613	28,9
372,131	26,7
372,648	24,43
373,165	29,31
373,681	24,39
374,198	26,59
374,715	25,19
375,231	28,38
375,747	20,8
376,264	21,91
376,78	24,56
377,296	26,54
377,812	23,98
378,327	23,54
378,843	24,67
379,359	22,97
379,874	26,26
380,389	26,42
380,905	25,78
381,42	24,79
381,935	24,15
382,449	24,67
382,964	23,14
383,479	24,71
383,993	23,55
384,508	26,05
385,022	19,69
385,536	22,1
386,05	23,56
386,564	20,2
387,078	25,84
387,592	24,1
388,105	20,42
388,619	19,48
389,132	22,69
389,645	23,75
390,158	21,79
390,671	21,24
391,184	21,38
391,697	21,97
392,21	20,73
392,722	20,72
393,235	20,45
393,747	19,21
394,259	19,65
394,771	20,41
395,283	17,95
395,795	18,05
396,307	17,98
396,818	19,19
397,33	19,78
397,841	16,39
398,353	16,11
398,864	18,39
399,375	18,48
399,886	17,53
400,397	17,3
400,907	17,42
401,418	17,33
401,928	15,32
402,439	16,31
402,949	14,95
403,459	14,79
403,969	15,17
404,479	13,51
404,989	14,72
405,498	14,73
406,008	14,98
406,517	12,45
407,027	12,65
407,536	12,74
408,045	12,37
408,554	12,22
409,063	11,7
409,572	11,73
410,08	12,16
410,589	10,78
411,097	9,71
411,606	10,69
412,114	9,93
412,622	10,15
413,13	9,53
413,638	9,01
414,145	9,19
414,653	9,34
415,16	8,42
415,668	8,22
416,175	8,06
416,682	7,95
417,189	7,79
417,696	8,15
418,203	8,04
418,71	7,69
419,216	7,72
419,723	7,49
420,229	7,55
420,735	6,5
421,242	7,44
421,748	7,14
422,254	7,08
422,759	7,56
423,265	7,2
423,771	6,99
424,276	7,28
424,781	6,4
425,287	6,69
425,792	6,78
426,297	6,44
426,802	6,65
427,306	6,53
427,811	6,23
428,316	6,52
428,82	6,3
429,324	6,51
429,829	6,9
430,333	6,4
430,837	6,61
431,34	6,49
431,844	6,17
432,348	6,46
432,851	6,5
433,355	6,03
433,858	6,59
434,361	6,18
434,864	6,29
435,367	6,11
435,87	6,25
436,373	6,12
436,876	6,17
437,378	6,33
437,88	5,84
438,383	6,42
438,885	6,17
439,387	6,2
439,889	6,29
440,391	6,23
440,892	6,39
441,394	6,1
441,896	6,31
442,397	6,03
442,898	6,26
443,399	6,1
443,9	6,25
444,401	5,95
444,902	6,16
445,403	6,38
445,903	6,06
446,404	6,49
446,904	6,36
447,405	5,79
447,905	6,23
448,405	6,43
448,905	6,45
449,404	6,37
449,904	6,31
450,404	6,08
450,903	6,22
451,403	6,57
451,902	6,59
452,401	6,75
452,9	6,46
453,399	6,58
453,898	6,62
454,396	6,66
454,895	7,08
455,393	6,36
455,892	6,55
456,39	6,65
456,888	6,69
457,386	6,8
457,884	6,84
458,382	6,77
458,879	6,23
459,377	6,57
459,874	6,63
460,372	7,04
460,869	6,48
461,366	6,93
461,863	6,81
462,36	6,61
462,857	6,6
463,353	6,7
463,85	6,89
464,346	6,8
464,843	6,52
465,339	6,64
465,835	6,52
466,331	6,69
466,827	6,76
467,323	6,7
467,818	6,65
468,314	6,58
468,809	6,81
469,305	6,72
469,8	6,68
470,295	6,78
470,79	6,75
471,285	6,76
471,78	6,89
472,274	6,56
472,769	6,59
473,263	6,84
473,758	6,87
474,252	6,84
474,746	6,98
475,24	6,81
475,734	6,77
476,228	6,71
476,721	6,76
477,215	6,95
477,708	6,99
478,202	7,2
478,695	6,6
479,188	6,88
479,681	7,09
480,174	7,08
480,667	6,9
481,159	6,46
481,652	6,92
482,144	6,72
482,637	7,13
483,129	6,88
483,621	6,87
484,113	6,98
484,605	7,07
485,097	6,89
485,588	7,34
486,08	7,04
486,571	7,04
487,063	6,99
487,554	6,98
488,045	7,21
488,536	6,94
489,027	7,26
489,518	7,43
490,008	7,2
490,499	7,57
490,989	7,25
491,48	7,5
491,97	7,37
492,46	7,74
492,95	7,66
493,44	7,14
493,93	7,32
494,419	7,72
494,909	7,73
495,398	7,81
495,888	7,73
496,377	8,01
496,866	7,95
497,355	7,81
497,844	8,2
498,333	7,79
498,821	8,59
499,31	8,42
499,798	8,33
500,287	8,48
500,775	8,49
501,263	8,7
501,751	8,79
502,239	8,6
502,727	9,15
503,215	8,76
503,702	9,2
504,19	9,47
504,677	9,57
505,164	9,71
505,651	9,96
506,139	10,1
506,625	10,12
507,112	10,28
507,599	10,24
508,086	10,53
508,572	10,86
509,058	11,18
509,545	11,31
510,031	11,29
510,517	11,37
511,003	11,95
511,489	12,07
511,974	12,23
512,46	12,2
512,946	12,64
513,431	12,54
513,916	13,26
514,401	13,31
514,887	13,59
515,371	13,73
515,856	14,29
516,341	13,96
516,826	14,6
517,31	15,11
517,795	14,62
518,279	15,18
518,763	15,32
519,247	15,79
519,731	15,99
520,215	16
520,699	16,52
521,182	16,95
521,666	17,31
522,149	17,4
522,633	17,81
523,116	17,91
523,599	18,22
524,082	18,19
524,565	18,98
525,048	18,87
525,53	19,26
526,013	19,31
526,495	19,09
526,978	19,3
527,46	19,98
527,942	20,21
528,424	20,65
528,906	20,39
529,388	20,78
529,87	20,69
530,351	20,84
530,833	21,09
531,314	21,36
531,795	21,27
532,277	21,37
532,758	21,53
533,238	21,58
533,719	21,34
534,2	21,93
534,681	21,92
535,161	21,91
535,642	21,84
536,122	21,91
536,602	22,03
537,082	22,33
537,562	22,25
538,042	22,22
538,522	22,44
539,001	22,38
539,481	22,73
539,96	22,23
540,44	22,68
540,919	22,51
541,398	22,62
541,877	22,63
542,356	22,79
542,835	22,82
543,313	22,64
543,792	22,65
544,27	22,86
544,749	22,73
545,227	23,7
545,705	23,08
546,183	22,75
546,661	22,61
547,139	22,63
547,616	22,82
548,094	22,8
548,571	23,08
549,049	23,2
549,526	23,33
550,003	22,88
550,48	23,57
550,957	22,99
551,434	23,08
551,911	23,09
552,387	23,46
552,864	23,43
553,34	23,46
553,817	23,11
554,293	23,23
554,769	23,34
555,245	23,24
555,721	23,22
556,197	23,13
556,672	23,11
557,148	22,86
557,623	23,09
558,099	23,03
558,574	23,73
559,049	23,28
559,524	22,9
559,999	23,01
560,474	22,8
560,948	22,84
561,423	22,94
561,897	22,7
562,372	22,56
562,846	22,85
563,32	22,72
563,794	22,85
564,268	22,56
564,742	22,52
565,216	22,8
565,69	22,57
566,163	21,98
566,636	21,93
567,11	22,06
567,583	21,72
568,056	22,01
568,529	21,47
569,002	21,71
569,475	21,72
569,947	21,08
570,42	21,03
570,892	20,95
571,365	20,94
571,837	20,99
572,309	20,76
572,781	20,14
573,253	20,43
573,725	20,23
574,197	19,9
574,668	20,1
575,14	19,92
575,611	19,76
576,082	19,72
576,554	19,42
577,025	19,15
577,496	19,37
577,967	19,09
578,437	18,92
578,908	19
579,379	18,69
579,849	18,65
580,319	18,59
580,79	18,89
581,26	18,5
581,73	18,03
582,2	18,27
582,669	18,27
583,139	17,99
583,609	17,98
584,078	17,8
584,548	17,71
585,017	17,68
585,486	17,47
585,955	17,64
586,424	17,34
586,893	17,11
587,362	17,09
587,83	17,07
588,299	17,09
588,767	17,02
589,236	17,2
589,704	17,12
590,172	16,85
590,64	16,81
591,108	16,69
591,576	16,77
592,043	16,78
592,511	16,7
592,978	16,57
593,446	16,42
593,913	16,55
594,38	16,34
594,847	16,37
595,314	16,14
595,781	16,3
596,248	16,53
596,715	16,33
597,181	16,14
597,647	15,94
598,114	16,16
598,58	16,08
599,046	15,85
599,512	16,41
599,978	16,04
600,444	16,27
600,91	16,14
601,375	15,83
601,841	15,8
602,306	16,14
602,771	15,84
603,236	15,82
603,702	15,64
604,167	15,94
604,631	15,63
605,096	15,54
605,561	15,59
606,025	15,34
606,49	15,31
606,954	15,53
607,418	15,38
607,882	15,22
608,347	15,04
608,81	14,99
609,274	15,03
609,738	14,95
610,202	14,73
610,665	14,65
611,128	14,65
611,592	14,61
612,055	14,53
612,518	14,47
612,981	14,56
613,444	14,43
613,907	14,21
614,369	14,24
614,832	14,1
615,294	14,02
615,757	13,93
616,219	13,95
616,681	13,76
617,143	13,59
617,605	13,75
618,067	13,6
618,529	13,74
618,99	13,55
619,452	13,18
619,913	13,25
620,375	13,14
620,836	13,32
621,297	13,25
621,758	13,22
622,219	13,14
622,68	13,05
623,14	12,8
623,601	12,76
624,061	12,96
624,522	13,11
624,982	12,86
625,442	12,99
625,902	12,9
626,362	12,59
626,822	12,84
627,282	12,81
627,742	12,78
628,201	12,42
628,661	12,62
629,12	12,5
629,579	12,73
630,038	12,58
630,497	12,63
630,956	12,64
631,415	12,45
631,874	12,7
632,332	12,44
632,791	12,44
633,249	12,36
633,708	12,25
634,166	12,24
634,624	12,33
635,082	12,25
635,54	12,04
635,998	12,28
636,455	12,05
636,913	12,01
637,37	11,81
637,828	11,83
638,285	11,68
638,742	11,61
639,199	11,34
639,656	11,56
640,113	11,29
640,57	11,27
641,027	11,12
641,483	11,06
641,94	11,03
642,396	10,97
642,852	10,66
643,309	10,67
643,765	10,48
644,221	10,35
644,676	10,25
645,132	10,24
645,588	10,17
646,043	10,03
646,499	9,89
646,954	9,96
647,409	9,74
647,864	9,77
648,319	9,56
648,774	9,33
649,229	9,4
649,684	9,38
650,139	9,27
650,593	9,19
651,047	9,15
651,502	9,13
651,956	9,06
652,41	8,99
652,864	8,87
653,318	8,88
653,772	8,88
654,225	8,77
654,679	8,77
655,133	8,7
655,586	8,67
656,039	8,69
656,492	8,54
656,946	8,62
657,399	8,55
657,851	8,26
658,304	8,26
658,757	8,25
659,209	8,22
659,662	8,05
660,114	7,99
660,567	7,8
661,019	7,81
661,471	7,73
661,923	7,72
662,375	7,5
662,826	7,44
663,278	7,44
663,73	7,28
664,181	7,36
664,632	7,35
665,084	7,19
665,535	7,17
665,986	7,17
666,437	7,11
666,888	7,16
667,338	7,07
667,789	7,04
668,24	7,03
668,69	7,05
669,14	6,96
669,591	6,97
670,041	6,91
670,491	7,09
670,941	6,99
671,391	7,11
671,84	7,08
672,29	7,13
672,74	7,2
673,189	7,19
673,638	7,16
674,088	7,37
674,537	7,32
674,986	7,58
675,435	7,41
675,883	7,48
676,332	7,65
676,781	7,76
677,229	7,82
677,678	7,85
678,126	7,92
678,574	8,07
679,022	8,1
679,47	8,07
679,918	8,31
680,366	8,57
680,814	8,57
681,261	8,64
681,709	8,78
682,156	8,92
682,604	8,95
683,051	9,16
683,498	9,19
683,945	9,26
684,392	9,42
684,839	9,32
685,286	9,56
685,732	9,88
686,179	9,89
686,625	10,17
687,071	10,31
687,518	10,57
687,964	10,61
688,41	10,93
688,856	11,13
689,301	11,28
689,747	11,62
690,193	11,89
690,638	12,07
691,084	12,59
691,529	12,8
691,974	13,17
692,419	13,48
692,864	13,83
693,309	14,3
693,754	14,56
694,199	15,2
694,643	15,57
695,088	15,88
695,532	16,38
695,977	16,68
696,421	17,23
696,865	17,69
697,309	17,96
697,753	18,37
698,197	18,88
698,64	19,17
699,084	19,75
699,527	19,89
699,971	20,4
700,414	20,66
700,857	21,14
701,3	21,64
701,743	21,75
702,186	22,12
702,629	22,34
703,072	22,86
703,515	22,98
703,957	23,4
704,399	23,67
704,842	24,29
705,284	24,37
705,726	24,67
706,168	24,97
706,61	25,39
707,052	25,46
707,494	25,7
707,935	25,95
708,377	26,22
708,818	26,34
709,26	26,7
709,701	26,94
710,142	27,18
710,583	27,6
711,024	27,43
711,465	27,72
711,905	27,95
712,346	28,33
712,787	28,4
713,227	28,67
713,667	28,76
714,108	29,05
714,548	29,13
714,988	29,37
715,428	29,73
715,868	29,74
716,307	29,77
716,747	30,03
717,186	30,34
717,626	30,36
718,065	30,58
718,504	30,74
718,944	31,11
719,383	30,92
719,822	31,17
720,261	31,41
720,699	31,23
721,138	31,53
721,576	31,57
722,015	31,75
722,453	31,93
722,892	32,14
723,33	31,95
723,768	32,25
724,206	32,34
724,644	32,32
725,081	32,41
725,519	32,57
725,957	32,71
726,394	32,81
726,832	32,86
727,269	32,93
727,706	32,97
728,143	33,09
728,58	33,25
729,017	33,2
729,454	33,44
729,89	33,55
730,327	33,25
730,764	33,46
731,2	33,65
731,636	33,36
732,072	33,69
732,509	33,71
732,945	33,92
733,38	33,55
733,816	33,79
734,252	33,6
734,688	33,94
735,123	34,05
735,559	33,77
735,994	33,98
736,429	33,98
736,864	34,11
737,299	33,86
737,734	33,94
738,169	34,06
738,604	33,94
739,038	34,05
739,473	33,93
739,907	34,22
740,342	34,21
740,776	33,95
741,21	33,94
741,644	33,83
742,078	34,04
742,512	33,95
742,946	33,63
743,379	33,82
743,813	33,86
744,246	33,9
744,68	33,97
745,113	33,85
745,546	33,95
745,979	33,9
746,412	33,99
746,845	34,06
747,278	34,05
747,711	33,8
748,143	33,73
748,576	34,01
749,008	33,68
749,441	33,79
749,873	33,58
750,305	33,57
750,737	33,55
751,169	33,62
751,601	33,61
752,032	33,66
752,464	33,6
752,896	33,52
753,327	33,28
753,758	33,53
754,19	33,45
754,621	33,39
755,052	33,36
755,483	33,49
755,914	33,39
756,344	33,28
756,775	33,11
757,206	33,17
757,636	33,21
758,066	33,28
758,497	32,87
758,927	33,1
759,357	33,03
759,787	33
760,217	33,21
760,647	33,02
761,076	33,04
761,506	32,78
761,935	32,84
762,365	32,95
762,794	32,88
763,223	32,97
763,653	32,78
764,082	33,01
764,51	32,88
764,939	32,75
765,368	32,74
765,797	32,71
766,225	32,74
766,654	32,74
767,082	32,71
767,51	32,43
767,938	32,42
768,367	32,64
768,795	32,69
769,222	32,71
769,65	32,71
770,078	32,6
770,505	32,64
770,933	32,61
771,36	32,48
771,788	32,4
772,215	32,42
772,642	32,55
773,069	32,32
773,496	32,42
773,923	32,35
774,349	32,47
774,776	32,11
775,203	32,45
775,629	32,11
776,055	32,33
776,482	32,51
776,908	32,26
777,334	32,23
777,76	32,27
778,186	32,16
778,611	32,01
779,037	32,41
779,463	32,36
779,888	32,17
780,314	32,19
780,739	32,06
781,164	32,35
781,589	32,03
782,014	32,14
782,439	31,98
782,864	32,25
783,289	32,03
783,713	32,17
784,138	32,11
784,562	32,09
784,987	32,12
785,411	32,22
785,835	32,06
786,259	32,36
786,683	32,15
787,107	31,89
787,531	32,21
787,954	32,29
788,378	31,97
788,802	31,89
789,225	32,04
789,648	31,96
790,071	32,03
790,495	31,79
790,918	32,19
791,34	31,96
791,763	31,92
792,186	32,09
792,609	31,95
793,031	31,95
793,454	31,93
793,876	32
794,298	31,83
794,721	31,76
795,143	31,84
795,565	31,94
795,986	31,78
796,408	31,55
796,83	31,78
797,252	31,87
797,673	31,75
798,094	31,82
798,516	31,72
798,937	31,54
799,358	31,95
799,779	31,58
800,2	31,8
800,621	31,69
801,042	31,78
801,462	31,68
801,883	31,81
802,303	31,71
802,724	31,62
803,144	31,91
803,564	31,62
803,984	31,77
804,404	31,7
804,824	31,53
805,244	31,64
805,664	31,5
806,084	31,75
806,503	31,86
806,923	31,54
807,342	31,71
807,761	31,45
808,18	31,65
808,599	31,69
809,018	31,62
809,437	31,74
809,856	31,8
810,275	31,6
810,693	31,53
811,112	31,79
811,53	31,63
811,949	31,84
812,367	31,51
812,785	31,45
813,203	31,52
813,621	31,77
814,039	31,41
814,457	31,71
814,874	31,82
815,292	31,32
815,709	31,5
816,127	31,86
816,544	31,59
816,961	31,29
817,378	31,86
817,795	31,64
818,212	31,62
818,629	31,44
819,046	31,8
819,462	31,47
819,879	31,43
820,295	31,47
820,712	31,7
821,128	31,62
821,544	31,48
821,96	31,66
822,376	31,52
822,792	31,53
823,208	31,5
823,624	31,75
824,039	31,78
824,455	31,41
824,87	31,44
825,286	31,5
825,701	31,46
826,116	31,54
826,531	31,43
826,946	31,54
827,361	31,56
827,776	31,48
828,19	31,5
828,605	31,52
829,02	31,62
829,434	31,53
829,848	31,59
830,263	31,44
830,677	31,58
831,091	31,5
831,505	31,29
831,919	31,61
832,332	31,45
832,746	31,58
833,16	31,37
833,573	31,33
833,987	31,24
834,4	31,44
834,813	31,42
835,226	31,33
835,639	31,57
836,052	31,27
836,465	31,58
836,878	31,5
837,29	31,51
837,703	31,53
838,116	31,51
838,528	31,39
838,94	31,27
839,352	31,42
839,765	31,12
840,177	31,52
840,589	31,32
841	31,37
841,412	31,49
841,824	31,27
