Data from G_4_0_Relative__1__00154.txt Node

Date: Mon Jan 29 13:06:22 CET 2024
User: diatiterra
Spectrometer: HDX00911
Trigger mode: 0
Integration Time (sec): 6,000000E-3
Scans to average: 2
Nonlinearity correction enabled: false
Boxcar width: 0
Storing dark spectrum: false
XAxis mode: Wavelengths
Number of Pixels in Spectrum: 2068
>>>>>Begin Spectral Data<<<<<
194,468	25,61
195,025	24,12
195,581	29,65
196,138	30,99
196,694	32,62
197,251	37,67
197,807	31,35
198,363	36,93
198,919	34,48
199,474	33,78
200,03	26,71
200,586	38,67
201,141	28,21
201,696	33,12
202,251	35,03
202,806	39,01
203,361	37,13
203,916	40,3
204,471	29,71
205,025	34,62
205,58	35,57
206,134	34,29
206,688	36,66
207,242	31,21
207,796	41,63
208,35	35,99
208,904	40,82
209,457	35,05
210,011	40,8
210,564	36,8
211,117	33,85
211,67	36,42
212,223	35,97
212,776	33,67
213,329	31,52
213,881	33,26
214,434	34,1
214,986	32,2
215,538	38,72
216,09	36,57
216,642	38,97
217,194	35,42
217,746	45,55
218,297	41,63
218,849	38,63
219,4	38,41
219,951	36
220,502	33,4
221,053	37,61
221,604	31,87
222,155	46,44
222,705	33,19
223,256	37,53
223,806	34,17
224,356	39,1
224,906	33,54
225,456	28
226,006	43,86
226,556	36,33
227,106	41,96
227,655	33,05
228,204	30,75
228,754	34,29
229,303	40,22
229,852	43,2
230,401	36,49
230,949	44,18
231,498	42,89
232,047	35,33
232,595	38,28
233,143	38,33
233,691	47,95
234,239	30,8
234,787	30,68
235,335	38,92
235,883	33,19
236,43	40,5
236,978	30,79
237,525	30,58
238,072	37,04
238,619	50
239,166	43,05
239,713	27,12
240,26	37,97
240,806	44,81
241,353	35,63
241,899	39,21
242,445	36,08
242,991	35,79
243,537	34,43
244,083	37,34
244,629	45,55
245,174	35,81
245,72	42,22
246,265	42,66
246,81	44,02
247,355	38,59
247,9	43,33
248,445	30,49
248,99	36,55
249,534	32,2
250,079	29,33
250,623	32,37
251,168	35,57
251,712	38,71
252,256	35,05
252,8	36,17
253,343	29,15
253,887	39,15
254,43	34,98
254,974	40,71
255,517	40,51
256,06	35,54
256,603	27,73
257,146	38,05
257,689	33,98
258,232	30,39
258,774	28,96
259,317	36,12
259,859	36,9
260,401	33,33
260,943	32,67
261,485	43,56
262,027	31,95
262,569	41,5
263,11	33,97
263,652	39,53
264,193	34,71
264,734	26,15
265,275	38,26
265,816	27,91
266,357	35,37
266,898	37,21
267,438	41,28
267,979	42,92
268,519	32,6
269,059	24,77
269,6	35,89
270,14	29,28
270,68	36,86
271,219	36,71
271,759	34,83
272,298	35,63
272,838	28,44
273,377	32,3
273,916	40,94
274,455	40,31
274,994	35,68
275,533	31,87
276,072	31,55
276,61	37,89
277,149	32,04
277,687	32,04
278,225	30,09
278,763	38,91
279,301	36,22
279,839	35,91
280,377	44,31
280,914	42,69
281,452	37,84
281,989	35,6
282,526	31,12
283,064	32,06
283,601	29,7
284,137	40,95
284,674	35,19
285,211	36,6
285,747	42,96
286,284	39,5
286,82	44,42
287,356	35,98
287,892	31,75
288,428	28,76
288,964	38,12
289,5	35,06
290,035	32,67
290,571	36,83
291,106	29,95
291,641	36,82
292,176	40,1
292,711	31,36
293,246	33,03
293,781	41,08
294,315	29,68
294,85	31,64
295,384	45,39
295,918	30,67
296,453	39,62
296,987	25,36
297,52	34,87
298,054	40,04
298,588	31,96
299,121	28,38
299,655	30,54
300,188	25,06
300,721	42,09
301,254	29,91
301,787	32,69
302,32	38,71
302,853	33,7
303,385	34,36
303,918	28,95
304,45	32,02
304,982	30,89
305,514	33,1
306,046	30,63
306,578	32,95
307,11	39,86
307,641	41,07
308,173	32,73
308,704	32,14
309,236	31,14
309,767	32,24
310,298	39,91
310,829	35,68
311,359	28,27
311,89	32,28
312,421	26,68
312,951	37,67
313,481	27,19
314,012	35,35
314,542	34,82
315,072	33,92
315,601	31,08
316,131	41,65
316,661	30,19
317,19	34,16
317,72	33,33
318,249	27,09
318,778	29,9
319,307	30,12
319,836	32,1
320,365	29,49
320,893	34,63
321,422	37,56
321,95	38,89
322,479	32,51
323,007	28,5
323,535	31,86
324,063	30,73
324,591	39,72
325,118	37,36
325,646	26,89
326,173	35,39
326,701	37,38
327,228	36,36
327,755	32,78
328,282	33,69
328,809	31,13
329,336	33,03
329,862	29,77
330,389	36,55
330,915	35,91
331,441	34,03
331,968	27,23
332,494	39
333,02	26,02
333,545	28,37
334,071	24,78
334,597	33,17
335,122	31,18
335,648	33,76
336,173	29,72
336,698	32,57
337,223	28,63
337,748	32,35
338,272	24,9
338,797	26,03
339,322	35,52
339,846	27,02
340,37	30,38
340,894	26,95
341,419	27,94
341,942	25,15
342,466	27,56
342,99	39,42
343,514	40,25
344,037	24
344,56	28,54
345,084	28,79
345,607	36,82
346,13	30,53
346,653	31,63
347,175	28,45
347,698	30,45
348,221	33,33
348,743	31,6
349,265	27,65
349,787	34,88
350,309	33,68
350,831	25,34
351,353	35,28
351,875	26,17
352,397	30,33
352,918	29,01
353,439	32,34
353,961	29,75
354,482	21,55
355,003	26,19
355,524	25,46
356,044	31,85
356,565	33,43
357,086	30,43
357,606	22,94
358,126	32,79
358,646	29,23
359,167	32,32
359,687	37,11
360,206	34,86
360,726	30,14
361,246	33,09
361,765	29,12
362,285	32,55
362,804	23,82
363,323	31,6
363,842	32,31
364,361	29,14
364,88	31,45
365,398	31,18
365,917	30,77
366,435	27,38
366,954	28,93
367,472	27,6
367,99	30,48
368,508	29,54
369,026	30,11
369,544	28,05
370,061	31,51
370,579	29,22
371,096	29,13
371,613	33,22
372,131	24,89
372,648	27,23
373,165	32,63
373,681	30,16
374,198	31,21
374,715	28,37
375,231	31,94
375,747	22,77
376,264	28,47
376,78	27,88
377,296	24,83
377,812	31,72
378,327	27,99
378,843	30,11
379,359	25,68
379,874	26,26
380,389	30,03
380,905	31,31
381,42	29,45
381,935	27,06
382,449	27,65
382,964	29,04
383,479	27,35
383,993	26,41
384,508	26,34
385,022	25,86
385,536	21,53
386,05	24,79
386,564	25,49
387,078	27,3
387,592	27,24
388,105	21,04
388,619	23,43
389,132	25,97
389,645	24,95
390,158	25,05
390,671	24,44
391,184	23,29
391,697	22,62
392,21	24,77
392,722	21,43
393,235	22,44
393,747	21,69
394,259	22,84
394,771	21,85
395,283	20,45
395,795	19,49
396,307	20,93
396,818	21,05
397,33	23,71
397,841	21,95
398,353	20,06
398,864	19,84
399,375	20,6
399,886	20,46
400,397	19,65
400,907	18,23
401,418	19,12
401,928	19,08
402,439	19,35
402,949	19,86
403,459	18,05
403,969	16,06
404,479	17,45
404,989	16,01
405,498	15,92
406,008	15,71
406,517	15,64
407,027	15,2
407,536	14,82
408,045	13,41
408,554	13,53
409,063	12,65
409,572	12,73
410,08	11,98
410,589	12,15
411,097	12,18
411,606	11,99
412,114	11,17
412,622	10,61
413,13	10,72
413,638	10,77
414,145	10,48
414,653	9,87
415,16	10,17
415,668	10,08
416,175	10,04
416,682	9,59
417,189	9,5
417,696	9,42
418,203	9,29
418,71	8,3
419,216	8,42
419,723	8,48
420,229	9,13
420,735	7,46
421,242	9,07
421,748	8,16
422,254	8,8
422,759	8,26
423,265	8,13
423,771	8,09
424,276	7,94
424,781	7,55
425,287	8,06
425,792	7,76
426,297	7,89
426,802	7,69
427,306	7,18
427,811	7,97
428,316	7,61
428,82	7,64
429,324	7,03
429,829	8,06
430,333	7,35
430,837	7,38
431,34	6,93
431,844	7,75
432,348	6,87
432,851	7,47
433,355	7,42
433,858	6,87
434,361	7,38
434,864	6,82
435,367	7,37
435,87	7,09
436,373	7,5
436,876	7,26
437,378	7,25
437,88	7,08
438,383	7,16
438,885	7,25
439,387	7,22
439,889	7,16
440,391	7,31
440,892	7,31
441,394	7,31
441,896	6,95
442,397	7,19
442,898	7,69
443,399	7,23
443,9	7,14
444,401	7,3
444,902	7,05
445,403	7,31
445,903	7,28
446,404	7,02
446,904	6,94
447,405	7,22
447,905	7,61
448,405	7,51
448,905	7,34
449,404	7,22
449,904	7,46
450,404	7,67
450,903	7,03
451,403	7
451,902	7,62
452,401	7,64
452,9	7,44
453,399	7,92
453,898	7,59
454,396	8,02
454,895	7,96
455,393	7,67
455,892	7,41
456,39	7,99
456,888	8,04
457,386	8,05
457,884	7,94
458,382	7,87
458,879	8,25
459,377	7,69
459,874	8,1
460,372	7,86
460,869	8,19
461,366	7,79
461,863	7,99
462,36	7,62
462,857	7,88
463,353	7,86
463,85	7,93
464,346	7,97
464,843	8,21
465,339	7,67
465,835	7,63
466,331	8,17
466,827	7,6
467,323	7,91
467,818	7,96
468,314	7,98
468,809	8,11
469,305	7,69
469,8	7,82
470,295	7,85
470,79	7,99
471,285	7,98
471,78	8
472,274	7,76
472,769	7,94
473,263	8,19
473,758	8,08
474,252	8,02
474,746	8,1
475,24	7,8
475,734	8,05
476,228	8,12
476,721	7,79
477,215	8,23
477,708	8,23
478,202	8,1
478,695	8,07
479,188	8,23
479,681	8,21
480,174	8,23
480,667	8,05
481,159	8,02
481,652	8,3
482,144	8,29
482,637	8,12
483,129	8,27
483,621	8,06
484,113	8,44
484,605	8,53
485,097	8,36
485,588	8,19
486,08	8,32
486,571	8,2
487,063	8,39
487,554	8,53
488,045	8,39
488,536	8,56
489,027	8,83
489,518	8,76
490,008	8,81
490,499	8,71
490,989	8,58
491,48	9,08
491,97	8,93
492,46	8,68
492,95	8,95
493,44	9,22
493,93	9,06
494,419	9,21
494,909	9,36
495,398	9,35
495,888	9,3
496,377	9,68
496,866	9,7
497,355	9,53
497,844	9,64
498,333	9,78
498,821	9,94
499,31	10,18
499,798	10,15
500,287	10,25
500,775	10,31
501,263	10,65
501,751	10,86
502,239	11
502,727	11,33
503,215	10,98
503,702	11,31
504,19	11,61
504,677	11,99
505,164	11,94
505,651	12,06
506,139	12,25
506,625	12,44
507,112	12,44
507,599	12,81
508,086	12,93
508,572	12,91
509,058	13,29
509,545	13,79
510,031	13,95
510,517	13,83
511,003	14,55
511,489	14,93
511,974	14,88
512,46	15,46
512,946	15,42
513,431	15,7
513,916	15,72
514,401	16,26
514,887	16,56
515,371	16,95
515,856	16,98
516,341	17,1
516,826	18,12
517,31	18,3
517,795	18,29
518,279	18,84
518,763	18,97
519,247	19,28
519,731	19,58
520,215	19,96
520,699	20,12
521,182	20,69
521,666	21,36
522,149	20,92
522,633	21,67
523,116	21,99
523,599	22,48
524,082	22,19
524,565	22,7
525,048	22,93
525,53	23,13
526,013	23,58
526,495	23,78
526,978	23,73
527,46	24,24
527,942	24,56
528,424	24,37
528,906	24,79
529,388	25,55
529,87	25,08
530,351	25,42
530,833	26,29
531,314	25,63
531,795	26,54
532,277	26,12
532,758	26,34
533,238	26,07
533,719	26,14
534,2	26,46
534,681	26,56
535,161	26,54
535,642	26,56
536,122	26,79
536,602	27,34
537,082	27,34
537,562	27,11
538,042	27,1
538,522	27,51
539,001	27,52
539,481	27,55
539,96	27,49
540,44	27,61
540,919	27,05
541,398	27,73
541,877	27,72
542,356	27,66
542,835	27,24
543,313	27,37
543,792	27,52
544,27	27,28
544,749	27,92
545,227	27,79
545,705	27,87
546,183	28,34
546,661	27,16
547,139	27,79
547,616	28,21
548,094	27,99
548,571	28,05
549,049	28,6
549,526	28,42
550,003	28,12
550,48	28,28
550,957	28,07
551,434	28,39
551,911	28
552,387	27,93
552,864	27,7
553,34	28,32
553,817	28,39
554,293	28,36
554,769	28,49
555,245	28,23
555,721	28,42
556,197	28,7
556,672	28,24
557,148	27,97
557,623	28,02
558,099	28,13
558,574	28,42
559,049	28,27
559,524	28,26
559,999	28,23
560,474	28,12
560,948	28,21
561,423	27,6
561,897	28,17
562,372	27,72
562,846	27,3
563,32	27,49
563,794	27,44
564,268	27,16
564,742	27,36
565,216	27,61
565,69	27,26
566,163	26,53
566,636	26,88
567,11	26,57
567,583	26,93
568,056	26,56
568,529	26,26
569,002	26,02
569,475	25,79
569,947	25,76
570,42	25,84
570,892	25,48
571,365	25,47
571,837	25,38
572,309	25,28
572,781	25,07
573,253	24,55
573,725	24,23
574,197	24,28
574,668	24,19
575,14	24,21
575,611	23,85
576,082	23,66
576,554	23,6
577,025	23,48
577,496	23,24
577,967	23,18
578,437	23,05
578,908	22,96
579,379	22,28
579,849	22,74
580,319	22,54
580,79	22,71
581,26	22,2
581,73	22,14
582,2	22,32
582,669	22,03
583,139	22,21
583,609	21,65
584,078	21,73
584,548	21,41
585,017	21,61
585,486	21,28
585,955	21
586,424	21,22
586,893	20,86
587,362	21,08
587,83	21,08
588,299	21,01
588,767	20,56
589,236	20,88
589,704	20,62
590,172	20,53
590,64	20,31
591,108	20,5
591,576	20,53
592,043	20,2
592,511	20,15
592,978	20,36
593,446	20,01
593,913	19,96
594,38	20,05
594,847	20,03
595,314	19,62
595,781	19,85
596,248	19,84
596,715	19,78
597,181	19,74
597,647	19,83
598,114	19,66
598,58	19,58
599,046	19,64
599,512	19,82
599,978	19,68
600,444	19,67
600,91	19,38
601,375	19,33
601,841	19,37
602,306	19,39
602,771	19,59
603,236	19,47
603,702	19,22
604,167	18,99
604,631	19,22
605,096	19,04
605,561	18,87
606,025	18,91
606,49	18,79
606,954	18,83
607,418	18,48
607,882	18,62
608,347	18,39
608,81	18,22
609,274	18,25
609,738	17,89
610,202	18,23
610,665	18,05
611,128	17,98
611,592	17,81
612,055	17,73
612,518	17,46
612,981	17,31
613,444	17,58
613,907	17,48
614,369	17,18
614,832	17,01
615,294	17,16
615,757	17,14
616,219	16,94
616,681	16,67
617,143	16,74
617,605	16,54
618,067	16,55
618,529	16,51
618,99	16,47
619,452	16,29
619,913	16,13
620,375	16,15
620,836	16,24
621,297	15,96
621,758	15,96
622,219	15,94
622,68	15,93
623,14	15,77
623,601	15,85
624,061	15,8
624,522	15,76
624,982	15,67
625,442	15,72
625,902	15,71
626,362	15,55
626,822	15,51
627,282	15,46
627,742	15,47
628,201	15,48
628,661	15,73
629,12	15,41
629,579	15,43
630,038	15,37
630,497	15,27
630,956	15,47
631,415	15,49
631,874	15,41
632,332	14,96
632,791	15,39
633,249	15,23
633,708	15,08
634,166	15
634,624	15,05
635,082	15
635,54	14,84
635,998	14,7
636,455	14,63
636,913	14,49
637,37	14,4
637,828	14,3
638,285	14,21
638,742	14,22
639,199	13,81
639,656	13,91
640,113	13,71
640,57	13,81
641,027	13,42
641,483	13,27
641,94	13,36
642,396	12,99
642,852	13,05
643,309	13
643,765	12,6
644,221	12,45
644,676	12,44
645,132	12,34
645,588	12,15
646,043	12,06
646,499	11,92
646,954	11,72
647,409	11,64
647,864	11,49
648,319	11,41
648,774	11,27
649,229	11,44
649,684	11,28
650,139	11,05
650,593	11,08
651,047	11,02
651,502	10,96
651,956	10,93
652,41	10,73
652,864	10,73
653,318	10,78
653,772	10,64
654,225	10,59
654,679	10,55
655,133	10,56
655,586	10,53
656,039	10,35
656,492	10,54
656,946	10,3
657,399	10,13
657,851	9,96
658,304	10,2
658,757	9,96
659,209	9,72
659,662	9,78
660,114	9,61
660,567	9,53
661,019	9,51
661,471	9,53
661,923	9,24
662,375	9,11
662,826	9,08
663,278	9,1
663,73	9,08
664,181	8,9
664,632	8,89
665,084	8,62
665,535	8,69
665,986	8,85
666,437	8,55
666,888	8,63
667,338	8,64
667,789	8,56
668,24	8,62
668,69	8,45
669,14	8,51
669,591	8,6
670,041	8,43
670,491	8,61
670,941	8,45
671,391	8,57
671,84	8,64
672,29	8,69
672,74	8,74
673,189	8,66
673,638	8,9
674,088	8,87
674,537	8,98
674,986	9,15
675,435	9,07
675,883	9,33
676,332	9,22
676,781	9,38
677,229	9,48
677,678	9,45
678,126	9,69
678,574	9,78
679,022	9,92
679,47	10,03
679,918	10,17
680,366	10,26
680,814	10,41
681,261	10,56
681,709	10,76
682,156	10,71
682,604	11
683,051	11,2
683,498	11,18
683,945	11,37
684,392	11,53
684,839	11,68
685,286	11,92
685,732	12,01
686,179	12,19
686,625	12,5
687,071	12,76
687,518	12,94
687,964	13,08
688,41	13,28
688,856	13,61
689,301	13,97
689,747	14,24
690,193	14,58
690,638	15,26
691,084	15,7
691,529	16,14
691,974	16,32
692,419	16,85
692,864	17,35
693,309	17,63
693,754	18,41
694,199	18,91
694,643	19,18
695,088	19,97
695,532	20,63
695,977	20,96
696,421	21,51
696,865	21,92
697,309	22,63
697,753	22,73
698,197	23,61
698,64	23,72
699,084	24,64
699,527	24,99
699,971	25,35
700,414	26
700,857	26,39
701,3	26,56
701,743	27,21
702,186	27,7
702,629	28,1
703,072	28,49
703,515	28,82
703,957	29,42
704,399	29,37
704,842	30,03
705,284	30,28
705,726	30,47
706,168	30,59
706,61	31,36
707,052	31,5
707,494	32
707,935	32,16
708,377	32,52
708,818	32,73
709,26	33,06
709,701	33,08
710,142	33,54
710,583	33,91
711,024	34,28
711,465	34,12
711,905	34,57
712,346	34,84
712,787	35,16
713,227	35,3
713,667	35,84
714,108	35,95
714,548	36,28
714,988	36,45
715,428	36,91
715,868	36,81
716,307	36,68
716,747	37,02
717,186	37,56
717,626	37,37
718,065	37,53
718,504	38,02
718,944	38,06
719,383	38,19
719,822	38,5
720,261	38,43
720,699	38,88
721,138	38,85
721,576	39,01
722,015	39,43
722,453	39,45
722,892	39,3
723,33	39,55
723,768	39,7
724,206	39,66
724,644	39,88
725,081	39,98
725,519	40,32
725,957	40,15
726,394	40,51
726,832	40,58
727,269	40,35
727,706	40,64
728,143	40,76
728,58	40,74
729,017	40,86
729,454	41,01
729,89	41,04
730,327	41,25
730,764	41,12
731,2	41,3
731,636	41,19
732,072	41,31
732,509	41,46
732,945	41,64
733,38	41,46
733,816	41,47
734,252	41,53
734,688	41,77
735,123	41,69
735,559	41,82
735,994	41,59
736,429	41,62
736,864	41,58
737,299	41,51
737,734	41,65
738,169	41,75
738,604	41,72
739,038	41,72
739,473	41,85
739,907	41,99
740,342	41,96
740,776	41,78
741,21	41,76
741,644	41,63
742,078	41,68
742,512	41,92
742,946	41,75
743,379	41,73
743,813	41,7
744,246	41,6
744,68	41,71
745,113	41,78
745,546	41,62
745,979	41,98
746,412	41,74
746,845	41,85
747,278	41,67
747,711	41,78
748,143	41,65
748,576	41,63
749,008	41,49
749,441	41,73
749,873	41,33
750,305	41,34
750,737	41,33
751,169	41,54
751,601	41,46
752,032	41,43
752,464	41,23
752,896	40,96
753,327	41,16
753,758	41,1
754,19	41,27
754,621	40,78
755,052	40,72
755,483	41,02
755,914	40,85
756,344	40,96
756,775	40,77
757,206	40,8
757,636	40,81
758,066	40,95
758,497	40,72
758,927	40,71
759,357	40,82
759,787	40,65
760,217	40,63
760,647	40,68
761,076	40,89
761,506	40,63
761,935	40,41
762,365	40,48
762,794	40,48
763,223	40,43
763,653	40,45
764,082	40,32
764,51	40,18
764,939	40,41
765,368	40,31
765,797	40,16
766,225	40,37
766,654	40,12
767,082	40,17
767,51	39,95
767,938	40,44
768,367	40,1
768,795	39,89
769,222	39,81
769,65	40,31
770,078	39,85
770,505	40,06
770,933	39,95
771,36	39,89
771,788	40,07
772,215	39,81
772,642	39,81
773,069	39,83
773,496	39,73
773,923	39,97
774,349	39,78
774,776	39,73
775,203	39,79
775,629	39,72
776,055	39,72
776,482	39,68
776,908	40,1
777,334	39,61
777,76	39,51
778,186	39,7
778,611	39,39
779,037	39,7
779,463	39,59
779,888	39,67
780,314	39,72
780,739	39,6
781,164	39,79
781,589	39,49
782,014	39,56
782,439	39,66
782,864	39,41
783,289	39,4
783,713	39,39
784,138	39,34
784,562	39,3
784,987	39,41
785,411	39,35
785,835	39,4
786,259	39,17
786,683	39,63
787,107	39,42
787,531	39,66
787,954	39,51
788,378	39,07
788,802	39,15
789,225	39,3
789,648	39,3
790,071	38,9
790,495	39,3
790,918	39,52
791,34	39,49
791,763	39,18
792,186	39,26
792,609	39,24
793,031	39,08
793,454	39,16
793,876	39,02
794,298	38,85
794,721	38,85
795,143	39,2
795,565	38,87
795,986	39,27
796,408	39,37
796,83	39,03
797,252	39,06
797,673	38,87
798,094	39,05
798,516	38,94
798,937	38,89
799,358	39,1
799,779	39,1
800,2	39
800,621	38,96
801,042	38,85
801,462	39
801,883	38,86
802,303	39,03
802,724	39,03
803,144	39,02
803,564	39
803,984	38,98
804,404	38,92
804,824	38,81
805,244	39,09
805,664	38,87
806,084	38,77
806,503	38,96
806,923	39,09
807,342	38,97
807,761	38,93
808,18	38,98
808,599	38,92
809,018	39,08
809,437	38,92
809,856	38,99
810,275	38,97
810,693	39,17
811,112	38,76
811,53	38,72
811,949	39,04
812,367	38,77
812,785	38,78
813,203	39,02
813,621	38,92
814,039	38,37
814,457	38,88
814,874	38,81
815,292	39,1
815,709	38,81
816,127	38,9
816,544	38,93
816,961	38,73
817,378	38,93
817,795	38,53
818,212	38,29
818,629	38,83
819,046	38,74
819,462	38,79
819,879	38,51
820,295	38,41
820,712	38,88
821,128	38,9
821,544	38,63
821,96	38,72
822,376	39,14
822,792	38,61
823,208	38,69
823,624	38,85
824,039	38,93
824,455	38,33
824,87	38,46
825,286	38,59
825,701	38,4
826,116	38,9
826,531	38,36
826,946	38,61
827,361	38,75
827,776	38,6
828,19	38,71
828,605	38,76
829,02	38,61
829,434	38,49
829,848	38,54
830,263	38,58
830,677	38,51
831,091	38,57
831,505	38,44
831,919	38,76
832,332	38,37
832,746	38,41
833,16	38,48
833,573	38,4
833,987	39,02
834,4	38,49
834,813	38,43
835,226	38,48
835,639	38,35
836,052	38,43
836,465	38,53
836,878	38,74
837,29	38,87
837,703	38,59
838,116	38,61
838,528	38,53
838,94	38,73
839,352	38,45
839,765	38,55
