Data from G_6_0_Relative__2__00162.txt Node

Date: Mon Jan 29 13:07:07 CET 2024
User: diatiterra
Spectrometer: HDX00911
Trigger mode: 0
Integration Time (sec): 6,000000E-3
Scans to average: 2
Nonlinearity correction enabled: false
Boxcar width: 0
Storing dark spectrum: false
XAxis mode: Wavelengths
Number of Pixels in Spectrum: 2068
>>>>>Begin Spectral Data<<<<<
194,468	31,71
195,025	35,18
195,581	43,6
196,138	36,84
196,694	45,43
197,251	40,32
197,807	38,95
198,363	30,45
198,919	31,05
199,474	39,11
200,03	33,77
200,586	28,69
201,141	32,91
201,696	42,58
202,251	33,81
202,806	40,66
203,361	40,51
203,916	33,05
204,471	34,24
205,025	32,47
205,58	32,44
206,134	38,81
206,688	32,32
207,242	35,46
207,796	31,02
208,35	34,62
208,904	37,55
209,457	35,48
210,011	42,49
210,564	37,21
211,117	35,78
211,67	41,65
212,223	35,12
212,776	30,44
213,329	44,04
213,881	27,52
214,434	35,65
214,986	39,91
215,538	36,06
216,09	36,12
216,642	33,4
217,194	36,25
217,746	40,47
218,297	36,05
218,849	37,77
219,4	36,33
219,951	32,44
220,502	36,4
221,053	27,52
221,604	40,21
222,155	44,14
222,705	32,36
223,256	34,06
223,806	39,2
224,356	29,27
224,906	41,93
225,456	34,74
226,006	39,77
226,556	28,81
227,106	37,5
227,655	39,87
228,204	34,73
228,754	39,22
229,303	39,34
229,852	39,31
230,401	36,94
230,949	45,05
231,498	34,44
232,047	35,33
232,595	37,03
233,143	38,33
233,691	40,98
234,239	35,27
234,787	33,86
235,335	38,49
235,883	36,58
236,43	31,4
236,978	35,88
237,525	31,92
238,072	32,24
238,619	37,85
239,166	37,75
239,713	36,65
240,26	35,48
240,806	41,34
241,353	31,03
241,899	37,89
242,445	29,9
242,991	35,79
243,537	34,89
244,083	40,66
244,629	37,08
245,174	34,5
245,72	43,56
246,265	39,39
246,81	38,6
247,355	43,29
247,9	44,64
248,445	25,37
248,99	34,09
249,534	43,08
250,079	36,89
250,623	33,33
251,168	41,39
251,712	38,28
252,256	37,2
252,8	38,78
253,343	35,31
253,887	37,02
254,43	38,84
254,974	32,24
255,517	36,67
256,06	38,63
256,603	40,91
257,146	45,94
257,689	40,04
258,232	35,37
258,774	24,5
259,317	42,44
259,859	38,72
260,401	32,47
260,943	29,11
261,485	39,56
262,027	39,39
262,569	39
263,11	43,38
263,652	33,41
264,193	40,78
264,734	36,24
265,275	37,32
265,816	40,22
266,357	40,82
266,898	30,37
267,438	41,74
267,979	34,96
268,519	41,79
269,059	37,38
269,6	40,41
270,14	39,64
270,68	38,14
271,219	34,18
271,759	42,47
272,298	34,3
272,838	31,65
273,377	41,77
273,916	33,33
274,455	39,87
274,994	34,8
275,533	42,49
276,072	39,27
276,61	34,8
277,149	35,92
277,687	40,27
278,225	38,69
278,763	37,56
279,301	38,89
279,839	34,62
280,377	36,26
280,914	43,62
281,452	44,72
281,989	42,2
282,526	31,55
283,064	36,09
283,601	40,37
284,137	46,67
284,674	34,22
285,211	44,88
285,747	31,03
286,284	33,11
286,82	33,94
287,356	39,96
287,892	34,92
288,428	32,19
288,964	44,71
289,5	36,85
290,035	37,53
290,571	40,73
291,106	31,44
291,641	44,55
292,176	42,54
292,711	40,57
293,246	43,12
293,781	37,47
294,315	38,65
294,85	36,5
295,384	35,51
295,918	43,56
296,453	41,51
296,987	40,05
297,52	31,8
298,054	36,47
298,588	38,48
299,121	39,47
299,655	39,14
300,188	33,26
300,721	37,91
301,254	42,69
301,787	38,5
302,32	32,26
302,853	40,75
303,385	36,56
303,918	33,85
304,45	39,04
304,982	40,67
305,514	50,69
306,046	33,7
306,578	35,7
307,11	43,12
307,641	31,25
308,173	41,36
308,704	40,62
309,236	38,93
309,767	41,18
310,298	39,47
310,829	44,13
311,359	38,55
311,89	36,79
312,421	31,61
312,951	42,33
313,481	34,1
314,012	35,35
314,542	35,29
315,072	34,92
315,601	34,23
316,131	40,27
316,661	26,81
317,19	42,76
317,72	35,24
318,249	41,99
318,778	33,82
319,307	40,94
319,836	36,26
320,365	45,62
320,893	49,61
321,422	36,18
321,95	34,89
322,479	32,96
323,007	34,3
323,535	36,05
324,063	32,15
324,591	34,04
325,118	38,68
325,646	39,15
326,173	31,74
326,701	32,14
327,228	43,64
327,755	28,95
328,282	32,09
328,809	28,04
329,336	28,87
329,862	37,95
330,389	37,47
330,915	32,73
331,441	32,63
331,968	29,64
332,494	26,5
333,02	28,6
333,545	31,19
334,071	30,13
334,597	38,46
335,122	41,43
335,648	36,86
336,173	28,42
336,698	31,65
337,223	29,93
337,748	43,28
338,272	29,08
338,797	33,84
339,322	34,16
339,846	24,89
340,37	43,04
340,894	23,39
341,419	43,91
341,942	32,86
342,466	26,3
342,99	41,08
343,514	33,12
344,037	27,2
344,56	20,45
345,084	32,58
345,607	31,77
346,13	33,59
346,653	34,66
347,175	31,59
347,698	34,77
348,221	33,33
348,743	33,09
349,265	33,91
349,787	25,27
350,309	35,38
350,831	32,93
351,353	37,01
351,875	32,89
352,397	32
352,918	30,38
353,439	39,69
353,961	34,12
354,482	25,59
355,003	30,44
355,524	32,77
356,044	27,39
356,565	34,35
357,086	28,34
357,606	35,54
358,126	32,2
358,646	36,78
359,167	38,96
359,687	34,91
360,206	31,31
360,726	32,17
361,246	37,21
361,765	35,44
362,285	30,78
362,804	36,81
363,323	28,51
363,842	35,51
364,361	35,03
364,88	35,66
365,398	35,92
365,917	31,81
366,435	33,03
366,954	26,18
367,472	33,5
367,99	33,33
368,508	36,42
369,026	34,27
369,544	33,41
370,061	34,07
370,579	33,07
371,096	37,92
371,613	38
372,131	33,07
372,648	34,77
373,165	32,41
373,681	35,92
374,198	33,19
374,715	29,01
375,231	30,89
375,747	28,26
376,264	25,97
376,78	34,11
377,296	28,44
377,812	30,56
378,327	32,99
378,843	30,82
379,359	31,28
379,874	31,98
380,389	28,66
380,905	30,62
381,42	26,96
381,935	29,81
382,449	29,8
382,964	27,8
383,479	31,08
383,993	26,11
384,508	29,25
385,022	26,89
385,536	24,95
386,05	25,34
386,564	26,17
387,078	28,63
387,592	28,55
388,105	25,5
388,619	24,78
389,132	26,46
389,645	27,24
390,158	28,66
390,671	23,89
391,184	24,75
391,697	24,68
392,21	26,58
392,722	24,91
393,235	24,02
393,747	23,45
394,259	22,53
394,771	24,94
395,283	22,15
395,795	22,67
396,307	24,18
396,818	21,64
397,33	23,06
397,841	22,33
398,353	20,89
398,864	21,01
399,375	23,16
399,886	21,44
400,397	20,99
400,907	19,7
401,418	18,97
401,928	19,52
402,439	18,41
402,949	18,06
403,459	17,42
403,969	17,82
404,479	17,85
404,989	16,01
405,498	16,23
406,008	16,73
406,517	15,06
407,027	14,33
407,536	14,92
408,045	13,2
408,554	14,49
409,063	13
409,572	12,97
410,08	12,57
410,589	12,19
411,097	11,64
411,606	11,99
412,114	11,01
412,622	11,72
413,13	10,91
413,638	10,66
414,145	10,23
414,653	11,14
415,16	9,43
415,668	9,92
416,175	9,85
416,682	8,95
417,189	9,13
417,696	9,22
418,203	8,96
418,71	8,91
419,216	8,58
419,723	8,9
420,229	9,31
420,735	7,86
421,242	8,03
421,748	8,09
422,254	8,25
422,759	7,58
423,265	7,76
423,771	7,76
424,276	8,01
424,781	8,16
425,287	7,83
425,792	7,66
426,297	7,63
426,802	7,45
427,306	7,51
427,811	7,57
428,316	7,11
428,82	7,23
429,324	7,11
429,829	7,23
430,333	7,71
430,837	7,55
431,34	7,11
431,844	7,2
432,348	7,25
432,851	6,82
433,355	7,21
433,858	7,04
434,361	6,63
434,864	7,07
435,367	7,18
435,87	6,71
436,373	7,01
436,876	7,14
437,378	6,27
437,88	6,81
438,383	7,26
438,885	7,29
439,387	6,76
439,889	6,71
440,391	7,19
440,892	7,12
441,394	6,91
441,896	7,08
442,397	7,16
442,898	7,18
443,399	7,33
443,9	6,76
444,401	7,05
444,902	6,97
445,403	7,25
445,903	6,96
446,404	7,05
446,904	7,4
447,405	7,11
447,905	6,72
448,405	7,56
448,905	7,12
449,404	7,4
449,904	7,38
450,404	7,35
450,903	7,71
451,403	8,03
451,902	7,41
452,401	7,56
452,9	7,13
453,399	7,15
453,898	8,32
454,396	7,86
454,895	7,87
455,393	8,01
455,892	7,85
456,39	7,97
456,888	7,93
457,386	8,32
457,884	8,2
458,382	7,91
458,879	7,66
459,377	8,02
459,874	7,89
460,372	7,98
460,869	7,97
461,366	8,03
461,863	8,04
462,36	7,98
462,857	7,99
463,353	8,16
463,85	7,89
464,346	7,98
464,843	8,34
465,339	7,68
465,835	7,81
466,331	7,95
466,827	8,11
467,323	7,77
467,818	7,83
468,314	7,77
468,809	8,2
469,305	7,91
469,8	7,83
470,295	8
470,79	7,91
471,285	7,95
471,78	7,91
472,274	7,55
472,769	7,83
473,263	8,24
473,758	8,09
474,252	8,24
474,746	8,05
475,24	8,02
475,734	7,93
476,228	8,03
476,721	8,1
477,215	7,87
477,708	8,34
478,202	7,99
478,695	8,13
479,188	8,26
479,681	8,17
480,174	8,12
480,667	8,33
481,159	8,23
481,652	8,09
482,144	8,03
482,637	7,98
483,129	8,51
483,621	8,49
484,113	8,33
484,605	8,09
485,097	8,43
485,588	8,25
486,08	8,29
486,571	8,55
487,063	8,59
487,554	8,46
488,045	8,43
488,536	8,5
489,027	8,77
489,518	8,5
490,008	8,95
490,499	8,72
490,989	9,2
491,48	9,02
491,97	9,15
492,46	9,11
492,95	9,25
493,44	9,53
493,93	9,34
494,419	9,41
494,909	9,71
495,398	9,5
495,888	9,63
496,377	9,85
496,866	9,92
497,355	9,79
497,844	10,29
498,333	10,12
498,821	10,55
499,31	10,38
499,798	10,51
500,287	11
500,775	11,13
501,263	11,01
501,751	11,24
502,239	11,76
502,727	11,59
503,215	11,81
503,702	12,02
504,19	12,49
504,677	12,46
505,164	12,53
505,651	12,97
506,139	13,01
506,625	13,43
507,112	13,36
507,599	13,86
508,086	13,98
508,572	14,32
509,058	14,21
509,545	14,45
510,031	14,93
510,517	15,15
511,003	15,29
511,489	16,01
511,974	16,1
512,46	17,02
512,946	16,8
513,431	16,91
513,916	17,46
514,401	17,94
514,887	17,89
515,371	18,08
515,856	18,61
516,341	18,91
516,826	19,27
517,31	19,66
517,795	19,94
518,279	20,29
518,763	20,73
519,247	21,17
519,731	20,92
520,215	21,7
520,699	21,75
521,182	22,23
521,666	23,12
522,149	23,2
522,633	23,78
523,116	23,79
523,599	23,92
524,082	24,4
524,565	25,22
525,048	24,84
525,53	25,16
526,013	25,5
526,495	25,89
526,978	25,7
527,46	26,7
527,942	26,73
528,424	26,23
528,906	27,1
529,388	27,08
529,87	27,21
530,351	27,84
530,833	27,82
531,314	27,9
531,795	28,05
532,277	27,99
532,758	28,21
533,238	28,46
533,719	28,52
534,2	28,78
534,681	28,55
535,161	29,18
535,642	29,11
536,122	29,15
536,602	29,4
537,082	29,07
537,562	29,51
538,042	29,49
538,522	29,85
539,001	29,6
539,481	29,93
539,96	29,5
540,44	29,45
540,919	29,84
541,398	29,75
541,877	30,04
542,356	29,65
542,835	29,77
543,313	30,01
543,792	30,1
544,27	30,2
544,749	29,88
545,227	30,35
545,705	29,91
546,183	29,94
546,661	30,09
547,139	30,16
547,616	30,36
548,094	30,68
548,571	30,38
549,049	30,7
549,526	30,41
550,003	30,53
550,48	30,71
550,957	30,09
551,434	30,29
551,911	30,48
552,387	30,47
552,864	30,74
553,34	30,34
553,817	30,75
554,293	30,57
554,769	30,51
555,245	30,78
555,721	30,73
556,197	30,36
556,672	30,4
557,148	30,78
557,623	30,37
558,099	30,38
558,574	30,68
559,049	30,28
559,524	30,3
559,999	30,48
560,474	30,2
560,948	30,06
561,423	30,34
561,897	30,57
562,372	29,73
562,846	29,52
563,32	29,91
563,794	30,24
564,268	29,49
564,742	29,89
565,216	29,61
565,69	29,23
566,163	29,09
566,636	28,97
567,11	29,07
567,583	29,01
568,056	28,82
568,529	28,5
569,002	28,68
569,475	28,21
569,947	27,68
570,42	28,3
570,892	27,86
571,365	27,78
571,837	27,28
572,309	27,71
572,781	27,1
573,253	27
573,725	26,36
574,197	26,57
574,668	26,26
575,14	26,33
575,611	26,12
576,082	26,09
576,554	25,62
577,025	26,01
577,496	25,61
577,967	25,22
578,437	24,84
578,908	24,7
579,379	24,79
579,849	25,02
580,319	24,51
580,79	24,65
581,26	24,45
581,73	23,99
582,2	23,92
582,669	23,67
583,139	23,83
583,609	23,83
584,078	23,88
584,548	23,35
585,017	23,27
585,486	23,43
585,955	23,09
586,424	23,27
586,893	22,66
587,362	22,84
587,83	22,37
588,299	22,87
588,767	22,41
589,236	22,63
589,704	22,27
590,172	22,07
590,64	21,98
591,108	22,09
591,576	22,24
592,043	22,23
592,511	22
592,978	21,96
593,446	21,87
593,913	21,8
594,38	21,85
594,847	21,63
595,314	21,56
595,781	21,64
596,248	21,58
596,715	21,38
597,181	21,48
597,647	21,6
598,114	21,31
598,58	21,37
599,046	21,1
599,512	21,22
599,978	21,4
600,444	21,17
600,91	21,17
601,375	21,03
601,841	20,88
602,306	21,02
602,771	21,09
603,236	20,87
603,702	20,83
604,167	20,79
604,631	20,79
605,096	20,77
605,561	20,74
606,025	20,4
606,49	20,45
606,954	20,49
607,418	20,19
607,882	20,43
608,347	20,28
608,81	20,1
609,274	19,91
609,738	19,74
610,202	19,81
610,665	19,81
611,128	19,68
611,592	19,55
612,055	19,38
612,518	19,25
612,981	19,08
613,444	19
613,907	18,86
614,369	18,98
614,832	18,67
615,294	18,59
615,757	18,6
616,219	18,37
616,681	18,01
617,143	18,16
617,605	18,12
618,067	18,03
618,529	18,01
618,99	17,84
619,452	17,77
619,913	17,66
620,375	17,53
620,836	17,42
621,297	17,43
621,758	17,22
622,219	17,36
622,68	17,21
623,14	17,16
623,601	17,1
624,061	16,98
624,522	17,05
624,982	16,91
625,442	17,07
625,902	16,91
626,362	16,84
626,822	17
627,282	16,71
627,742	16,88
628,201	17,12
628,661	16,73
629,12	16,69
629,579	16,7
630,038	16,78
630,497	16,72
630,956	16,73
631,415	16,86
631,874	16,64
632,332	16,71
632,791	16,49
633,249	16,57
633,708	16,36
634,166	16,24
634,624	16,42
635,082	16,38
635,54	16,11
635,998	16,17
636,455	15,8
636,913	15,89
637,37	15,65
637,828	15,54
638,285	15,55
638,742	15,49
639,199	15,11
639,656	14,83
640,113	14,96
640,57	14,78
641,027	14,51
641,483	14,53
641,94	14,29
642,396	14,16
642,852	13,99
643,309	13,79
643,765	13,73
644,221	13,52
644,676	13,38
645,132	13,21
645,588	13,22
646,043	12,89
646,499	12,79
646,954	12,62
647,409	12,51
647,864	12,57
648,319	12,42
648,774	12,05
649,229	12,09
649,684	11,74
650,139	11,87
650,593	11,63
651,047	11,66
651,502	11,57
651,956	11,58
652,41	11,49
652,864	11,36
653,318	11,48
653,772	11,35
654,225	11,34
654,679	11,22
655,133	11,15
655,586	11
656,039	10,92
656,492	10,92
656,946	10,88
657,399	10,84
657,851	10,76
658,304	10,65
658,757	10,52
659,209	10,41
659,662	10,18
660,114	10,11
660,567	10,16
661,019	9,85
661,471	9,6
661,923	9,8
662,375	9,49
662,826	9,41
663,278	9,3
663,73	9,23
664,181	9,17
664,632	9,07
665,084	9,01
665,535	8,83
665,986	8,84
666,437	8,73
666,888	8,64
667,338	8,64
667,789	8,65
668,24	8,58
668,69	8,49
669,14	8,51
669,591	8,35
670,041	8,41
670,491	8,6
670,941	8,51
671,391	8,44
671,84	8,6
672,29	8,66
672,74	8,66
673,189	8,75
673,638	8,84
674,088	8,84
674,537	8,96
674,986	9,1
675,435	9,14
675,883	9,27
676,332	9,21
676,781	9,35
677,229	9,38
677,678	9,7
678,126	9,62
678,574	9,9
679,022	9,99
679,47	9,97
679,918	10,2
680,366	10,53
680,814	10,77
681,261	10,71
681,709	10,93
682,156	11,11
682,604	11,26
683,051	11,43
683,498	11,57
683,945	11,75
684,392	11,95
684,839	12,04
685,286	12,32
685,732	12,73
686,179	12,71
686,625	13,01
687,071	13,36
687,518	13,63
687,964	13,94
688,41	14,26
688,856	14,69
689,301	15,03
689,747	15,53
690,193	15,87
690,638	16,38
691,084	16,85
691,529	17,3
691,974	17,74
692,419	18,26
692,864	18,67
693,309	19,31
693,754	19,87
694,199	20,41
694,643	20,83
695,088	21,42
695,532	22
695,977	22,42
696,421	23,35
696,865	23,67
697,309	24,22
697,753	24,7
698,197	25,23
698,64	25,91
699,084	26,43
699,527	26,75
699,971	27,24
700,414	27,76
700,857	28,2
701,3	28,66
701,743	28,98
702,186	29,49
702,629	30,04
703,072	30,23
703,515	30,66
703,957	31,35
704,399	31,56
704,842	31,7
705,284	31,93
705,726	32,37
706,168	32,74
706,61	33,07
707,052	33,49
707,494	33,88
707,935	34
708,377	34,2
708,818	34,6
709,26	35,11
709,701	35,22
710,142	35,37
710,583	35,49
711,024	35,58
711,465	36,1
711,905	36,33
712,346	36,72
712,787	36,84
713,227	37,16
713,667	37,35
714,108	37,42
714,548	37,98
714,988	38,13
715,428	38,42
715,868	38,31
716,307	38,88
716,747	38,99
717,186	39,07
717,626	39,22
718,065	39,26
718,504	39,62
718,944	40,19
719,383	39,73
719,822	40,02
720,261	40,07
720,699	40,26
721,138	40,51
721,576	40,7
722,015	40,71
722,453	41,2
722,892	41,14
723,33	41,1
723,768	41,45
724,206	41,5
724,644	41,58
725,081	41,86
725,519	41,79
725,957	41,83
726,394	41,81
726,832	41,94
727,269	42,06
727,706	42,44
728,143	42,3
728,58	42,43
729,017	42,61
729,454	42,3
729,89	42,45
730,327	42,13
730,764	42,55
731,2	42,96
731,636	42,58
732,072	42,95
732,509	42,97
732,945	42,84
733,38	42,98
733,816	42,95
734,252	42,8
734,688	43,12
735,123	43,2
735,559	43
735,994	43,13
736,429	43,28
736,864	43,25
737,299	43,09
737,734	43,27
738,169	43,33
738,604	43,15
739,038	43,21
739,473	43,08
739,907	42,99
740,342	43,24
740,776	43,27
741,21	43,22
741,644	43,1
742,078	43,23
742,512	43,24
742,946	43,05
743,379	42,93
743,813	43,06
744,246	43,26
744,68	43,43
745,113	42,87
745,546	43,08
745,979	43,16
746,412	43,1
746,845	42,88
747,278	42,9
747,711	42,96
748,143	42,86
748,576	42,72
749,008	42,65
749,441	42,67
749,873	42,5
750,305	42,43
750,737	42,68
751,169	42,66
751,601	42,65
752,032	42,7
752,464	42,35
752,896	42,38
753,327	42,11
753,758	42,47
754,19	42,48
754,621	42,25
755,052	42,3
755,483	42,17
755,914	42,27
756,344	42,04
756,775	42,07
757,206	41,87
757,636	42,49
758,066	42,15
758,497	41,96
758,927	41,65
759,357	41,82
759,787	41,8
760,217	42,07
760,647	41,55
761,076	41,98
761,506	41,56
761,935	41,8
762,365	41,63
762,794	41,65
763,223	41,52
763,653	41,37
764,082	41,3
764,51	41,6
764,939	41,43
765,368	41,3
765,797	41,21
766,225	41,19
766,654	41,22
767,082	41,27
767,51	41,1
767,938	41,3
768,367	41,36
768,795	41,19
769,222	41,24
769,65	41,41
770,078	41,26
770,505	41,32
770,933	41,17
771,36	40,93
771,788	41,17
772,215	41,33
772,642	40,84
773,069	40,75
773,496	40,94
773,923	41,18
774,349	40,8
774,776	41,13
775,203	40,86
775,629	40,9
776,055	40,65
776,482	40,56
776,908	40,75
777,334	40,84
777,76	40,75
778,186	40,79
778,611	40,98
779,037	40,53
779,463	40,6
779,888	40,42
780,314	40,73
780,739	40,57
781,164	40,5
781,589	40,6
782,014	40,74
782,439	40,59
782,864	40,73
783,289	40,49
783,713	40,77
784,138	40,56
784,562	40,62
784,987	40,46
785,411	40,56
785,835	40,54
786,259	40,58
786,683	40,38
787,107	40,32
787,531	40,52
787,954	40,34
788,378	40,56
788,802	40,32
789,225	40,53
789,648	40,49
790,071	40,46
790,495	40,26
790,918	40,3
791,34	40,42
791,763	40,04
792,186	40,3
792,609	40,14
793,031	39,95
793,454	40,3
793,876	40,52
794,298	40,24
794,721	40,75
795,143	40,08
795,565	40,32
795,986	39,94
796,408	40,34
796,83	40,21
797,252	40,42
797,673	40,36
798,094	40,12
798,516	40,17
798,937	40,16
799,358	40,35
799,779	40,19
800,2	40,04
800,621	40,18
801,042	39,91
801,462	40,02
801,883	40,04
802,303	40,08
802,724	40,31
803,144	40,26
803,564	40,29
803,984	40,21
804,404	40,1
804,824	40,16
805,244	40,01
805,664	39,88
806,084	40,3
806,503	40,06
806,923	40,1
807,342	40,27
807,761	39,89
808,18	40,29
808,599	39,97
809,018	39,87
809,437	39,92
809,856	40,12
810,275	39,89
810,693	40,03
811,112	40
811,53	39,81
811,949	40,42
812,367	39,66
812,785	39,84
813,203	40,12
813,621	39,92
814,039	39,83
814,457	39,84
814,874	40,13
815,292	39,94
815,709	39,83
816,127	39,97
816,544	39,8
816,961	40,2
817,378	39,76
817,795	39,64
818,212	39,94
818,629	40,18
819,046	39,75
819,462	40,16
819,879	39,89
820,295	39,78
820,712	39,86
821,128	39,89
821,544	39,81
821,96	40,07
822,376	40,01
822,792	39,75
823,208	39,77
823,624	39,99
824,039	39,78
824,455	39,85
824,87	39,75
825,286	39,85
825,701	39,6
826,116	39,92
826,531	39,89
826,946	39,83
827,361	39,92
827,776	39,84
828,19	39,86
828,605	39,88
829,02	39,75
829,434	39,81
829,848	39,58
830,263	39,6
830,677	39,7
831,091	39,65
831,505	39,74
831,919	39,82
832,332	39,83
832,746	39,66
833,16	39,62
833,573	39,85
833,987	40,06
834,4	39,76
834,813	40,04
835,226	39,72
835,639	39,96
836,052	39,53
836,465	39,53
836,878	39,65
837,29	39,73
837,703	39,5
838,116	39,71
838,528	39,53
838,94	39,48
839,352	39,82
839,765	39,6
840,177	39,43
