Data from H_1_0_Relative__1__00168.txt Node

Date: Mon Jan 29 13:07:40 CET 2024
User: diatiterra
Spectrometer: HDX00911
Trigger mode: 0
Integration Time (sec): 6,000000E-3
Scans to average: 2
Nonlinearity correction enabled: false
Boxcar width: 0
Storing dark spectrum: false
XAxis mode: Wavelengths
Number of Pixels in Spectrum: 2068
>>>>>Begin Spectral Data<<<<<
194,468	30,49
195,025	30,15
195,581	11,05
196,138	15,79
196,694	23,48
197,251	35,54
197,807	36,1
198,363	26,13
198,919	27,62
199,474	27,56
200,03	18,32
200,586	21,21
201,141	28,21
201,696	30,54
202,251	26,88
202,806	25,87
203,361	24,89
203,916	22,39
204,471	27,89
205,025	29,03
205,58	27,96
206,134	25,26
206,688	27,55
207,242	21,44
207,796	20,41
208,35	29,16
208,904	30,2
209,457	24,73
210,011	34,04
210,564	24,74
211,117	28,05
211,67	27,16
212,223	30,84
212,776	33,67
213,329	29,9
213,881	31,21
214,434	24,08
214,986	27,21
215,538	24,12
216,09	27,09
216,642	21,84
217,194	36,67
217,746	28,18
218,297	30,47
218,849	33,91
219,4	32,15
219,951	24,44
220,502	24,84
221,053	27,1
221,604	28,12
222,155	30,8
222,705	25,68
223,256	36,23
223,806	32,91
224,356	30,56
224,906	33,54
225,456	34,74
226,006	28,86
226,556	22,13
227,106	29,91
227,655	33,48
228,204	16,15
228,754	34,29
229,303	35,38
229,852	36,72
230,401	25,68
230,949	27,47
231,498	24,67
232,047	31,91
232,595	26,99
233,143	31,28
233,691	30,33
234,239	33,93
234,787	37,05
235,335	29,03
235,883	28,54
236,43	24,38
236,978	27,08
237,525	28,79
238,072	36,17
238,619	30,37
239,166	35,54
239,713	24,22
240,26	36,31
240,806	47,4
241,353	26,9
241,899	34,8
242,445	31,13
242,991	27,98
243,537	34,89
244,083	28,63
244,629	36,23
245,174	32,75
245,72	33,78
246,265	32,87
246,81	39,05
247,355	35,76
247,9	31,95
248,445	23,24
248,99	28,34
249,534	17,23
250,079	34,67
250,623	24,64
251,168	28,41
251,712	32,26
252,256	34,62
252,8	32,24
253,343	30,57
253,887	37,02
254,43	27,25
254,974	27,06
255,517	30,7
256,06	36,42
256,603	25,91
257,146	29,7
257,689	39,61
258,232	36,28
258,774	40,35
259,317	25,73
259,859	35,08
260,401	31,6
260,943	31,33
261,485	33,78
262,027	28,45
262,569	27,5
263,11	38,68
263,652	30,12
264,193	32,1
264,734	31,65
265,275	33,57
265,816	26,59
266,357	31,29
266,898	32,65
267,438	32,11
267,979	28,32
268,519	42,23
269,059	31,78
269,6	32,73
270,14	27,03
270,68	30,08
271,219	29,54
271,759	33,93
272,298	26,28
272,838	31,19
273,377	28,19
273,916	25,28
274,455	25,61
274,994	29,96
275,533	34,64
276,072	26,82
276,61	32,6
277,149	32,04
277,687	35,7
278,225	35,52
278,763	30,77
279,301	30
279,839	27,31
280,377	26,3
280,914	33,41
281,452	29,13
281,989	19,34
282,526	27,68
283,064	29,64
283,601	24,13
284,137	28,1
284,674	27,91
285,211	30,07
285,747	24,34
286,284	30,82
286,82	29,38
287,356	28,92
287,892	32,2
288,428	29,61
288,964	37,65
289,5	26,52
290,035	35,76
290,571	28,05
291,106	21,53
291,641	20,91
292,176	25,92
292,711	31,8
293,246	34,4
293,781	26,19
294,315	26,68
294,85	26,77
295,384	31,46
295,918	24,44
296,453	38,21
296,987	30,57
297,52	29,17
298,054	27,07
298,588	33,7
299,121	33,26
299,655	29,19
300,188	18,68
300,721	32,33
301,254	23,52
301,787	30,75
302,32	27,65
302,853	23,57
303,385	37,44
303,918	29,84
304,45	22,81
304,982	22,44
305,514	31,25
306,046	25,38
306,578	28,38
307,11	26,81
307,641	20,09
308,173	31,82
308,704	27,68
309,236	24,82
309,767	25,18
310,298	31,49
310,829	26,76
311,359	25,47
311,89	24,6
312,421	23,54
312,951	27,44
313,481	25,81
314,012	26,85
314,542	27,29
315,072	17,84
315,601	22,52
316,131	27,46
316,661	28,26
317,19	22,85
317,72	28,1
318,249	24,38
318,778	16,67
319,307	20,24
319,836	32,56
320,365	27,19
320,893	22,22
321,422	22,81
321,95	22,89
322,479	32,51
323,007	21,26
323,535	28,14
324,063	27,42
324,591	26
325,118	22,86
325,646	20,75
326,173	22,6
326,701	27,38
327,228	22,73
327,755	24,64
328,282	22,46
328,809	25,39
329,336	30,25
329,862	21,14
330,389	25,06
330,915	19,09
331,441	34,97
331,968	26,27
332,494	25
333,02	26,88
333,545	28,77
334,071	18,53
334,597	29,81
335,122	27,62
335,648	33,25
336,173	23,64
336,698	20,18
337,223	26,46
337,748	26,89
338,272	21,97
338,797	22,56
339,322	24,66
339,846	24,47
340,37	24,81
340,894	17,15
341,419	21,22
341,942	15,82
342,466	20,88
342,99	30,29
343,514	25,58
344,037	15,2
344,56	16,4
345,084	20,83
345,607	24,55
346,13	17,56
346,653	27,46
347,175	17,98
347,698	20,24
348,221	18,81
348,743	16,73
349,265	25,22
349,787	19,22
350,309	16,92
350,831	21,9
351,353	21,51
351,875	24,16
352,397	22
352,918	21,16
353,439	18,36
353,961	24,37
354,482	14,48
355,003	11,78
355,524	18,75
356,044	17,52
356,565	16,41
357,086	17,84
357,606	15,83
358,126	23,29
358,646	15,11
359,167	19,62
359,687	18,55
360,206	16,25
360,726	20,58
361,246	16,32
361,765	14,2
362,285	14,87
362,804	15,97
363,323	20,08
363,842	21,36
364,361	19,52
364,88	18,03
365,398	14,08
365,917	18,77
366,435	16,32
366,954	18,2
367,472	19,13
367,99	13,62
368,508	15,76
369,026	15,91
369,544	13,17
370,061	17,04
370,579	18,35
371,096	16,42
371,613	16,15
372,131	14,89
372,648	14,53
373,165	14,93
373,681	13,08
374,198	15,38
374,715	13,28
375,231	14,97
375,747	9,42
376,264	13,8
376,78	14,23
377,296	16,3
377,812	13,54
378,327	15,94
378,843	15,54
379,359	14,83
379,874	12,56
380,389	12,48
380,905	16,09
381,42	15,97
381,935	11,55
382,449	12,25
382,964	12,11
383,479	14,61
383,993	12,26
384,508	13,28
385,022	9,99
385,536	9,12
386,05	12,33
386,564	8,54
387,078	9,81
387,592	12,44
388,105	12,38
388,619	10,6
389,132	11,74
389,645	11,49
390,158	12,4
390,671	12,33
391,184	13,19
391,697	10,71
392,21	11,27
392,722	8,03
393,235	8,7
393,747	10,23
394,259	10,7
394,771	9,72
395,283	9,25
395,795	9,67
396,307	11,21
396,818	9,37
397,33	11,15
397,841	9,7
398,353	7,92
398,864	8,27
399,375	10,1
399,886	7,66
400,397	7,63
400,907	6,86
401,418	8,74
401,928	7,01
402,439	7,68
402,949	8,52
403,459	6,13
403,969	6,75
404,479	6,75
404,989	5,98
405,498	5,91
406,008	5,32
406,517	6,8
407,027	5,68
407,536	5,98
408,045	5,04
408,554	5,45
409,063	4,95
409,572	5,05
410,08	5,3
410,589	4,29
411,097	5,23
411,606	4,92
412,114	4,03
412,622	4,74
413,13	4,69
413,638	3,87
414,145	3,88
414,653	3,69
415,16	3,58
415,668	3,54
416,175	3,33
416,682	3,35
417,189	3,17
417,696	3,72
418,203	3,17
418,71	3,14
419,216	2,82
419,723	3,63
420,229	3,42
420,735	2,88
421,242	2,86
421,748	2,86
422,254	3,23
422,759	2,7
423,265	2,49
423,771	3
424,276	2,68
424,781	3,09
425,287	2,67
425,792	2,57
426,297	2,74
426,802	2,8
427,306	2,9
427,811	2,6
428,316	2,86
428,82	2,61
429,324	2,63
429,829	2,56
430,333	2,38
430,837	2,48
431,34	2,62
431,844	2,42
432,348	2,44
432,851	2,37
433,355	2,65
433,858	2,65
434,361	2,78
434,864	2,41
435,367	2,08
435,87	2,46
436,373	2,25
436,876	2,85
437,378	2,58
437,88	2,11
438,383	2,7
438,885	2,44
439,387	2,24
439,889	2,6
440,391	2,36
440,892	2,44
441,394	2,31
441,896	2,34
442,397	2,35
442,898	2,52
443,399	2,44
443,9	2,54
444,401	2,5
444,902	2,59
445,403	2,44
445,903	2,51
446,404	2,56
446,904	2,44
447,405	2,55
447,905	2,26
448,405	2,51
448,905	2,47
449,404	2,54
449,904	2,17
450,404	2,45
450,903	2,06
451,403	2,6
451,902	2,54
452,401	2,63
452,9	2,35
453,399	2,72
453,898	2,35
454,396	2,62
454,895	2,66
455,393	2,59
455,892	2,66
456,39	2,57
456,888	2,6
457,386	2,34
457,884	2,69
458,382	2,59
458,879	2,3
459,377	2,77
459,874	2,5
460,372	2,55
460,869	2,75
461,366	2,58
461,863	2,64
462,36	2,71
462,857	2,83
463,353	2,52
463,85	2,32
464,346	2,51
464,843	2,63
465,339	2,72
465,835	2,65
466,331	2,41
466,827	2,55
467,323	2,69
467,818	2,67
468,314	2,53
468,809	2,64
469,305	2,66
469,8	2,75
470,295	2,47
470,79	2,63
471,285	2,46
471,78	2,54
472,274	2,71
472,769	2,63
473,263	2,73
473,758	2,7
474,252	2,63
474,746	2,53
475,24	2,76
475,734	2,57
476,228	2,61
476,721	2,71
477,215	2,93
477,708	2,79
478,202	2,77
478,695	2,85
479,188	2,86
479,681	2,5
480,174	2,86
480,667	2,71
481,159	2,69
481,652	2,61
482,144	2,86
482,637	2,74
483,129	2,61
483,621	2,92
484,113	2,66
484,605	2,86
485,097	2,72
485,588	2,95
486,08	2,67
486,571	2,77
487,063	2,99
487,554	3,04
488,045	2,92
488,536	2,87
489,027	3,1
489,518	3,05
490,008	2,96
490,499	3,08
490,989	3,08
491,48	3,24
491,97	3,13
492,46	3,15
492,95	3,24
493,44	3,21
493,93	3,03
494,419	3,29
494,909	3,46
495,398	3,42
495,888	3,35
496,377	3,48
496,866	3,37
497,355	3,68
497,844	3,72
498,333	3,76
498,821	3,88
499,31	3,95
499,798	4,14
500,287	4,18
500,775	4,28
501,263	4,52
501,751	4,47
502,239	4,54
502,727	4,56
503,215	4,55
503,702	4,84
504,19	4,96
504,677	5,15
505,164	5,27
505,651	5,33
506,139	5,31
506,625	5,64
507,112	5,77
507,599	6,11
508,086	6,33
508,572	6,38
509,058	6,49
509,545	6,55
510,031	6,96
510,517	6,96
511,003	7,08
511,489	7,75
511,974	7,53
512,46	7,8
512,946	8,28
513,431	8,13
513,916	8,34
514,401	8,68
514,887	8,66
515,371	9,08
515,856	9,4
516,341	9,64
516,826	9,99
517,31	9,99
517,795	10,5
518,279	10,83
518,763	10,81
519,247	11,21
519,731	11,43
520,215	11,6
520,699	11,88
521,182	12,02
521,666	12,48
522,149	12,69
522,633	13,02
523,116	13,15
523,599	13,48
524,082	13,49
524,565	13,82
525,048	14,04
525,53	14,28
526,013	14,35
526,495	14,92
526,978	14,94
527,46	15,31
527,942	15,17
528,424	15,51
528,906	15,69
529,388	15,87
529,87	15,91
530,351	16,43
530,833	16,24
531,314	16,7
531,795	16,39
532,277	16,63
532,758	16,94
533,238	16,8
533,719	16,89
534,2	17,09
534,681	17,33
535,161	17,3
535,642	17,6
536,122	17,01
536,602	17,81
537,082	17,81
537,562	17,56
538,042	17,31
538,522	17,83
539,001	17,83
539,481	17,77
539,96	18,12
540,44	17,53
540,919	17,92
541,398	18,11
541,877	18
542,356	18,25
542,835	18,33
543,313	18,44
543,792	18,33
544,27	18,24
544,749	18,01
545,227	18,44
545,705	18,14
546,183	18,4
546,661	17,97
547,139	18,63
547,616	18,43
548,094	18,64
548,571	18,69
549,049	18,75
549,526	18,76
550,003	18,56
550,48	18,62
550,957	18,63
551,434	18,86
551,911	18,32
552,387	18,6
552,864	18,43
553,34	18,73
553,817	18,63
554,293	18,83
554,769	18,81
555,245	18,67
555,721	18,66
556,197	18,49
556,672	18,72
557,148	18,57
557,623	18,66
558,099	18,46
558,574	18,38
559,049	18,6
559,524	18,51
559,999	17,95
560,474	18,23
560,948	18,28
561,423	18,4
561,897	18,39
562,372	17,98
562,846	17,9
563,32	17,94
563,794	17,8
564,268	17,71
564,742	17,57
565,216	17,74
565,69	17,53
566,163	17,62
566,636	17,16
567,11	16,89
567,583	16,99
568,056	16,85
568,529	17,02
569,002	16,84
569,475	16,89
569,947	16,41
570,42	16,24
570,892	16,17
571,365	16,23
571,837	16,23
572,309	15,96
572,781	15,56
573,253	15,67
573,725	15,42
574,197	15,16
574,668	14,9
575,14	15,32
575,611	14,75
576,082	14,71
576,554	14,5
577,025	14,47
577,496	14,03
577,967	14,15
578,437	14,21
578,908	14,02
579,379	14,03
579,849	13,72
580,319	13,67
580,79	13,63
581,26	13,4
581,73	13,52
582,2	13,39
582,669	13,21
583,139	13,38
583,609	12,96
584,078	12,92
584,548	13,04
585,017	12,84
585,486	12,72
585,955	12,7
586,424	12,84
586,893	12,55
587,362	12,38
587,83	12,43
588,299	12,48
588,767	12,08
589,236	12,09
589,704	12,12
590,172	12,08
590,64	12,02
591,108	11,86
591,576	12,1
592,043	11,87
592,511	11,91
592,978	11,96
593,446	11,83
593,913	11,78
594,38	11,61
594,847	11,57
595,314	11,6
595,781	11,5
596,248	11,58
596,715	11,73
597,181	11,53
597,647	11,42
598,114	11,56
598,58	11,36
599,046	11,2
599,512	11,35
599,978	11,2
600,444	11,18
600,91	11,34
601,375	11,13
601,841	11,08
602,306	11,09
602,771	11,16
603,236	11,19
603,702	10,78
604,167	11,05
604,631	11,15
605,096	10,87
605,561	10,73
606,025	10,72
606,49	10,67
606,954	10,72
607,418	10,56
607,882	10,45
608,347	10,45
608,81	10,49
609,274	10,35
609,738	10,18
610,202	10,32
610,665	10,16
611,128	10,03
611,592	9,98
612,055	9,86
612,518	9,89
612,981	9,63
613,444	9,67
613,907	9,62
614,369	9,5
614,832	9,47
615,294	9,33
615,757	9,32
616,219	9,15
616,681	9,31
617,143	9,03
617,605	9,11
618,067	8,93
618,529	9,02
618,99	8,9
619,452	8,72
619,913	8,58
620,375	8,59
620,836	8,64
621,297	8,67
621,758	8,55
622,219	8,55
622,68	8,39
623,14	8,35
623,601	8,34
624,061	8,35
624,522	8,32
624,982	8,27
625,442	8,41
625,902	8,16
626,362	7,94
626,822	8,13
627,282	8,14
627,742	8,32
628,201	8,09
628,661	8,11
629,12	8,01
629,579	8,06
630,038	7,94
630,497	8,15
630,956	8,26
631,415	8,15
631,874	7,97
632,332	8,03
632,791	7,93
633,249	7,84
633,708	8,01
634,166	7,92
634,624	7,77
635,082	7,78
635,54	7,69
635,998	7,6
636,455	7,59
636,913	7,63
637,37	7,44
637,828	7,43
638,285	7,33
638,742	7,29
639,199	7,21
639,656	6,93
640,113	6,99
640,57	6,76
641,027	6,95
641,483	6,64
641,94	6,67
642,396	6,57
642,852	6,5
643,309	6,22
643,765	6,29
644,221	6,07
644,676	5,95
645,132	6,03
645,588	5,75
646,043	5,81
646,499	5,67
646,954	5,55
647,409	5,5
647,864	5,48
648,319	5,34
648,774	5,2
649,229	5,13
649,684	5,14
650,139	5,08
650,593	5,12
651,047	4,97
651,502	5,03
651,956	4,81
652,41	4,88
652,864	4,79
653,318	4,78
653,772	4,78
654,225	4,71
654,679	4,63
655,133	4,63
655,586	4,6
656,039	4,61
656,492	4,55
656,946	4,45
657,399	4,53
657,851	4,35
658,304	4,33
658,757	4,31
659,209	4,2
659,662	4,06
660,114	4,07
660,567	4,01
661,019	3,94
661,471	3,84
661,923	3,88
662,375	3,82
662,826	3,71
663,278	3,76
663,73	3,63
664,181	3,56
664,632	3,58
665,084	3,54
665,535	3,37
665,986	3,47
666,437	3,41
666,888	3,4
667,338	3,51
667,789	3,37
668,24	3,37
668,69	3,39
669,14	3,48
669,591	3,44
670,041	3,44
670,491	3,48
670,941	3,44
671,391	3,52
671,84	3,67
672,29	3,57
672,74	3,57
673,189	3,74
673,638	3,71
674,088	3,78
674,537	3,87
674,986	4,01
675,435	4,01
675,883	4,11
676,332	4,21
676,781	4,27
677,229	4,38
677,678	4,38
678,126	4,58
678,574	4,72
679,022	4,7
679,47	4,86
679,918	5,03
680,366	5,01
680,814	5,18
681,261	5,2
681,709	5,37
682,156	5,51
682,604	5,56
683,051	5,69
683,498	5,72
683,945	5,83
684,392	5,98
684,839	6,05
685,286	6,26
685,732	6,35
686,179	6,48
686,625	6,77
687,071	6,77
687,518	6,87
687,964	7,13
688,41	7,29
688,856	7,52
689,301	7,73
689,747	7,96
690,193	8,23
690,638	8,48
691,084	8,82
691,529	9,13
691,974	9,46
692,419	9,88
692,864	10,23
693,309	10,57
693,754	10,98
694,199	11,38
694,643	11,76
695,088	12,2
695,532	12,7
695,977	13,09
696,421	13,51
696,865	13,94
697,309	14,2
697,753	14,86
698,197	15,18
698,64	15,83
699,084	16,16
699,527	16,6
699,971	16,97
700,414	17,42
700,857	17,82
701,3	18,02
701,743	18,45
702,186	18,87
702,629	19,23
703,072	19,62
703,515	20,08
703,957	20,4
704,399	20,59
704,842	21
705,284	21,34
705,726	21,65
706,168	22,02
706,61	22,34
707,052	22,69
707,494	22,99
707,935	23,17
708,377	23,45
708,818	23,7
709,26	23,96
709,701	23,93
710,142	24,46
710,583	24,57
711,024	24,9
711,465	25,1
711,905	25,62
712,346	25,67
712,787	25,92
713,227	26,17
713,667	26,37
714,108	26,67
714,548	27,08
714,988	27,03
715,428	27,13
715,868	27,44
716,307	27,66
716,747	27,74
717,186	27,93
717,626	28,22
718,065	28,28
718,504	28,49
718,944	28,79
719,383	28,89
719,822	29,12
720,261	29,17
720,699	29,28
721,138	29,59
721,576	29,65
722,015	29,81
722,453	29,79
722,892	29,87
723,33	30,22
723,768	30,06
724,206	30,46
724,644	30,6
725,081	30,55
725,519	30,64
725,957	30,73
726,394	31,06
726,832	31,07
727,269	30,85
727,706	31,37
728,143	31,29
728,58	31,25
729,017	31,63
729,454	31,55
729,89	31,61
730,327	31,68
730,764	31,57
731,2	31,74
731,636	31,91
732,072	32,04
732,509	31,85
732,945	31,93
733,38	31,87
733,816	32,18
734,252	32,27
734,688	32
735,123	32,14
735,559	32,19
735,994	32,23
736,429	32,47
736,864	32,38
737,299	32,25
737,734	32,12
738,169	32,6
738,604	32,54
739,038	32,48
739,473	32,61
739,907	32,31
740,342	32,65
740,776	32,55
741,21	32,44
741,644	32,26
742,078	32,27
742,512	32,27
742,946	32,4
743,379	32,11
743,813	32,46
744,246	32,43
744,68	32,48
745,113	32,41
745,546	32,41
745,979	32,4
746,412	32,49
746,845	32,36
747,278	32,4
747,711	32,34
748,143	32,14
748,576	32,22
749,008	32,28
749,441	32,28
749,873	32,25
750,305	32,27
750,737	32,15
751,169	32,01
751,601	32,16
752,032	32,11
752,464	31,97
752,896	32,11
753,327	31,99
753,758	32,16
754,19	31,79
754,621	31,8
755,052	32,13
755,483	31,78
755,914	31,71
756,344	31,68
756,775	31,64
757,206	31,47
757,636	31,85
758,066	31,94
758,497	31,62
758,927	31,59
759,357	31,84
759,787	31,42
760,217	31,81
760,647	31,5
761,076	31,4
761,506	31,47
761,935	31,44
762,365	31,66
762,794	31,59
763,223	31,45
763,653	31,43
764,082	31,34
764,51	31,3
764,939	31,47
765,368	31,13
765,797	31,18
766,225	31,37
766,654	31,41
767,082	31,12
767,51	31,1
767,938	31,16
768,367	30,99
768,795	31,28
769,222	30,95
769,65	31,1
770,078	31,2
770,505	30,85
770,933	31,11
771,36	30,9
771,788	31,07
772,215	30,86
772,642	31,16
773,069	31,06
773,496	31,03
773,923	30,93
774,349	30,89
774,776	30,86
775,203	31,06
775,629	30,7
776,055	30,92
776,482	30,73
776,908	30,7
777,334	30,79
777,76	30,65
778,186	30,78
778,611	30,7
779,037	30,63
779,463	30,6
779,888	30,73
780,314	30,46
780,739	30,6
781,164	30,54
781,589	30,67
782,014	30,76
782,439	30,67
782,864	30,65
783,289	30,64
783,713	30,87
784,138	30,5
784,562	30,66
784,987	30,58
785,411	30,57
785,835	30,5
786,259	30,37
786,683	30,54
787,107	30,53
787,531	30,61
787,954	30,62
788,378	30,79
788,802	30,28
789,225	30,4
789,648	30,59
790,071	30,43
790,495	30,57
790,918	30,5
791,34	30,47
791,763	30,46
792,186	30,46
792,609	30,23
793,031	30,36
793,454	30,46
793,876	30,28
794,298	30,43
794,721	30,22
795,143	30,29
795,565	30,32
795,986	30,31
796,408	30,37
796,83	30,3
797,252	30,28
797,673	30,29
798,094	30,34
798,516	30,23
798,937	30,14
799,358	30,29
799,779	30,52
800,2	30,29
800,621	30,12
801,042	30,49
801,462	30,24
801,883	30,15
802,303	30,39
802,724	30,07
803,144	30,37
803,564	30,04
803,984	30,32
804,404	30,32
804,824	30,4
805,244	30,41
805,664	30,19
806,084	30,23
806,503	30,28
806,923	30,29
807,342	30,29
807,761	30,07
808,18	30,41
808,599	30,08
809,018	30,12
809,437	30,42
809,856	30,33
810,275	30,05
810,693	30,28
811,112	30,24
811,53	30,12
811,949	30,23
812,367	30,08
812,785	30,16
813,203	30,16
813,621	30,03
814,039	29,93
814,457	30,34
814,874	30,27
815,292	30,16
815,709	30,33
816,127	30,15
816,544	30,21
816,961	30,1
817,378	30,07
817,795	30,03
818,212	30,07
818,629	30,31
819,046	29,95
819,462	30,12
819,879	30,06
820,295	29,84
820,712	30,17
821,128	30,22
821,544	29,89
821,96	30,16
822,376	30,29
822,792	30,11
823,208	29,75
823,624	30,13
824,039	30,13
824,455	29,99
824,87	30,23
825,286	29,97
825,701	29,88
826,116	30,08
826,531	30,18
826,946	29,82
827,361	30,26
827,776	30,01
828,19	30,1
828,605	30
829,02	30,04
829,434	29,94
829,848	30,04
830,263	29,85
830,677	30,23
831,091	30,11
831,505	30,08
831,919	30,23
832,332	30,01
832,746	29,84
833,16	29,84
833,573	30,11
833,987	29,99
834,4	29,64
834,813	29,93
835,226	30
835,639	29,83
836,052	30,08
836,465	30,03
836,878	30,01
837,29	30,07
837,703	29,87
838,116	29,85
838,528	29,75
838,94	29,91
839,352	29,69
839,765	30,06
840,177	30,09
840,589	29,73
841	29,91
841,412	30,01
841,824	29,71
842,235	30,03
842,647	29,86
843,058	29,99
843,47	29,9
843,881	29,81
844,292	29,78
844,703	29,83
845,114	29,87
845,525	30,12
