Data from I_4_0_Relative__5__00188.txt Node

Date: Mon Jan 29 13:09:21 CET 2024
User: diatiterra
Spectrometer: HDX00911
Trigger mode: 0
Integration Time (sec): 6,000000E-3
Scans to average: 2
Nonlinearity correction enabled: false
Boxcar width: 0
Storing dark spectrum: false
XAxis mode: Wavelengths
Number of Pixels in Spectrum: 2068
>>>>>Begin Spectral Data<<<<<
194,468	28,05
195,025	30,15
195,581	18,02
196,138	25,15
196,694	36,89
197,251	33,95
197,807	28,98
198,363	33,05
198,919	30,62
199,474	27,56
200,03	15,23
200,586	28,69
201,141	29,49
201,696	35,27
202,251	31,36
202,806	20,94
203,361	33,33
203,916	28,36
204,471	26,98
205,025	37,2
205,58	33,33
206,134	26,49
206,688	28,85
207,242	23,99
207,796	27,35
208,35	26,42
208,904	24,49
209,457	35,05
210,011	34,04
210,564	26,82
211,117	26,11
211,67	32,8
212,223	32,12
212,776	30,04
213,329	37,58
213,881	27,93
214,434	23,31
214,986	29,93
215,538	36,5
216,09	29,35
216,642	26,98
217,194	28,33
217,746	33,69
218,297	29,18
218,849	30,04
219,4	25,89
219,951	33,78
220,502	33,4
221,053	27,1
221,604	39,79
222,155	26,21
222,705	29,85
223,256	28,85
223,806	26,62
224,356	27,14
224,906	34,38
225,456	34,74
226,006	32,95
226,556	29,23
227,106	36,61
227,655	31,34
228,204	25
228,754	37,58
229,303	35,38
229,852	36,29
230,401	36,94
230,949	32,75
231,498	28,67
232,047	28,91
232,595	29,92
233,143	35,68
233,691	30,33
234,239	28,12
234,787	29,77
235,335	29,89
235,883	27,27
236,43	28,1
236,978	21,06
237,525	26,12
238,072	27,89
238,619	36,45
239,166	27,59
239,713	32,51
240,26	32,99
240,806	32,25
241,353	25,98
241,899	38,77
242,445	28,66
242,991	28,85
243,537	33,02
244,083	31,95
244,629	31,57
245,174	34,93
245,72	32,44
246,265	28,67
246,81	33,18
247,355	30,59
247,9	28,45
248,445	27,93
248,99	27,93
249,534	28,57
250,079	27,11
250,623	29,95
251,168	32,44
251,712	32,26
252,256	32,9
252,8	40,09
253,343	29,15
253,887	32,77
254,43	32,83
254,974	19,06
255,517	31,13
256,06	33,33
256,603	30,45
257,146	28,31
257,689	35,71
258,232	34,92
258,774	26,98
259,317	27,99
259,859	29,61
260,401	33,33
260,943	31,33
261,485	26,67
262,027	28,01
262,569	28
263,11	35,26
263,652	28,71
264,193	29,07
264,734	27,06
265,275	35,45
265,816	29,67
266,357	31,75
266,898	28,08
267,438	32,11
267,979	34,07
268,519	36,11
269,059	31,78
269,6	25,96
270,14	27,93
270,68	36,44
271,219	28,27
271,759	32,13
272,298	35,19
272,838	32,11
273,377	24,07
273,916	33,78
274,455	21,6
274,994	25,11
275,533	29,56
276,072	23,39
276,61	33,92
277,149	25,24
277,687	26,54
278,225	25,57
278,763	27,6
279,301	30
279,839	23,44
280,377	21,09
280,914	32,02
281,452	29,59
281,989	25,05
282,526	30,26
283,064	31,65
283,601	21,81
284,137	25,71
284,674	28,88
285,211	29,63
285,747	26,25
286,284	24,89
286,82	29,38
287,356	31,57
287,892	27,21
288,428	30,04
288,964	34,35
289,5	25,17
290,035	26,05
290,571	23,17
291,106	23,51
291,641	34,55
292,176	37,16
292,711	33,55
293,246	26,61
293,781	31,6
294,315	17,71
294,85	30,75
295,384	21,12
295,918	25,33
296,453	19,34
296,987	19,67
297,52	23,9
298,054	21,25
298,588	36,74
299,121	28,82
299,655	19,68
300,188	24,6
300,721	34,19
301,254	25,34
301,787	25,91
302,32	25,81
302,853	30,18
303,385	29,52
303,918	22,27
304,45	23,68
304,982	29,56
305,514	23,38
306,046	24,07
306,578	29,75
307,11	35,2
307,641	31,25
308,173	29,55
308,704	32,59
309,236	23,36
309,767	30,82
310,298	29,71
310,829	34,74
311,359	30,14
311,89	24,15
312,421	26,23
312,951	33,49
313,481	24,88
314,012	22,82
314,542	25,88
315,072	18,84
315,601	29,73
316,131	29,75
316,661	20,53
317,19	23,3
317,72	30,48
318,249	22,12
318,778	22,06
319,307	24
319,836	31,64
320,365	19,35
320,893	31,01
321,422	22,81
321,95	19,33
322,479	31,6
323,007	21,26
323,535	31,86
324,063	23,64
324,591	28,37
325,118	25,93
325,646	25
326,173	21,23
326,701	31,19
327,228	25,91
327,755	24,16
328,282	24,06
328,809	23,62
329,336	29,33
329,862	36,14
330,389	26,44
330,915	26,82
331,441	27,97
331,968	17,59
332,494	26,5
333,02	21,29
333,545	28,37
334,071	24,33
334,597	21,15
335,122	37,42
335,648	18,81
336,173	22,34
336,698	27,06
337,223	20,82
337,748	22,69
338,272	20,29
338,797	24,3
339,322	27,83
339,846	25,32
340,37	34,43
340,894	25,61
341,419	26,26
341,942	27,18
342,466	26,72
342,99	27,39
343,514	27,67
344,037	22,8
344,56	22,06
345,084	22,73
345,607	24,91
346,13	20,23
346,653	20,64
347,175	25,31
347,698	27,31
348,221	22,91
348,743	27,51
349,265	24,52
349,787	19,93
350,309	24,79
350,831	22,93
351,353	25,99
351,875	26,51
352,397	22
352,918	22,53
353,439	20,8
353,961	22,02
354,482	19,53
355,003	20,62
355,524	26,07
356,044	25,48
356,565	22,8
357,086	18,14
357,606	22,62
358,126	27,15
358,646	24,96
359,167	21,07
359,687	24,21
360,206	19,79
360,726	22,9
361,246	36,03
361,765	25,11
362,285	21,65
362,804	19,76
363,323	23,46
363,842	27,77
364,361	22,73
364,88	19,61
365,398	18,29
365,917	24,77
366,435	17,35
366,954	21,95
367,472	25,03
367,99	26,85
368,508	20
369,026	23,99
369,544	21,22
370,061	22,4
370,579	18,8
371,096	25,43
371,613	21,84
372,131	26,02
372,648	19,48
373,165	20,46
373,681	23,28
374,198	24,62
374,715	18,81
375,231	23,35
375,747	20,8
376,264	21,33
376,78	21,44
377,296	17,63
377,812	21,08
378,327	15,01
378,843	17,65
379,359	19,53
379,874	19,32
380,389	20,57
380,905	20,42
381,42	21,63
381,935	19,79
382,449	22,19
382,964	18,17
383,479	20,36
383,993	17,38
384,508	18,65
385,022	15,14
385,536	16,68
386,05	17,81
386,564	16,41
387,078	18,95
387,592	16,9
388,105	15,47
388,619	17,63
389,132	16,73
389,645	18,58
390,158	16,86
390,671	17,72
391,184	14,87
391,697	15,15
392,21	16,8
392,722	14,48
393,235	17,2
393,747	13,95
394,259	15,23
394,771	16,71
395,283	13,25
395,795	13,62
396,307	13,5
396,818	15,85
397,33	14,15
397,841	13,85
398,353	12,89
398,864	13,96
399,375	14,87
399,886	14,68
400,397	13,05
400,907	12,99
401,418	12,25
401,928	12,43
402,439	9,64
402,949	12,5
403,459	11,05
403,969	11,91
404,479	8,96
404,989	9,73
405,498	9,67
406,008	9,82
406,517	9,77
407,027	10,56
407,536	9,52
408,045	8,63
408,554	9,69
409,063	7,8
409,572	9,13
410,08	8,82
410,589	7,55
411,097	7,49
411,606	7,28
412,114	7,24
412,622	7,35
413,13	6,26
413,638	6,56
414,145	6,88
414,653	6,2
415,16	5,94
415,668	6,39
416,175	5,84
416,682	5,77
417,189	5,67
417,696	5,74
418,203	5,04
418,71	5,57
419,216	5,11
419,723	5,61
420,229	5,13
420,735	4,79
421,242	4,95
421,748	5,23
422,254	4,93
422,759	4,47
423,265	4,85
423,771	5,25
424,276	5
424,781	4,62
425,287	4,81
425,792	4,99
426,297	4,34
426,802	4,69
427,306	5,02
427,811	4,87
428,316	4,32
428,82	4,95
429,324	4,52
429,829	4,75
430,333	5,03
430,837	4,37
431,34	4,41
431,844	3,98
432,348	4,54
432,851	4,86
433,355	4,43
433,858	4,72
434,361	4,22
434,864	4,34
435,367	4,64
435,87	4,14
436,373	4,1
436,876	4,5
437,378	4,17
437,88	4,28
438,383	4,54
438,885	4,33
439,387	4,41
439,889	4,32
440,391	4,43
440,892	4,33
441,394	4,46
441,896	4,47
442,397	4,38
442,898	4,79
443,399	4,35
443,9	4,41
444,401	4,4
444,902	4,8
445,403	4,69
445,903	4,77
446,404	4,37
446,904	4,27
447,405	4,55
447,905	4,88
448,405	4,83
448,905	4,72
449,404	4,79
449,904	4,58
450,404	4,67
450,903	4,63
451,403	4,68
451,902	4,93
452,401	4,54
452,9	4,8
453,399	4,79
453,898	5,11
454,396	5,09
454,895	5,04
455,393	5,28
455,892	4,85
456,39	4,97
456,888	5,19
457,386	4,85
457,884	4,89
458,382	4,74
458,879	4,9
459,377	4,81
459,874	4,89
460,372	5,1
460,869	5,16
461,366	4,77
461,863	5,2
462,36	4,77
462,857	5,09
463,353	4,94
463,85	4,91
464,346	4,73
464,843	4,72
465,339	5,08
465,835	4,75
466,331	5,02
466,827	4,94
467,323	5,23
467,818	4,75
468,314	5,08
468,809	4,96
469,305	5,06
469,8	4,87
470,295	4,8
470,79	4,92
471,285	4,74
471,78	4,97
472,274	4,7
472,769	4,97
473,263	4,98
473,758	4,74
474,252	4,87
474,746	5,01
475,24	5,08
475,734	4,8
476,228	4,9
476,721	4,89
477,215	4,8
477,708	5,03
478,202	4,84
478,695	5,05
479,188	5,21
479,681	4,88
480,174	5,22
480,667	5,17
481,159	4,94
481,652	5,31
482,144	5,3
482,637	5,27
483,129	5,16
483,621	5,4
484,113	5,38
484,605	5,28
485,097	5,13
485,588	5,59
486,08	5,12
486,571	5,44
487,063	5,26
487,554	5,24
488,045	5,34
488,536	5,28
489,027	5,48
489,518	5,44
490,008	5,71
490,499	5,53
490,989	5,62
491,48	5,66
491,97	5,46
492,46	5,75
492,95	5,87
493,44	5,72
493,93	5,75
494,419	5,92
494,909	5,98
495,398	6,08
495,888	5,85
496,377	6
496,866	6,15
497,355	6,03
497,844	6,36
498,333	6,39
498,821	6,3
499,31	6,68
499,798	6,61
500,287	6,93
500,775	6,91
501,263	6,97
501,751	7
502,239	7,13
502,727	7,29
503,215	7,23
503,702	7,69
504,19	7,9
504,677	7,98
505,164	7,94
505,651	8,14
506,139	8,19
506,625	8,36
507,112	8,63
507,599	8,66
508,086	9,23
508,572	9,08
509,058	9,53
509,545	9,5
510,031	9,76
510,517	9,9
511,003	9,92
511,489	10,34
511,974	10,75
512,46	10,93
512,946	11,08
513,431	10,97
513,916	11,2
514,401	11,73
514,887	12,04
515,371	12,4
515,856	12,5
516,341	12,54
516,826	12,83
517,31	13,21
517,795	13,39
518,279	13,79
518,763	13,93
519,247	14,43
519,731	14,5
520,215	14,43
520,699	14,95
521,182	15,28
521,666	15,38
522,149	15,88
522,633	16,23
523,116	16,25
523,599	16,35
524,082	17,02
524,565	17,1
525,048	17,41
525,53	17,31
526,013	17,45
526,495	17,37
526,978	18,27
527,46	18,15
527,942	18,75
528,424	18,62
528,906	18,71
529,388	18,98
529,87	19,06
530,351	19,08
530,833	19,58
531,314	19,26
531,795	19,75
532,277	19,38
532,758	19,85
533,238	19,83
533,719	19,93
534,2	20,28
534,681	20,43
535,161	20,6
535,642	20,3
536,122	20,41
536,602	20,6
537,082	20,37
537,562	20,66
538,042	20,91
538,522	21
539,001	20,95
539,481	20,53
539,96	20,68
540,44	21,07
540,919	20,77
541,398	21,39
541,877	21,18
542,356	21,22
542,835	21,01
543,313	21,29
543,792	21,04
544,27	21,3
544,749	21,34
545,227	21,23
545,705	21,46
546,183	21,19
546,661	21,17
547,139	21,51
547,616	21,28
548,094	21,54
548,571	21,16
549,049	21,57
549,526	21,56
550,003	21,55
550,48	21,65
550,957	21,35
551,434	21,59
551,911	21,53
552,387	21,47
552,864	21,69
553,34	21,71
553,817	21,65
554,293	21,77
554,769	21,69
555,245	21,61
555,721	21,72
556,197	21,63
556,672	21,48
557,148	21,34
557,623	21,38
558,099	21,47
558,574	21,74
559,049	21,33
559,524	21,58
559,999	21,03
560,474	21,37
560,948	21,05
561,423	20,96
561,897	21,31
562,372	21,19
562,846	21,15
563,32	21
563,794	20,78
564,268	20,63
564,742	20,52
565,216	20,7
565,69	20,7
566,163	20,27
566,636	20,47
567,11	20,17
567,583	20,2
568,056	19,94
568,529	19,92
569,002	19,73
569,475	19,78
569,947	19,15
570,42	19,19
570,892	19,15
571,365	19,16
571,837	19,07
572,309	18,79
572,781	18,71
573,253	18,4
573,725	18,37
574,197	18,1
574,668	18,11
575,14	17,96
575,611	17,79
576,082	17,68
576,554	17,73
577,025	17,65
577,496	17,33
577,967	17,23
578,437	17,28
578,908	17,05
579,379	16,87
579,849	16,83
580,319	16,76
580,79	16,92
581,26	16,82
581,73	16,56
582,2	16,37
582,669	16,24
583,139	16,05
583,609	16,04
584,078	16,11
584,548	15,97
585,017	15,92
585,486	15,61
585,955	15,77
586,424	15,63
586,893	15,64
587,362	15,27
587,83	15,36
588,299	15,44
588,767	15,27
589,236	15,16
589,704	15,14
590,172	15,03
590,64	14,89
591,108	15,05
591,576	14,98
592,043	14,66
592,511	14,76
592,978	14,88
593,446	14,7
593,913	14,79
594,38	14,48
594,847	14,51
595,314	14,35
595,781	14,7
596,248	14,53
596,715	14,36
597,181	14,55
597,647	14,45
598,114	14,28
598,58	14,46
599,046	14,53
599,512	14,4
599,978	14,12
600,444	14,08
600,91	14,06
601,375	14,21
601,841	14,11
602,306	14,19
602,771	14,31
603,236	14,05
603,702	13,81
604,167	13,87
604,631	13,88
605,096	13,82
605,561	13,66
606,025	13,73
606,49	13,43
606,954	13,73
607,418	13,47
607,882	13,44
608,347	13,53
608,81	13,09
609,274	13,26
609,738	13,04
610,202	13
610,665	13
611,128	12,86
611,592	12,81
612,055	12,66
612,518	12,5
612,981	12,65
613,444	12,5
613,907	12,42
614,369	12,32
614,832	12,27
615,294	12,31
615,757	12,07
616,219	12,01
616,681	11,99
617,143	11,73
617,605	11,69
618,067	11,77
618,529	11,83
618,99	11,76
619,452	11,62
619,913	11,5
620,375	11,53
620,836	11,4
621,297	11,45
621,758	11,52
622,219	11,25
622,68	11,32
623,14	11,07
623,601	11,17
624,061	11,27
624,522	11,24
624,982	10,98
625,442	11,08
625,902	11,22
626,362	10,95
626,822	11,05
627,282	11,08
627,742	11,2
628,201	10,77
628,661	10,98
629,12	10,85
629,579	10,83
630,038	10,82
630,497	10,92
630,956	10,9
631,415	10,77
631,874	10,83
632,332	10,83
632,791	10,79
633,249	10,6
633,708	10,85
634,166	10,59
634,624	10,67
635,082	10,43
635,54	10,34
635,998	10,31
636,455	10,19
636,913	10,17
637,37	10,25
637,828	10,11
638,285	10
638,742	9,91
639,199	9,86
639,656	9,61
640,113	9,47
640,57	9,44
641,027	9,43
641,483	9,37
641,94	9,18
642,396	9,05
642,852	8,98
643,309	8,99
643,765	8,77
644,221	8,69
644,676	8,48
645,132	8,41
645,588	8,32
646,043	8,25
646,499	8,21
646,954	8,03
647,409	7,96
647,864	7,87
648,319	7,77
648,774	7,65
649,229	7,5
649,684	7,46
650,139	7,45
650,593	7,46
651,047	7,51
651,502	7,35
651,956	7,32
652,41	7,11
652,864	7,13
653,318	7,17
653,772	7,13
654,225	7,03
654,679	7,14
655,133	6,99
655,586	6,95
656,039	6,83
656,492	6,8
656,946	6,91
657,399	6,65
657,851	6,76
658,304	6,62
658,757	6,54
659,209	6,5
659,662	6,36
660,114	6,37
660,567	6,05
661,019	6,07
661,471	5,98
661,923	6,05
662,375	5,9
662,826	5,85
663,278	5,92
663,73	5,61
664,181	5,64
664,632	5,63
665,084	5,52
665,535	5,54
665,986	5,54
666,437	5,37
666,888	5,41
667,338	5,42
667,789	5,39
668,24	5,4
668,69	5,44
669,14	5,48
669,591	5,33
670,041	5,29
670,491	5,4
670,941	5,4
671,391	5,45
671,84	5,53
672,29	5,55
672,74	5,6
673,189	5,58
673,638	5,62
674,088	5,65
674,537	5,74
674,986	5,85
675,435	5,86
675,883	5,91
676,332	6
676,781	6,18
677,229	6,14
677,678	6,26
678,126	6,37
678,574	6,43
679,022	6,64
679,47	6,73
679,918	6,68
680,366	6,97
680,814	7,13
681,261	7,08
681,709	7,19
682,156	7,37
682,604	7,64
683,051	7,58
683,498	7,62
683,945	7,91
684,392	7,88
684,839	8,17
685,286	8,13
685,732	8,38
686,179	8,58
686,625	8,68
687,071	8,76
687,518	8,97
687,964	9,15
688,41	9,49
688,856	9,6
689,301	9,92
689,747	10,17
690,193	10,57
690,638	10,72
691,084	11,13
691,529	11,44
691,974	11,76
692,419	12,13
692,864	12,54
693,309	13,05
693,754	13,31
694,199	13,98
694,643	14,26
695,088	14,57
695,532	15,1
695,977	15,48
696,421	16,01
696,865	16,21
697,309	16,67
697,753	17,19
698,197	17,42
698,64	18,04
699,084	18,3
699,527	18,9
699,971	19,17
700,414	19,5
700,857	19,84
701,3	20,12
701,743	20,58
702,186	21,05
702,629	21,26
703,072	21,53
703,515	21,9
703,957	22,18
704,399	22,45
704,842	22,72
705,284	23,15
705,726	23,27
706,168	23,84
706,61	23,9
707,052	24,36
707,494	24,5
707,935	24,87
708,377	24,87
708,818	25,54
709,26	25,32
709,701	25,7
710,142	25,71
710,583	26,32
711,024	26,25
711,465	26,36
711,905	26,83
712,346	27,19
712,787	27,18
713,227	27,53
713,667	27,7
714,108	27,82
714,548	28,34
714,988	28,44
715,428	28,28
715,868	28,8
716,307	28,69
716,747	29,14
717,186	29,15
717,626	29,19
718,065	29,38
718,504	29,57
718,944	29,91
719,383	29,89
719,822	30,09
720,261	30,3
720,699	30,47
721,138	30,55
721,576	30,64
722,015	30,8
722,453	31,05
722,892	30,91
723,33	31,15
723,768	31,48
724,206	31,2
724,644	31,2
725,081	31,54
725,519	31,73
725,957	31,79
726,394	31,89
726,832	32
727,269	32,02
727,706	32,3
728,143	31,94
728,58	32,03
729,017	32,15
729,454	32,28
729,89	32,24
730,327	32,32
730,764	32,35
731,2	32,48
731,636	32,4
732,072	32,75
732,509	32,61
732,945	32,63
733,38	32,82
733,816	32,62
734,252	32,78
734,688	32,64
735,123	32,85
735,559	32,73
735,994	32,87
736,429	32,95
736,864	32,9
737,299	32,98
737,734	32,81
738,169	33,06
738,604	33,14
739,038	33,07
739,473	33,01
739,907	33,1
740,342	33,08
740,776	33,13
741,21	32,97
741,644	32,82
742,078	33,07
742,512	33,11
742,946	32,78
743,379	33,17
743,813	33,03
744,246	33,23
744,68	32,92
745,113	32,84
745,546	32,84
745,979	33,13
746,412	32,96
746,845	33,02
747,278	33,04
747,711	32,96
748,143	32,68
748,576	32,92
749,008	32,7
749,441	32,77
749,873	32,77
750,305	32,68
750,737	32,54
751,169	32,8
751,601	32,58
752,032	32,72
752,464	32,67
752,896	32,39
753,327	32,61
753,758	32,5
754,19	32,49
754,621	32,45
755,052	32,4
755,483	32,36
755,914	32,48
756,344	32,18
756,775	32,42
757,206	32,26
757,636	32,34
758,066	32,2
758,497	32,17
758,927	32,02
759,357	32,25
759,787	31,97
760,217	32,27
760,647	32,11
761,076	32,44
761,506	32
761,935	31,86
762,365	31,93
762,794	32,2
763,223	32
763,653	31,9
764,082	31,65
764,51	31,98
764,939	31,83
765,368	31,91
765,797	31,65
766,225	31,91
766,654	31,78
767,082	31,75
767,51	31,77
767,938	31,74
768,367	31,62
768,795	31,75
769,222	31,52
769,65	31,7
770,078	31,59
770,505	31,69
770,933	31,9
771,36	31,53
771,788	31,63
772,215	31,48
772,642	31,71
773,069	31,56
773,496	31,6
773,923	31,5
774,349	31,6
774,776	31,38
775,203	31,37
775,629	31,52
776,055	31,29
776,482	31,31
776,908	31,1
777,334	31,32
777,76	31,34
778,186	31,3
778,611	31,12
779,037	31,6
779,463	31,19
779,888	31,48
780,314	31,29
780,739	31,27
781,164	31,32
781,589	31,1
782,014	30,92
782,439	31,15
782,864	31,16
783,289	31,19
783,713	31,11
784,138	31,29
784,562	31,36
784,987	31,43
785,411	31,05
785,835	31,03
786,259	31,19
786,683	30,97
787,107	30,95
787,531	31,23
787,954	31,23
788,378	30,88
788,802	30,98
789,225	30,87
789,648	30,92
790,071	31,07
790,495	31,29
790,918	31,03
791,34	31,03
791,763	30,88
792,186	31,07
792,609	31,15
793,031	30,91
793,454	30,85
793,876	30,81
794,298	30,7
794,721	30,74
795,143	30,81
795,565	31,05
795,986	31,08
796,408	31,03
796,83	30,83
797,252	30,91
797,673	30,94
798,094	30,69
798,516	30,71
798,937	30,94
799,358	30,93
799,779	30,94
800,2	30,72
800,621	30,72
801,042	30,77
801,462	30,96
801,883	30,78
802,303	30,65
802,724	30,84
803,144	30,91
803,564	30,99
803,984	30,85
804,404	30,91
804,824	30,87
805,244	30,85
805,664	30,62
806,084	30,97
806,503	30,69
806,923	30,66
807,342	30,92
807,761	30,35
808,18	30,78
808,599	30,82
809,018	30,76
809,437	30,67
809,856	30,75
810,275	30,67
810,693	30,65
811,112	30,9
811,53	30,65
811,949	30,84
812,367	30,9
812,785	30,87
813,203	30,94
813,621	30,69
814,039	30,62
814,457	30,72
814,874	30,8
815,292	30,67
815,709	30,65
816,127	30,69
816,544	30,67
816,961	30,43
817,378	30,67
817,795	30,79
818,212	30,72
818,629	30,51
819,046	30,56
819,462	30,56
819,879	30,77
820,295	30,62
820,712	30,63
821,128	30,77
821,544	30,65
821,96	30,59
822,376	30,4
822,792	30,71
823,208	30,71
823,624	30,71
824,039	30,67
824,455	30,47
824,87	30,71
825,286	30,78
825,701	30,61
826,116	30,57
826,531	30,47
826,946	30,71
827,361	30,55
827,776	30,61
828,19	30,5
828,605	30,6
829,02	30,57
829,434	30,34
829,848	30,3
830,263	30,58
830,677	30,54
831,091	30,54
831,505	30,79
831,919	30,51
832,332	30,69
832,746	30,49
833,16	30,2
833,573	30,34
833,987	30,61
834,4	30,49
834,813	30,36
835,226	30,25
835,639	30,29
836,052	30,37
836,465	30,53
836,878	30,44
837,29	30,14
837,703	30,51
838,116	30,57
838,528	30,65
838,94	30,45
839,352	30,27
839,765	30,64
840,177	30,61
840,589	30,69
841	30,63
841,412	30,58
841,824	30,14
842,235	30,13
842,647	30,28
843,058	30,29
843,47	30,38
843,881	30,42
