Data from I_4_0_Relative__2__00185.txt Node

Date: Mon Jan 29 13:09:12 CET 2024
User: diatiterra
Spectrometer: HDX00911
Trigger mode: 0
Integration Time (sec): 6,000000E-3
Scans to average: 2
Nonlinearity correction enabled: false
Boxcar width: 0
Storing dark spectrum: false
XAxis mode: Wavelengths
Number of Pixels in Spectrum: 2068
>>>>>Begin Spectral Data<<<<<
194,468	32,93
195,025	28,14
195,581	15,7
196,138	26,32
196,694	31,4
197,251	24,4
197,807	29,45
198,363	20,95
198,919	32,33
199,474	27,56
200,03	18,32
200,586	26,2
201,141	29,91
201,696	26,24
202,251	26,07
202,806	23,41
203,361	28,27
203,916	28,78
204,471	19,27
205,025	26,02
205,58	26,17
206,134	16,22
206,688	23,64
207,242	29,09
207,796	21,63
208,35	28,25
208,904	24,9
209,457	24,73
210,011	23,47
210,564	28,9
211,117	26,11
211,67	21,53
212,223	23,55
212,776	23,19
213,329	27,07
213,881	23
214,434	30,64
214,986	26,3
215,538	23,67
216,09	29,35
216,642	27,84
217,194	27,92
217,746	23,09
218,297	30,04
218,849	27,47
219,4	30,48
219,951	27,56
220,502	20,56
221,053	22,48
221,604	23,54
222,155	29,43
222,705	27,35
223,256	25,38
223,806	28,72
224,356	28,42
224,906	34,38
225,456	30,95
226,006	29,77
226,556	27,97
227,106	27,23
227,655	28,36
228,204	12,17
228,754	25,26
229,303	25,71
229,852	26,35
230,401	24,32
230,949	20,88
231,498	28,67
232,047	24,63
232,595	21,97
233,143	14,98
233,691	32,79
234,239	27,68
234,787	20,23
235,335	28,6
235,883	27,7
236,43	24,38
236,978	15,05
237,525	18,08
238,072	26,14
238,619	30,84
239,166	33,77
239,713	30,43
240,26	21,78
240,806	32,68
241,353	28,74
241,899	31,28
242,445	25,36
242,991	29,28
243,537	19,44
244,083	31,12
244,629	32,84
245,174	28,38
245,72	24
246,265	21,21
246,81	16,48
247,355	26,82
247,9	29,76
248,445	21,54
248,99	25,87
249,534	21,32
250,079	30,67
250,623	18,36
251,168	23,94
251,712	29,25
252,256	23,44
252,8	29,63
253,343	28,67
253,887	24,68
254,43	25,54
254,974	26,59
255,517	24,73
256,06	30,68
256,603	21,36
257,146	20,42
257,689	24,46
258,232	28,57
258,774	22,03
259,317	34,31
259,859	22,32
260,401	31,17
260,943	26,44
261,485	27,56
262,027	29,32
262,569	23,5
263,11	30,56
263,652	27,29
264,193	23,86
264,734	23,85
265,275	25,59
265,816	18,24
266,357	26,3
266,898	24,43
267,438	34,86
267,979	25,66
268,519	21,23
269,059	21,03
269,6	23,7
270,14	17,12
270,68	30,08
271,219	22,78
271,759	23,15
272,298	28,06
272,838	15,14
273,377	26,95
273,916	23,49
274,455	19,82
274,994	20,7
275,533	21,25
276,072	28,11
276,61	22,91
277,149	18,93
277,687	18,76
278,225	24,21
278,763	23,53
279,301	18,89
279,839	23,01
280,377	18,25
280,914	22,27
281,452	28,21
281,989	22,86
282,526	23,82
283,064	14,31
283,601	19,03
284,137	21,9
284,674	20,15
285,211	24,84
285,747	18,62
286,284	28,08
286,82	25,28
287,356	20,97
287,892	15,42
288,428	18,45
288,964	30,12
289,5	20,67
290,035	23,4
290,571	30,49
291,106	21,04
291,641	20,91
292,176	30,81
292,711	23,46
293,246	21,56
293,781	24,38
294,315	23,19
294,85	17,92
295,384	25,62
295,918	27,56
296,453	25,94
296,987	22,99
297,52	27,85
298,054	23,94
298,588	27,17
299,121	18,18
299,655	22,4
300,188	33,71
300,721	30,93
301,254	20,32
301,787	27,85
302,32	19,35
302,853	27,09
303,385	22,03
303,918	24,5
304,45	18,42
304,982	14,44
305,514	25,23
306,046	16,63
306,578	25,63
307,11	19,35
307,641	20,54
308,173	19,55
308,704	15,62
309,236	32,12
309,767	23,29
310,298	31,04
310,829	18,78
311,359	23,6
311,89	18,74
312,421	15,47
312,951	22,79
313,481	10,6
314,012	21,92
314,542	25,88
315,072	18,84
315,601	23,87
316,131	25,63
316,661	20,53
317,19	28,73
317,72	26,67
318,249	21,67
318,778	16,67
319,307	30,12
319,836	28,41
320,365	21,66
320,893	23,26
321,422	20,05
321,95	27,33
322,479	30,25
323,007	23,67
323,535	35,12
324,063	13,71
324,591	23,64
325,118	29,45
325,646	27,83
326,173	26,71
326,701	28,33
327,228	29,09
327,755	23,68
328,282	17,11
328,809	29,36
329,336	20,09
329,862	26,14
330,389	23,22
330,915	21,82
331,441	25,64
331,968	18,07
332,494	17,5
333,02	24,3
333,545	19,92
334,071	16,74
334,597	24,52
335,122	27,62
335,648	28,61
336,173	21,48
336,698	28,44
337,223	22,13
337,748	22,27
338,272	23,22
338,797	20,82
339,322	13,8
339,846	21,91
340,37	32,91
340,894	12,25
341,419	22,9
341,942	14,6
342,466	24,22
342,99	21,58
343,514	18,45
344,037	14,4
344,56	20,04
345,084	20,83
345,607	15,88
346,13	22,14
346,653	18,37
347,175	14,49
347,698	23,38
348,221	15,08
348,743	20,82
349,265	21,74
349,787	23,49
350,309	18,29
350,831	21,55
351,353	23,24
351,875	18,12
352,397	19,33
352,918	27,65
353,439	20,45
353,961	20,34
354,482	17,17
355,003	18,66
355,524	20,27
356,044	21,66
356,565	18,84
357,086	17,84
357,606	16,16
358,126	21,22
358,646	19,05
359,167	19,34
359,687	24,21
360,206	23,93
360,726	17,97
361,246	18,09
361,765	14,78
362,285	17,23
362,804	17,05
363,323	24,02
363,842	20,56
364,361	20,32
364,88	18,82
365,398	16,71
365,917	16,43
366,435	18,12
366,954	18,45
367,472	18,87
367,99	19,07
368,508	20,79
369,026	19,34
369,544	18,05
370,061	17,97
370,579	19,48
371,096	18,27
371,613	19,34
372,131	18,3
372,648	17,55
373,165	15,15
373,681	19,73
374,198	16,48
374,715	19,66
375,231	22,51
375,747	15,51
376,264	16,12
376,78	17,35
377,296	16,68
377,812	19,92
378,327	15,94
378,843	18,88
379,359	17,36
379,874	17,59
380,389	15,75
380,905	19,03
381,42	15,47
381,935	16,72
382,449	18,87
382,964	15,06
383,479	17,25
383,993	17,38
384,508	15,46
385,022	17,05
385,536	14,54
386,05	14,25
386,564	16,27
387,078	14,84
387,592	16,37
388,105	16,21
388,619	13,07
389,132	17,09
389,645	17,02
390,158	16,74
390,671	15,08
391,184	14,87
391,697	13,53
392,21	13,93
392,722	14,27
393,235	14,16
393,747	14,05
394,259	13,89
394,771	14,14
395,283	11,15
395,795	12,46
396,307	14,54
396,818	13,49
397,33	11,72
397,841	13,85
398,353	11,04
398,864	11,79
399,375	12,75
399,886	12,39
400,397	12,42
400,907	12,92
401,418	12,85
401,928	11,64
402,439	10,58
402,949	9,9
403,459	10,22
403,969	10,83
404,479	11,23
404,989	8,64
405,498	8,98
406,008	10,24
406,517	8,14
407,027	8,53
407,536	8,32
408,045	8,83
408,554	8,74
409,063	8,65
409,572	7,93
410,08	8,23
410,589	6,54
411,097	7,08
411,606	6,61
412,114	6,88
412,622	6,47
413,13	6,55
413,638	6,81
414,145	6,39
414,653	5,86
415,16	6
415,668	5,59
416,175	5,53
416,682	5,62
417,189	5,55
417,696	5,8
418,203	5,73
418,71	4,69
419,216	5,16
419,723	4,88
420,229	5,31
420,735	4,77
421,242	4,85
421,748	4,33
422,254	4,9
422,759	4,61
423,265	4,27
423,771	4,48
424,276	5,17
424,781	4,95
425,287	4,19
425,792	4,42
426,297	4,66
426,802	4,53
427,306	4,53
427,811	4,3
428,316	4,52
428,82	4,49
429,324	4,39
429,829	4,45
430,333	4,41
430,837	4,52
431,34	4,85
431,844	4,11
432,348	4,36
432,851	4,14
433,355	4,2
433,858	4,13
434,361	4,28
434,864	4,31
435,367	4,67
435,87	4,24
436,373	3,98
436,876	4,1
437,378	4,46
437,88	4,17
438,383	4,38
438,885	4,33
439,387	4,06
439,889	4,23
440,391	4,23
440,892	4,02
441,394	3,95
441,896	4,01
442,397	4,34
442,898	3,78
443,399	4,04
443,9	4,03
444,401	3,94
444,902	4,44
445,403	4,35
445,903	4,14
446,404	4,04
446,904	3,98
447,405	4,28
447,905	3,98
448,405	4,33
448,905	4,14
449,404	4,19
449,904	3,88
450,404	4,39
450,903	4,18
451,403	4,34
451,902	4,55
452,401	4,38
452,9	4,3
453,399	4,29
453,898	4,15
454,396	4,45
454,895	4,13
455,393	4,23
455,892	4,24
456,39	4,17
456,888	4,42
457,386	4,34
457,884	4,36
458,382	4,02
458,879	3,95
459,377	4,28
459,874	4,08
460,372	3,97
460,869	4,13
461,366	4,36
461,863	4,1
462,36	4,19
462,857	4,48
463,353	3,9
463,85	4,31
464,346	4,14
464,843	4,12
465,339	4,33
465,835	4,38
466,331	4,12
466,827	4,44
467,323	4,21
467,818	4
468,314	4,03
468,809	4,56
469,305	4,16
469,8	4,33
470,295	4,4
470,79	4,31
471,285	4,24
471,78	4,1
472,274	4,11
472,769	4,09
473,263	4,38
473,758	4,36
474,252	4,26
474,746	4,3
475,24	4,28
475,734	4,25
476,228	4,36
476,721	4,24
477,215	4,24
477,708	4,26
478,202	4,48
478,695	4,18
479,188	4,05
479,681	4,32
480,174	4,46
480,667	4,39
481,159	4,12
481,652	4,21
482,144	4,65
482,637	4,27
483,129	4,45
483,621	4,69
484,113	4,42
484,605	4,38
485,097	4,43
485,588	4,32
486,08	4,38
486,571	4,23
487,063	4,48
487,554	4,39
488,045	4,55
488,536	4,45
489,027	4,64
489,518	4,64
490,008	4,6
490,499	4,56
490,989	4,57
491,48	4,55
491,97	4,86
492,46	4,57
492,95	4,82
493,44	4,68
493,93	4,56
494,419	4,69
494,909	4,92
495,398	4,69
495,888	4,65
496,377	4,91
496,866	4,75
497,355	4,9
497,844	4,78
498,333	5,04
498,821	4,97
499,31	4,98
499,798	4,93
500,287	5,03
500,775	5,1
501,263	5,29
501,751	5,19
502,239	5,37
502,727	5,33
503,215	5,4
503,702	5,52
504,19	5,72
504,677	5,44
505,164	5,63
505,651	5,58
506,139	6,03
506,625	6,09
507,112	6,02
507,599	6,12
508,086	6,31
508,572	6,2
509,058	6,51
509,545	6,42
510,031	6,98
510,517	7,05
511,003	6,77
511,489	7,16
511,974	7,1
512,46	7,34
512,946	7,65
513,431	7,57
513,916	7,88
514,401	7,87
514,887	8,16
515,371	8,27
515,856	8,52
516,341	8,55
516,826	8,73
517,31	9,05
517,795	9,06
518,279	9,38
518,763	9,45
519,247	9,64
519,731	9,79
520,215	9,91
520,699	10,41
521,182	10,33
521,666	10,4
522,149	10,78
522,633	10,94
523,116	11,53
523,599	11,52
524,082	11,66
524,565	11,71
525,048	12,03
525,53	12,01
526,013	12,56
526,495	12,81
526,978	12,81
527,46	12,86
527,942	12,97
528,424	12,92
528,906	13,19
529,388	13,39
529,87	13,66
530,351	13,64
530,833	13,93
531,314	14,22
531,795	13,88
532,277	13,76
532,758	14,31
533,238	14,09
533,719	14,42
534,2	14,23
534,681	14,36
535,161	14,35
535,642	14,45
536,122	14,65
536,602	14,72
537,082	14,72
537,562	14,66
538,042	14,82
538,522	14,72
539,001	14,89
539,481	14,91
539,96	14,76
540,44	14,84
540,919	15,17
541,398	15,02
541,877	14,99
542,356	15,26
542,835	15,11
543,313	15,21
543,792	15,12
544,27	15,09
544,749	15,34
545,227	15,21
545,705	15,25
546,183	15,3
546,661	15,53
547,139	15,32
547,616	15,6
548,094	15,46
548,571	15,27
549,049	15,58
549,526	15,47
550,003	15,61
550,48	15,82
550,957	15,5
551,434	15,46
551,911	15,48
552,387	15,69
552,864	15,38
553,34	15,56
553,817	15,6
554,293	15,65
554,769	15,66
555,245	15,69
555,721	15,72
556,197	15,62
556,672	15,45
557,148	15,32
557,623	15,28
558,099	15,13
558,574	15,43
559,049	15,31
559,524	15,26
559,999	14,99
560,474	15,1
560,948	15,27
561,423	15,11
561,897	15,07
562,372	15,32
562,846	14,78
563,32	14,85
563,794	14,78
564,268	14,63
564,742	14,73
565,216	14,65
565,69	14,47
566,163	14,4
566,636	14,49
567,11	14,29
567,583	14,15
568,056	14,03
568,529	13,83
569,002	13,96
569,475	13,77
569,947	13,78
570,42	13,4
570,892	13,53
571,365	13,29
571,837	13,39
572,309	13,2
572,781	13,05
573,253	12,94
573,725	12,54
574,197	12,48
574,668	12,42
575,14	12,66
575,611	12,32
576,082	11,98
576,554	12,29
577,025	12,1
577,496	11,99
577,967	11,76
578,437	11,67
578,908	11,75
579,379	11,59
579,849	11,45
580,319	11,33
580,79	11,51
581,26	11,33
581,73	11,11
582,2	11,35
582,669	10,98
583,139	11,17
583,609	10,84
584,078	11,01
584,548	10,72
585,017	11
585,486	10,75
585,955	10,61
586,424	10,56
586,893	10,44
587,362	10,31
587,83	10,49
588,299	10,36
588,767	10,25
589,236	10,29
589,704	10,14
590,172	10,16
590,64	10,18
591,108	10,02
591,576	10,18
592,043	9,99
592,511	9,87
592,978	9,94
593,446	10,05
593,913	9,83
594,38	10,01
594,847	9,86
595,314	9,76
595,781	9,75
596,248	9,79
596,715	9,95
597,181	9,86
597,647	9,67
598,114	9,63
598,58	9,5
599,046	9,79
599,512	9,73
599,978	9,5
600,444	9,54
600,91	9,61
601,375	9,46
601,841	9,46
602,306	9,58
602,771	9,59
603,236	9,19
603,702	9,47
604,167	9,29
604,631	9,31
605,096	9,4
605,561	9,28
606,025	9,21
606,49	9,12
606,954	8,95
607,418	9,14
607,882	9,07
608,347	8,92
608,81	8,82
609,274	8,83
609,738	8,68
610,202	8,96
610,665	8,72
611,128	8,49
611,592	8,45
612,055	8,42
612,518	8,31
612,981	8,48
613,444	8,29
613,907	8,25
614,369	8,28
614,832	8,14
615,294	8,19
615,757	8,06
616,219	8,03
616,681	8,09
617,143	7,85
617,605	7,96
618,067	7,75
618,529	7,82
618,99	7,72
619,452	7,67
619,913	7,8
620,375	7,63
620,836	7,64
621,297	7,49
621,758	7,59
622,219	7,46
622,68	7,33
623,14	7,31
623,601	7,46
624,061	7,44
624,522	7,29
624,982	7,3
625,442	7,34
625,902	7,33
626,362	7,25
626,822	7,34
627,282	7,22
627,742	7,45
628,201	7,31
628,661	7,28
629,12	7,01
629,579	7,36
630,038	7,07
630,497	7,28
630,956	7,2
631,415	7,19
631,874	7,21
632,332	7,17
632,791	7,08
633,249	7,13
633,708	7
634,166	7,11
634,624	7,05
635,082	7,01
635,54	6,95
635,998	6,85
636,455	6,94
636,913	6,77
637,37	6,84
637,828	6,88
638,285	6,67
638,742	6,74
639,199	6,59
639,656	6,68
640,113	6,43
640,57	6,47
641,027	6,35
641,483	6,42
641,94	6,3
642,396	6,14
642,852	6,25
643,309	6,03
643,765	6,13
644,221	6,1
644,676	5,99
645,132	5,89
645,588	5,88
646,043	5,82
646,499	5,79
646,954	5,67
647,409	5,53
647,864	5,54
648,319	5,43
648,774	5,44
649,229	5,47
649,684	5,39
650,139	5,46
650,593	5,29
651,047	5,31
651,502	5,33
651,956	5,18
652,41	5,12
652,864	5,13
653,318	5,17
653,772	5,2
654,225	5,17
654,679	5,08
655,133	5,11
655,586	5,1
656,039	4,96
656,492	5,02
656,946	4,94
657,399	4,91
657,851	4,97
658,304	4,91
658,757	4,86
659,209	4,79
659,662	4,79
660,114	4,72
660,567	4,69
661,019	4,72
661,471	4,55
661,923	4,55
662,375	4,54
662,826	4,49
663,278	4,5
663,73	4,59
664,181	4,47
664,632	4,53
665,084	4,38
665,535	4,44
665,986	4,48
666,437	4,49
666,888	4,54
667,338	4,39
667,789	4,46
668,24	4,54
668,69	4,57
669,14	4,56
669,591	4,53
670,041	4,68
670,491	4,56
670,941	4,65
671,391	4,65
671,84	4,83
672,29	4,63
672,74	4,83
673,189	4,85
673,638	4,96
674,088	4,98
674,537	4,99
674,986	5
675,435	5,12
675,883	5,16
676,332	5,18
676,781	5,27
677,229	5,21
677,678	5,37
678,126	5,46
678,574	5,55
679,022	5,57
679,47	5,63
679,918	5,8
680,366	5,84
680,814	5,9
681,261	5,91
681,709	5,96
682,156	6,17
682,604	6,18
683,051	6,28
683,498	6,32
683,945	6,43
684,392	6,36
684,839	6,43
685,286	6,57
685,732	6,63
686,179	6,55
686,625	6,71
687,071	6,79
687,518	6,87
687,964	7
688,41	7,08
688,856	7,13
689,301	7,22
689,747	7,48
690,193	7,44
690,638	7,71
691,084	7,84
691,529	7,97
691,974	8,2
692,419	8,45
692,864	8,8
693,309	9,04
693,754	9,11
694,199	9,5
694,643	9,67
695,088	10,05
695,532	10,31
695,977	10,75
696,421	11,08
696,865	11,42
697,309	11,45
697,753	11,97
698,197	12,24
698,64	12,6
699,084	13,13
699,527	13,42
699,971	13,69
700,414	14,01
700,857	14,4
701,3	14,47
701,743	14,83
702,186	15,39
702,629	15,51
703,072	15,87
703,515	16,19
703,957	16,46
704,399	16,81
704,842	17,13
705,284	17,31
705,726	17,59
706,168	17,96
706,61	18,17
707,052	18,47
707,494	18,9
707,935	18,97
708,377	19,09
708,818	19,47
709,26	19,76
709,701	20,12
710,142	20,32
710,583	20,52
711,024	20,51
711,465	20,79
711,905	21,05
712,346	21,41
712,787	21,87
713,227	21,97
713,667	22,01
714,108	22,38
714,548	22,6
714,988	23,11
715,428	23,13
715,868	23,23
716,307	23,51
716,747	23,62
717,186	24,06
717,626	24,13
718,065	24,19
718,504	24,67
718,944	24,58
719,383	24,77
719,822	24,94
720,261	25,01
720,699	25,54
721,138	25,38
721,576	25,51
722,015	25,75
722,453	25,92
722,892	25,91
723,33	26,06
723,768	26,38
724,206	26,39
724,644	26,33
725,081	26,64
725,519	26,66
725,957	27,04
726,394	26,9
726,832	27,17
727,269	27,43
727,706	27,4
728,143	27,56
728,58	27,6
729,017	27,47
729,454	27,73
729,89	27,77
730,327	27,86
730,764	27,9
731,2	28,18
731,636	28,02
732,072	28,25
732,509	28,05
732,945	28,37
733,38	28,25
733,816	28,11
734,252	28,44
734,688	28,56
735,123	28,73
735,559	28,64
735,994	28,74
736,429	28,8
736,864	28,64
737,299	28,72
737,734	28,99
738,169	28,97
738,604	28,96
739,038	28,91
739,473	28,97
739,907	28,81
740,342	29,05
740,776	28,79
741,21	29
741,644	28,69
742,078	29,04
742,512	28,97
742,946	29,01
743,379	28,87
743,813	28,92
744,246	29,19
744,68	29,05
745,113	28,92
745,546	28,81
745,979	28,78
746,412	28,88
746,845	28,9
747,278	28,91
747,711	28,91
748,143	28,63
748,576	28,82
749,008	28,75
749,441	28,79
749,873	28,62
750,305	28,63
750,737	28,86
751,169	28,97
751,601	28,83
752,032	28,66
752,464	28,89
752,896	28,74
753,327	28,65
753,758	28,53
754,19	28,66
754,621	28,6
755,052	28,58
755,483	28,38
755,914	28,23
756,344	28,57
756,775	28,27
757,206	28,57
757,636	28,42
758,066	28,31
758,497	28,43
758,927	28,14
759,357	28,22
759,787	28,34
760,217	28,21
760,647	28,28
761,076	28,49
761,506	28,28
761,935	28,15
762,365	28,26
762,794	28,27
763,223	28,27
763,653	28,1
764,082	27,84
764,51	27,91
764,939	28,08
765,368	27,97
765,797	27,95
766,225	27,88
766,654	27,89
767,082	27,95
767,51	27,84
767,938	27,85
768,367	27,87
768,795	27,83
769,222	27,9
769,65	27,81
770,078	27,75
770,505	27,78
770,933	27,88
771,36	27,92
771,788	27,63
772,215	27,85
772,642	28,04
773,069	27,82
773,496	27,63
773,923	27,72
774,349	27,93
774,776	27,66
775,203	27,64
775,629	27,8
776,055	27,65
776,482	27,76
776,908	27,85
777,334	27,73
777,76	27,52
778,186	27,63
778,611	27,6
779,037	27,63
779,463	27,48
779,888	27,55
780,314	27,65
780,739	27,62
781,164	27,52
781,589	27,34
782,014	27,53
782,439	27,42
782,864	27,52
783,289	27,55
783,713	27,69
784,138	27,5
784,562	27,57
784,987	27,48
785,411	27,55
785,835	27,42
786,259	27,19
786,683	27,63
787,107	27,33
787,531	27,48
787,954	27,6
788,378	27,49
788,802	27,26
789,225	27,35
789,648	27,34
790,071	27,37
790,495	27,44
790,918	27,34
791,34	27,48
791,763	27,17
792,186	27,56
792,609	27,3
793,031	27,28
793,454	27,33
793,876	27,25
794,298	27,23
794,721	27,26
795,143	27,3
795,565	27,43
795,986	27,22
796,408	27,51
796,83	27,16
797,252	27,15
797,673	27,14
798,094	27,12
798,516	27
798,937	27,27
799,358	27,15
799,779	27,09
800,2	26,97
800,621	27,2
801,042	27,24
801,462	27,16
801,883	27,36
802,303	27,21
802,724	27,26
803,144	27,14
803,564	27,23
803,984	27,3
804,404	27,35
804,824	27,23
805,244	27,27
805,664	27,04
806,084	27,15
806,503	27,22
806,923	27,27
807,342	27,3
807,761	27,14
808,18	27,26
808,599	27,07
809,018	26,92
809,437	27,22
809,856	27,25
810,275	27,13
810,693	27,37
811,112	27,08
811,53	27,14
811,949	27,31
812,367	26,96
812,785	27,11
813,203	27,07
813,621	27,13
814,039	26,92
814,457	27,04
814,874	26,99
815,292	27,15
815,709	27,06
816,127	27,19
816,544	27,1
816,961	27,19
817,378	27,09
817,795	26,91
818,212	27,04
818,629	26,92
819,046	26,99
819,462	27,09
819,879	26,99
820,295	26,97
820,712	27,07
821,128	27,05
821,544	26,98
821,96	26,99
822,376	27,13
822,792	27,13
823,208	27
823,624	26,95
824,039	26,94
824,455	27,09
824,87	26,92
825,286	27,09
825,701	26,9
826,116	26,96
826,531	27,11
826,946	26,99
827,361	26,91
827,776	26,97
828,19	26,99
828,605	27,04
829,02	26,73
829,434	26,8
829,848	26,92
830,263	26,95
830,677	26,94
831,091	26,85
831,505	27,11
831,919	27
832,332	26,71
832,746	26,92
833,16	26,86
833,573	27,09
833,987	26,74
834,4	26,67
834,813	26,9
835,226	26,65
835,639	26,86
836,052	26,79
836,465	26,84
836,878	26,81
837,29	26,9
837,703	26,72
838,116	27
838,528	26,89
838,94	26,82
839,352	26,87
839,765	26,85
840,177	26,87
840,589	27,01
841	26,79
841,412	26,83
841,824	26,85
842,235	27,09
842,647	26,77
843,058	26,77
843,47	26,68
843,881	26,71
844,292	26,83
844,703	26,79
845,114	26,71
845,525	26,96
845,935	26,8
