Data from L_5_0_Relative__4__00194.txt Node

Date: Mon Jan 29 13:10:08 CET 2024
User: diatiterra
Spectrometer: HDX00911
Trigger mode: 0
Integration Time (sec): 6,000000E-3
Scans to average: 2
Nonlinearity correction enabled: false
Boxcar width: 0
Storing dark spectrum: false
XAxis mode: Wavelengths
Number of Pixels in Spectrum: 2068
>>>>>Begin Spectral Data<<<<<
194,468	32,93
195,025	32,16
195,581	22,67
196,138	8,77
196,694	36,89
197,251	29,71
197,807	25,18
198,363	23,11
198,919	27,19
199,474	24,44
200,03	27,15
200,586	19,96
201,141	26,92
201,696	29,68
202,251	19,14
202,806	23,41
203,361	25,74
203,916	26,65
204,471	30,61
205,025	33,76
205,58	30,65
206,134	25,26
206,688	31,02
207,242	20,17
207,796	29,39
208,35	25,97
208,904	23,67
209,457	24,3
210,011	31,92
210,564	26,4
211,117	26,11
211,67	27,97
212,223	32,55
212,776	27,22
213,329	31,92
213,881	31,21
214,434	25,24
214,986	29,02
215,538	24,12
216,09	23,48
216,642	31,69
217,194	30
217,746	34,53
218,297	26,61
218,849	30,04
219,4	29,23
219,951	23,11
220,502	28,27
221,053	21,64
221,604	25,21
222,155	20,23
222,705	25,26
223,256	22,34
223,806	29,56
224,356	21,58
224,906	26,42
225,456	34,74
226,006	20,23
226,556	24,63
227,106	24,11
227,655	27,08
228,204	14,38
228,754	28,13
229,303	27,03
229,852	26,78
230,401	27,48
230,949	32,75
231,498	24,67
232,047	25,91
232,595	21,13
233,143	28,19
233,691	21,31
234,239	25
234,787	21,14
235,335	26,45
235,883	21,78
236,43	23,14
236,978	26,62
237,525	15,85
238,072	26,14
238,619	27,57
239,166	24,06
239,713	21,33
240,26	25,52
240,806	30,95
241,353	22,3
241,899	34,8
242,445	23,3
242,991	27,11
243,537	13,35
244,083	20,75
244,629	22,67
245,174	20,52
245,72	33,78
246,265	19,81
246,81	25,06
247,355	22,59
247,9	29,76
248,445	21,96
248,99	25,87
249,534	22,22
250,079	16,44
250,623	22,71
251,168	20,36
251,712	25,38
252,256	22,58
252,8	20,92
253,343	24,41
253,887	25,11
254,43	22,53
254,974	23,29
255,517	22,17
256,06	27,15
256,603	20
257,146	24,13
257,689	23,59
258,232	25,4
258,774	22,03
259,317	29,8
259,859	22,32
260,401	26,41
260,943	29,11
261,485	24,89
262,027	24,95
262,569	21
263,11	31,41
263,652	27,76
264,193	19,09
264,734	20,18
265,275	20,42
265,816	25,27
266,357	31,29
266,898	22,15
267,438	23,85
267,979	21,24
268,519	29,1
269,059	17,76
269,6	23,7
270,14	27,93
270,68	30,93
271,219	25,74
271,759	26,74
272,298	21,38
272,838	23,39
273,377	27,78
273,916	25,28
274,455	18,04
274,994	20,26
275,533	26,33
276,072	28,11
276,61	26,43
277,149	25,24
277,687	21,97
278,225	20,59
278,763	24,89
279,301	20,67
279,839	24,73
280,377	16,82
280,914	27,38
281,452	27,75
281,989	22,86
282,526	23,39
283,064	30,04
283,601	15,78
284,137	20,48
284,674	26,94
285,211	29,63
285,747	24,82
286,284	17,58
286,82	30,3
287,356	28,48
287,892	24,04
288,428	23,61
288,964	33,41
289,5	18,88
290,035	23,84
290,571	26,1
291,106	21,53
291,641	28,18
292,176	27,38
292,711	26,1
293,246	24,77
293,781	21,22
294,315	24,19
294,85	20,58
295,384	20,67
295,918	25,78
296,453	30,19
296,987	17,3
297,52	35,75
298,054	30,2
298,588	28,48
299,121	27,49
299,655	26,02
300,188	18,68
300,721	28,14
301,254	21,69
301,787	27,36
302,32	21,66
302,853	25,77
303,385	27,75
303,918	17,82
304,45	18,86
304,982	34,89
305,514	22,45
306,046	31,51
306,578	26,54
307,11	17,02
307,641	22,32
308,173	22,73
308,704	26,79
309,236	30,66
309,767	29,88
310,298	26,16
310,829	23,94
311,359	26,4
311,89	19,19
312,421	22,2
312,951	27,91
313,481	19,82
314,012	23,71
314,542	27,29
315,072	26,88
315,601	22,52
316,131	26,54
316,661	21,5
317,19	27,38
317,72	20
318,249	17,61
318,778	26,96
319,307	16,47
319,836	32,1
320,365	23,04
320,893	19,64
321,422	24,65
321,95	28,67
322,479	26,64
323,007	15,94
323,535	20,7
324,063	25,06
324,591	28,37
325,118	20,66
325,646	29,25
326,173	20,32
326,701	30,24
327,228	25
327,755	23,21
328,282	31,02
328,809	23,62
329,336	21,48
329,862	27,05
330,389	28,28
330,915	17,27
331,441	30,77
331,968	23,37
332,494	21,5
333,02	25,59
333,545	26,36
334,071	20,76
334,597	32,69
335,122	28,06
335,648	19,85
336,173	20,17
336,698	27,06
337,223	16,49
337,748	19,33
338,272	21,97
338,797	21,26
339,322	18,78
339,846	24,04
340,37	27,85
340,894	11,8
341,419	24,58
341,942	23,53
342,466	21,29
342,99	30,71
343,514	21,8
344,037	14,8
344,56	18,83
345,084	21,21
345,607	15,88
346,13	21,76
346,653	25,95
347,175	23,56
347,698	21,41
348,221	19,55
348,743	21,19
349,265	26,96
349,787	22,78
350,309	21,37
350,831	20,52
351,353	20,14
351,875	14,43
352,397	19,33
352,918	18,09
353,439	19,76
353,961	21,34
354,482	18,86
355,003	15,71
355,524	20,88
356,044	20,7
356,565	16,41
357,086	17,84
357,606	14,22
358,126	19,14
358,646	23,32
359,167	18,18
359,687	17,92
360,206	23,04
360,726	13,91
361,246	16,62
361,765	15,35
362,285	17,82
362,804	13,8
363,323	20,93
363,842	17,09
364,361	10,96
364,88	19,34
365,398	11,18
365,917	16,17
366,435	15,81
366,954	16,21
367,472	14,25
367,99	15,43
368,508	16,56
369,026	14,44
369,544	14,15
370,061	16,34
370,579	16,53
371,096	12,95
371,613	17,97
372,131	16,25
372,648	15,18
373,165	15,82
373,681	14,41
374,198	14,95
374,715	13,92
375,231	16,44
375,747	11,78
376,264	14,58
376,78	17,93
377,296	16,68
377,812	12,77
378,327	11,49
378,843	14,49
379,359	14,29
379,874	12,56
380,389	14,72
380,905	13,49
381,42	14,81
381,935	11,87
382,449	12,75
382,964	10,71
383,479	11,5
383,993	11,06
384,508	8,49
385,022	11,02
385,536	9,84
386,05	11,37
386,564	6,64
387,078	11,66
387,592	11,92
388,105	10,89
388,619	10,11
389,132	10,28
389,645	9,68
390,158	11,08
390,671	10,79
391,184	9,03
391,697	11,8
392,21	7,87
392,722	7,93
393,235	10,38
393,747	8,37
394,259	7,72
394,771	9,2
395,283	9,85
395,795	7,46
396,307	8,35
396,818	9,67
397,33	8,9
397,841	9,7
398,353	7,46
398,864	8,99
399,375	7,37
399,886	7,75
400,397	6,84
400,907	7,16
401,418	5,68
401,928	7,66
402,439	7,39
402,949	7,08
403,459	7,17
403,969	6,89
404,479	5,68
404,989	7,08
405,498	5,47
406,008	6,46
406,517	5,64
407,027	5,39
407,536	5,43
408,045	5,04
408,554	5,15
409,063	5
409,572	3,99
410,08	4,8
410,589	4,33
411,097	4,31
411,606	4
412,114	3,11
412,622	3,32
413,13	3,5
413,638	3,25
414,145	3,63
414,653	3,52
415,16	3,07
415,668	3
416,175	3,18
416,682	3,11
417,189	3,11
417,696	2,71
418,203	3,42
418,71	2,59
419,216	2,33
419,723	3,05
420,229	2,68
420,735	2,53
421,242	3,25
421,748	2,66
422,254	2,77
422,759	2,35
423,265	2,52
423,771	2,62
424,276	2,94
424,781	2,58
425,287	2,39
425,792	2,55
426,297	2,48
426,802	2,41
427,306	2,19
427,811	2,56
428,316	2,77
428,82	2,09
429,324	2,43
429,829	2,91
430,333	2,32
430,837	2,09
431,34	2,47
431,844	1,66
432,348	2,1
432,851	2,32
433,355	2,21
433,858	2,49
434,361	2,37
434,864	2,15
435,367	2,48
435,87	2,3
436,373	2,32
436,876	2,53
437,378	2,58
437,88	2,04
438,383	2,39
438,885	2,82
439,387	1,95
439,889	2,5
440,391	2,5
440,892	2,42
441,394	2,13
441,896	2,18
442,397	2,45
442,898	2,39
443,399	2,44
443,9	2,39
444,401	2,37
444,902	2,44
445,403	2,41
445,903	2,24
446,404	2,28
446,904	2,24
447,405	2,3
447,905	2,29
448,405	2,57
448,905	2,37
449,404	2,47
449,904	2,36
450,404	2,36
450,903	2,23
451,403	2,53
451,902	2,7
452,401	2,54
452,9	2,46
453,399	2,22
453,898	2,58
454,396	2,65
454,895	2,56
455,393	2,84
455,892	2,38
456,39	2,38
456,888	2,18
457,386	2,34
457,884	2,51
458,382	2,28
458,879	2,21
459,377	2,37
459,874	2,42
460,372	2,49
460,869	2,37
461,366	2,39
461,863	2,41
462,36	2,57
462,857	2,67
463,353	2,51
463,85	2,41
464,346	2,3
464,843	2,53
465,339	2,28
465,835	2,36
466,331	2,76
466,827	2,33
467,323	2,37
467,818	2,46
468,314	2,33
468,809	2,59
469,305	2,46
469,8	2,65
470,295	2,55
470,79	2,33
471,285	2,52
471,78	2,54
472,274	2,28
472,769	2,44
473,263	2,46
473,758	2,47
474,252	2,52
474,746	2,53
475,24	2,4
475,734	2,44
476,228	2,56
476,721	2,26
477,215	2,47
477,708	2,56
478,202	2,54
478,695	2,4
479,188	2,43
479,681	2,4
480,174	2,54
480,667	2,5
481,159	2,38
481,652	2,31
482,144	2,59
482,637	2,4
483,129	2,58
483,621	2,77
484,113	2,55
484,605	2,6
485,097	2,57
485,588	2,47
486,08	2,64
486,571	2,66
487,063	2,58
487,554	2,53
488,045	2,56
488,536	2,49
489,027	2,75
489,518	2,69
490,008	2,67
490,499	2,68
490,989	2,79
491,48	2,81
491,97	2,91
492,46	2,98
492,95	2,9
493,44	3,06
493,93	2,85
494,419	3,07
494,909	3,06
495,398	2,83
495,888	3,1
496,377	3,05
496,866	3,23
497,355	3,16
497,844	3,19
498,333	3,11
498,821	3,36
499,31	3,45
499,798	3,35
500,287	3,59
500,775	3,53
501,263	3,79
501,751	3,82
502,239	3,74
502,727	3,91
503,215	3,92
503,702	4,03
504,19	4,26
504,677	4,39
505,164	4,54
505,651	4,58
506,139	4,44
506,625	4,85
507,112	4,98
507,599	4,82
508,086	5
508,572	5,18
509,058	5,59
509,545	5,58
510,031	5,87
510,517	5,93
511,003	5,89
511,489	6,16
511,974	6,46
512,46	6,48
512,946	6,72
513,431	6,74
513,916	6,92
514,401	7,11
514,887	7,36
515,371	7,52
515,856	7,62
516,341	7,99
516,826	8,28
517,31	8,42
517,795	8,77
518,279	8,91
518,763	8,98
519,247	9,26
519,731	9,37
520,215	9,68
520,699	10,03
521,182	10,23
521,666	10,49
522,149	10,42
522,633	10,78
523,116	10,76
523,599	11,22
524,082	11,56
524,565	11,8
525,048	11,89
525,53	11,89
526,013	12,25
526,495	12,16
526,978	12,63
527,46	12,66
527,942	12,94
528,424	13,09
528,906	13,45
529,388	13,56
529,87	14,05
530,351	13,92
530,833	13,99
531,314	14,36
531,795	14,11
532,277	14,2
532,758	14,48
533,238	14,55
533,719	14,39
534,2	15
534,681	14,64
535,161	14,88
535,642	14,91
536,122	15,07
536,602	14,99
537,082	15,07
537,562	15,06
538,042	15
538,522	15,34
539,001	15,56
539,481	15,06
539,96	15,43
540,44	15,32
540,919	15,54
541,398	15,51
541,877	15,43
542,356	15,87
542,835	15,36
543,313	15,76
543,792	15,53
544,27	15,74
544,749	15,46
545,227	15,56
545,705	15,55
546,183	15,92
546,661	16,01
547,139	15,74
547,616	15,96
548,094	15,89
548,571	16,19
549,049	15,83
549,526	16,16
550,003	15,95
550,48	16
550,957	15,96
551,434	16,33
551,911	16,23
552,387	16,05
552,864	15,84
553,34	16,12
553,817	16,32
554,293	16,03
554,769	16,11
555,245	16
555,721	15,97
556,197	16,27
556,672	15,94
557,148	15,72
557,623	15,91
558,099	16,12
558,574	15,65
559,049	15,81
559,524	15,82
559,999	15,54
560,474	15,68
560,948	16
561,423	15,82
561,897	15,69
562,372	15,47
562,846	15,58
563,32	15,41
563,794	15,21
564,268	15,13
564,742	15,24
565,216	15,24
565,69	15,21
566,163	15,04
566,636	14,58
567,11	14,78
567,583	14,51
568,056	14,36
568,529	14,63
569,002	14,14
569,475	14,21
569,947	14,09
570,42	13,61
570,892	13,71
571,365	13,7
571,837	13,41
572,309	13,33
572,781	13,24
573,253	13,03
573,725	12,68
574,197	12,87
574,668	12,79
575,14	12,73
575,611	12,56
576,082	12,13
576,554	12,2
577,025	12,26
577,496	11,98
577,967	11,95
578,437	11,99
578,908	11,79
579,379	11,64
579,849	11,61
580,319	11,53
580,79	11,56
581,26	11,5
581,73	11,34
582,2	11,2
582,669	11,04
583,139	11,01
583,609	10,94
584,078	11,08
584,548	11,04
585,017	10,82
585,486	10,63
585,955	10,76
586,424	10,53
586,893	10,47
587,362	10,36
587,83	10,5
588,299	10,24
588,767	10,23
589,236	10,19
589,704	10,06
590,172	10,16
590,64	10,09
591,108	9,92
591,576	9,8
592,043	9,85
592,511	9,85
592,978	9,85
593,446	9,75
593,913	9,82
594,38	9,68
594,847	9,68
595,314	9,69
595,781	9,8
596,248	9,72
596,715	9,79
597,181	9,64
597,647	9,61
598,114	9,68
598,58	9,5
599,046	9,61
599,512	9,39
599,978	9,44
600,444	9,44
600,91	9,6
601,375	9,44
601,841	9,43
602,306	9,4
602,771	9,38
603,236	9,33
603,702	9,22
604,167	9,01
604,631	9,16
605,096	9,15
605,561	8,99
606,025	9,03
606,49	8,88
606,954	8,93
607,418	8,9
607,882	8,86
608,347	8,76
608,81	8,69
609,274	8,61
609,738	8,41
610,202	8,47
610,665	8,4
611,128	8,36
611,592	8,15
612,055	8,2
612,518	8,25
612,981	8,07
613,444	8,07
613,907	7,91
614,369	7,92
614,832	7,74
615,294	7,67
615,757	7,59
616,219	7,54
616,681	7,5
617,143	7,5
617,605	7,4
618,067	7,45
618,529	7,3
618,99	7,22
619,452	7,14
619,913	7,07
620,375	7,07
620,836	7,11
621,297	7,18
621,758	6,9
622,219	6,8
622,68	6,83
623,14	6,9
623,601	6,94
624,061	6,78
624,522	6,82
624,982	6,84
625,442	6,78
625,902	6,71
626,362	6,76
626,822	6,72
627,282	6,66
627,742	6,75
628,201	6,67
628,661	6,72
629,12	6,62
629,579	6,61
630,038	6,63
630,497	6,66
630,956	6,6
631,415	6,55
631,874	6,58
632,332	6,6
632,791	6,52
633,249	6,48
633,708	6,39
634,166	6,53
634,624	6,37
635,082	6,52
635,54	6,38
635,998	6,27
636,455	6,24
636,913	6,32
637,37	6,19
637,828	6,06
638,285	6,01
638,742	5,96
639,199	5,89
639,656	5,78
640,113	5,7
640,57	5,61
641,027	5,53
641,483	5,49
641,94	5,5
642,396	5,35
642,852	5,37
643,309	5,3
643,765	5,13
644,221	5,09
644,676	4,96
645,132	4,88
645,588	4,83
646,043	4,81
646,499	4,67
646,954	4,62
647,409	4,66
647,864	4,45
648,319	4,5
648,774	4,5
649,229	4,25
649,684	4,21
650,139	4,17
650,593	4,12
651,047	4,24
651,502	4,21
651,956	4,17
652,41	4,15
652,864	4,01
653,318	4,04
653,772	3,94
654,225	3,98
654,679	4,03
655,133	3,87
655,586	3,87
656,039	3,99
656,492	3,78
656,946	3,72
657,399	3,59
657,851	3,76
658,304	3,61
658,757	3,59
659,209	3,54
659,662	3,42
660,114	3,46
660,567	3,37
661,019	3,32
661,471	3,33
661,923	3,28
662,375	3,28
662,826	3,17
663,278	3,18
663,73	3,09
664,181	3,01
664,632	2,98
665,084	3,01
665,535	2,98
665,986	2,91
666,437	2,97
666,888	2,92
667,338	3,02
667,789	3,01
668,24	2,99
668,69	3,05
669,14	3,05
669,591	3,1
670,041	3,06
670,491	3,09
670,941	3,13
671,391	3,15
671,84	3,22
672,29	3,25
672,74	3,23
673,189	3,29
673,638	3,38
674,088	3,39
674,537	3,58
674,986	3,6
675,435	3,66
675,883	3,72
676,332	3,74
676,781	3,87
677,229	3,87
677,678	3,97
678,126	4,11
678,574	4,21
679,022	4,21
679,47	4,32
679,918	4,48
680,366	4,53
680,814	4,67
681,261	4,67
681,709	4,78
682,156	4,92
682,604	4,95
683,051	4,93
683,498	5,12
683,945	5,26
684,392	5,33
684,839	5,26
685,286	5,44
685,732	5,49
686,179	5,64
686,625	5,65
687,071	5,89
687,518	5,96
687,964	6,05
688,41	6,21
688,856	6,31
689,301	6,52
689,747	6,65
690,193	6,84
690,638	7,12
691,084	7,36
691,529	7,54
691,974	7,86
692,419	8,16
692,864	8,41
693,309	8,82
693,754	9,16
694,199	9,6
694,643	9,86
695,088	10,19
695,532	10,62
695,977	10,97
696,421	11,35
696,865	11,86
697,309	12,14
697,753	12,64
698,197	12,81
698,64	13,26
699,084	13,65
699,527	14,16
699,971	14,39
700,414	14,91
700,857	15,03
701,3	15,56
701,743	16
702,186	16,16
702,629	16,7
703,072	16,81
703,515	17,13
703,957	17,55
704,399	17,78
704,842	18,27
705,284	18,42
705,726	18,77
706,168	19,03
706,61	19,4
707,052	19,51
707,494	20,06
707,935	20,12
708,377	20,39
708,818	20,48
709,26	20,98
709,701	21,18
710,142	21,42
710,583	21,6
711,024	21,84
711,465	22,08
711,905	22,51
712,346	22,62
712,787	22,9
713,227	23,09
713,667	23,32
714,108	23,43
714,548	23,76
714,988	23,99
715,428	24,02
715,868	24,24
716,307	24,36
716,747	24,6
717,186	24,77
717,626	25,16
718,065	25,02
718,504	25,34
718,944	25,5
719,383	25,55
719,822	25,83
720,261	25,86
720,699	25,98
721,138	26,25
721,576	26,51
722,015	26,46
722,453	26,83
722,892	26,59
723,33	26,67
723,768	26,85
724,206	27,12
724,644	27,25
725,081	27,51
725,519	27,48
725,957	27,71
726,394	27,5
726,832	27,79
727,269	27,81
727,706	28,01
728,143	28,03
728,58	27,94
729,017	28,18
729,454	28,31
729,89	28,15
730,327	28,52
730,764	28,43
731,2	28,51
731,636	28,49
732,072	28,86
732,509	28,83
732,945	28,76
733,38	28,96
733,816	28,69
734,252	28,86
734,688	29,25
735,123	29,02
735,559	28,89
735,994	28,81
736,429	28,95
736,864	29,01
737,299	29,17
737,734	28,95
738,169	29,07
738,604	29,25
739,038	29,04
739,473	29,41
739,907	29,3
740,342	29,51
740,776	29,37
741,21	29,15
741,644	29,07
742,078	29,28
742,512	29,24
742,946	29,33
743,379	29,15
743,813	29,11
744,246	29,21
744,68	29,5
745,113	28,96
745,546	29,28
745,979	29,18
746,412	29,17
746,845	29,02
747,278	29,01
747,711	29,06
748,143	29,16
748,576	29,23
749,008	29,08
749,441	28,98
749,873	29,13
750,305	28,9
750,737	29,15
751,169	29,01
751,601	28,85
752,032	28,93
752,464	28,92
752,896	28,76
753,327	29
753,758	28,9
754,19	28,83
754,621	28,88
755,052	28,58
755,483	28,61
755,914	28,62
756,344	28,92
756,775	28,72
757,206	28,63
757,636	28,7
758,066	28,55
758,497	28,71
758,927	28,81
759,357	28,54
759,787	28,23
760,217	28,62
760,647	28,35
761,076	28,58
761,506	28,4
761,935	28,23
762,365	28,53
762,794	28,31
763,223	28,28
763,653	28,31
764,082	28,14
764,51	28,24
764,939	28,29
765,368	28,28
765,797	28,37
766,225	28,33
766,654	28,37
767,082	28,2
767,51	28,3
767,938	28,05
768,367	28,09
768,795	28,18
769,222	28,03
769,65	28,14
770,078	28,12
770,505	28,03
770,933	27,93
771,36	28,12
771,788	27,9
772,215	27,82
772,642	27,89
773,069	27,92
773,496	28,01
773,923	27,8
774,349	28,17
774,776	27,99
775,203	27,83
775,629	27,8
776,055	27,82
776,482	27,78
776,908	27,98
777,334	27,81
777,76	27,82
778,186	27,89
778,611	27,65
779,037	27,64
779,463	27,84
779,888	27,57
780,314	27,84
780,739	27,75
781,164	27,7
781,589	27,47
782,014	27,83
782,439	27,55
782,864	27,87
783,289	27,42
783,713	27,71
784,138	27,68
784,562	27,52
784,987	27,73
785,411	27,79
785,835	27,57
786,259	27,48
786,683	27,74
787,107	27,47
787,531	27,82
787,954	27,5
788,378	27,45
788,802	27,36
789,225	27,48
789,648	27,48
790,071	27,52
790,495	27,5
790,918	27,51
791,34	27,64
791,763	27,32
792,186	27,44
792,609	27,56
793,031	27,39
793,454	27,43
793,876	27,39
794,298	27,43
794,721	27,4
795,143	27,51
795,565	27,36
795,986	27,5
796,408	27,52
796,83	27,41
797,252	27,41
797,673	27,25
798,094	27,34
798,516	27,36
798,937	27,29
799,358	27,38
799,779	27,29
800,2	27,07
800,621	27,36
801,042	27,32
801,462	27,23
801,883	27,23
802,303	27,46
802,724	27,23
803,144	27,37
803,564	27,47
803,984	27,33
804,404	27,34
804,824	27,35
805,244	27,04
805,664	27,31
806,084	27,28
806,503	27,3
806,923	27,35
807,342	27,37
807,761	27,5
808,18	27,15
808,599	27,34
809,018	27,22
809,437	27,36
809,856	27,13
810,275	27,2
810,693	27,19
811,112	27,22
811,53	27,13
811,949	27,37
812,367	27,29
812,785	27,41
813,203	27,25
813,621	27,4
814,039	27,07
814,457	27,12
814,874	27,39
815,292	27,15
815,709	27,24
816,127	27,21
816,544	27,46
816,961	27,27
817,378	27,18
817,795	27,26
818,212	27,14
818,629	27,32
819,046	27,26
819,462	27,05
819,879	27,26
820,295	27,38
820,712	27,07
821,128	27,27
821,544	27,28
821,96	27,27
822,376	27,28
822,792	27,05
823,208	27,1
823,624	27,2
824,039	27,18
824,455	26,89
824,87	27,09
825,286	27,17
825,701	26,89
826,116	27,13
826,531	27,24
826,946	27,31
827,361	26,91
827,776	26,99
828,19	27,35
828,605	27,22
829,02	27,14
829,434	26,93
829,848	27,1
830,263	26,88
830,677	27,29
831,091	27,2
831,505	27,12
831,919	27,19
832,332	26,98
832,746	26,99
833,16	26,79
833,573	26,93
833,987	26,82
834,4	27,06
834,813	27,12
835,226	26,9
835,639	26,91
836,052	27,03
836,465	27
836,878	26,84
837,29	27,07
837,703	27,07
838,116	26,85
838,528	27,01
838,94	27,01
839,352	27,09
839,765	26,83
840,177	26,86
840,589	26,82
841	27,04
841,412	27,06
841,824	26,82
842,235	27,01
842,647	26,75
843,058	27,01
843,47	26,96
843,881	26,82
844,292	26,95
844,703	26,88
845,114	26,79
845,525	26,91
845,935	26,99
846,346	26,98
846,757	26,9
847,167	26,89
847,577	26,97
