Data from B_5_Relative__4__00029.txt Node

Date: Mon Jan 29 18:09:53 CET 2024
User: diatiterra
Spectrometer: HDX00911
Trigger mode: 0
Integration Time (sec): 6,000000E-3
Scans to average: 2
Nonlinearity correction enabled: false
Boxcar width: 0
Storing dark spectrum: false
XAxis mode: Wavelengths
Number of Pixels in Spectrum: 2068
>>>>>Begin Spectral Data<<<<<
194,468	11,76
195,025	3,54
195,581	17,02
196,138	21,54
196,694	5,75
197,251	17,78
197,807	11,6
198,363	7,64
198,919	17,08
199,474	10
200,03	8,82
200,586	8,16
201,141	10,11
201,696	3,81
202,251	12,18
202,806	7,14
203,361	17,54
203,916	21,92
204,471	10,21
205,025	11,43
205,58	12,54
206,134	14,44
206,688	6,88
207,242	13,27
207,796	15,59
208,35	11,55
208,904	7,12
209,457	12,27
210,011	8,04
210,564	10,07
211,117	10,56
211,67	9,86
212,223	12,67
212,776	13,86
213,329	6,53
213,881	3,93
214,434	12,76
214,986	8,42
215,538	2,56
216,09	8,85
216,642	15,93
217,194	7,62
217,746	7,07
218,297	12,08
218,849	12,46
219,4	15,03
219,951	20
220,502	11,15
221,053	15,67
221,604	17,79
222,155	9,47
222,705	15,72
223,256	10,79
223,806	10,54
224,356	15,22
224,906	8,15
225,456	12,41
226,006	8,39
226,556	13,87
227,106	9,79
227,655	12,89
228,204	12,17
228,754	13,1
229,303	10,51
229,852	16,01
230,401	15,41
230,949	27,24
231,498	15,67
232,047	15,82
232,595	17,38
233,143	12,88
233,691	12,8
234,239	8,58
234,787	13,29
235,335	13,95
235,883	12,19
236,43	13,7
236,978	14,55
237,525	15,3
238,072	8,86
238,619	10,27
239,166	20,2
239,713	12,27
240,26	14,23
240,806	22,34
241,353	17,67
241,899	16,18
242,445	21,68
242,991	20,56
243,537	15,51
244,083	10,91
244,629	17,57
245,174	18,66
245,72	20,74
246,265	18,02
246,81	11,68
247,355	15,81
247,9	13,84
248,445	24,83
248,99	16,26
249,534	20,57
250,079	19,03
250,623	14,58
251,168	17,79
251,712	20,21
252,256	17,61
252,8	22,92
253,343	18,15
253,887	14,97
254,43	24,91
254,974	18,88
255,517	20,47
256,06	17,12
256,603	21,13
257,146	14,81
257,689	19,94
258,232	13,41
258,774	14,02
259,317	18,32
259,859	16,61
260,401	19,7
260,943	17,54
261,485	14,18
262,027	17,59
262,569	21,05
263,11	15,52
263,652	13,97
264,193	18,21
264,734	15,48
265,275	8,03
265,816	16,91
266,357	18,71
266,898	12,63
267,438	6,67
267,979	18,55
268,519	14,08
269,059	17,38
269,6	10,53
270,14	12,21
270,68	17,24
271,219	17,89
271,759	16,79
272,298	12,36
272,838	13,95
273,377	12,96
273,916	11,91
274,455	11,11
274,994	14,39
275,533	17,41
276,072	18,42
276,61	15,02
277,149	6,88
277,687	18,86
278,225	15,75
278,763	17,75
279,301	16,6
279,839	14,13
280,377	13,14
280,914	15,38
281,452	15,45
281,989	20,82
282,526	20,43
283,064	21,88
283,601	18,56
284,137	10,95
284,674	20
285,211	9,35
285,747	13,9
286,284	15,79
286,82	13,83
287,356	15,12
287,892	14,04
288,428	15,25
288,964	17,33
289,5	19,73
290,035	21,22
290,571	16,42
291,106	16,73
291,641	8,81
292,176	13,91
292,711	21,72
293,246	11,91
293,781	13,38
294,315	17,28
294,85	22,99
295,384	22,96
295,918	19,51
296,453	9,19
296,987	20
297,52	11,3
298,054	15,44
298,588	16,93
299,121	15,75
299,655	17,54
300,188	13,31
300,721	20,34
301,254	23,84
301,787	3,25
302,32	23,86
302,853	20,91
303,385	19,05
303,918	14,04
304,45	17,76
304,982	3,19
305,514	20,3
306,046	17,54
306,578	18,57
307,11	16,36
307,641	17,82
308,173	11,9
308,704	20,31
309,236	7,49
309,767	9,58
310,298	11,85
310,829	18,63
311,359	19,22
311,89	17,08
312,421	13,04
312,951	18,91
313,481	14,46
314,012	15,75
314,542	19,52
315,072	17,09
315,601	19,57
316,131	13,5
316,661	19,58
317,19	19,57
317,72	18,68
318,249	15,54
318,778	14,45
319,307	14,53
319,836	21,48
320,365	19,54
320,893	19,15
321,422	16,42
321,95	12,59
322,479	22,49
323,007	17,39
323,535	23,02
324,063	23,88
324,591	17,67
325,118	14,34
325,646	13,08
326,173	26,07
326,701	16,36
327,228	20,13
327,755	18,64
328,282	18,49
328,809	12,96
329,336	19,38
329,862	23,46
330,389	19,8
330,915	15,6
331,441	15,25
331,968	15,81
332,494	11,37
333,02	15,69
333,545	11,55
334,071	17,33
334,597	18,92
335,122	14,38
335,648	20,15
336,173	18,48
336,698	16,78
337,223	21,16
337,748	5,61
338,272	16,17
338,797	15,53
339,322	10,96
339,846	10,55
340,37	15,75
340,894	21,58
341,419	15,1
341,942	20,13
342,466	14,68
342,99	13,85
343,514	14,94
344,037	14,43
344,56	13,79
345,084	14,51
345,607	20,06
346,13	15,38
346,653	17,92
347,175	19,03
347,698	14,58
348,221	14,83
348,743	15,16
349,265	12,8
349,787	15,71
350,309	15,98
350,831	9,85
351,353	17,99
351,875	19,94
352,397	14,88
352,918	8,47
353,439	21,14
353,961	14,37
354,482	14,33
355,003	12,6
355,524	17,86
356,044	14,25
356,565	17,71
357,086	13,49
357,606	13,25
358,126	15,57
358,646	16,67
359,167	16,95
359,687	15,57
360,206	14,46
360,726	12,34
361,246	18,07
361,765	15,79
362,285	11,14
362,804	12,44
363,323	12,16
363,842	15,24
364,361	11,26
364,88	17,3
365,398	13,25
365,917	18,48
366,435	10,94
366,954	12,22
367,472	10,66
367,99	11,7
368,508	13,09
369,026	14,15
369,544	13,09
370,061	13,01
370,579	12,38
371,096	12,77
371,613	14,13
372,131	13,38
372,648	12,82
373,165	18,02
373,681	11,73
374,198	15,25
374,715	11,28
375,231	10,17
375,747	17,36
376,264	9,27
376,78	14,99
377,296	13,77
377,812	13,06
378,327	11,11
378,843	14,18
379,359	11,01
379,874	11,48
380,389	14,58
380,905	14,32
381,42	13,97
381,935	12,93
382,449	15,63
382,964	14,49
383,479	12,77
383,993	12,38
384,508	11,94
385,022	11,55
385,536	11,52
386,05	12,36
386,564	13,64
387,078	11,62
387,592	11,77
388,105	13,47
388,619	14,06
389,132	12,07
389,645	13,41
390,158	13,3
390,671	12,15
391,184	11,11
391,697	11,81
392,21	12,47
392,722	10,96
393,235	11,95
393,747	11,21
394,259	12,88
394,771	11,06
395,283	11,31
395,795	13,82
396,307	11,39
396,818	11,42
397,33	10,29
397,841	12,06
398,353	12,64
398,864	11,68
399,375	10,78
399,886	11,04
400,397	10,96
400,907	11,86
401,418	9,85
401,928	10,98
402,439	11,98
402,949	11,53
403,459	11,23
403,969	11,57
404,479	10,89
404,989	11,75
405,498	12,15
406,008	10,22
406,517	10,97
407,027	11,78
407,536	11,49
408,045	10,64
408,554	10,27
409,063	10,3
409,572	10,75
410,08	11,18
410,589	10,92
411,097	11,68
411,606	10,61
412,114	10,85
412,622	10,98
413,13	11,25
413,638	11,76
414,145	10,52
414,653	10,72
415,16	11,3
415,668	11,84
416,175	10,82
416,682	11,15
417,189	11,01
417,696	11,05
418,203	10,83
418,71	10,97
419,216	10,41
419,723	11,02
420,229	11,08
420,735	10,38
421,242	11,2
421,748	11,59
422,254	10,55
422,759	10,51
423,265	10,65
423,771	9,91
424,276	11,36
424,781	11,39
425,287	10,66
425,792	10,99
426,297	11,5
426,802	10,59
427,306	10,94
427,811	10,67
428,316	10,56
428,82	10,45
429,324	10,64
429,829	11,2
430,333	10,75
430,837	10,79
431,34	10,54
431,844	11,12
432,348	10,47
432,851	10,8
433,355	10,79
433,858	10,67
434,361	10,8
434,864	10,99
435,367	11,3
435,87	11,5
436,373	12,37
436,876	10,68
437,378	10,79
437,88	10,33
438,383	10,51
438,885	10,34
439,387	10,16
439,889	10,52
440,391	10,89
440,892	10,7
441,394	11,16
441,896	10,72
442,397	10,45
442,898	10,46
443,399	11,19
443,9	11,02
444,401	10,81
444,902	10,9
445,403	10,64
445,903	11,04
446,404	11
446,904	10,81
447,405	10,5
447,905	10,8
448,405	10,83
448,905	10,75
449,404	11,03
449,904	11,3
450,404	10,66
450,903	10,86
451,403	11,09
451,902	10,8
452,401	10,98
452,9	10,37
453,399	10,76
453,898	10,46
454,396	10,24
454,895	10,44
455,393	10,18
455,892	10,28
456,39	10,72
456,888	10,26
457,386	10,54
457,884	11,23
458,382	10,55
458,879	10,48
459,377	10,49
459,874	10,64
460,372	10,75
460,869	10,59
461,366	10,65
461,863	10,58
462,36	10,81
462,857	10,86
463,353	10,65
463,85	10,58
464,346	10,78
464,843	10,42
465,339	10,46
465,835	10,6
466,331	10,87
466,827	10,53
467,323	10,31
467,818	10,55
468,314	10,88
468,809	10,68
469,305	10,19
469,8	10,62
470,295	10,4
470,79	10,56
471,285	10,4
471,78	10,68
472,274	10,43
472,769	10,64
473,263	10,41
473,758	11,13
474,252	10,44
474,746	10,58
475,24	10,89
475,734	10,87
476,228	10,51
476,721	10,61
477,215	10,76
477,708	10,79
478,202	10,95
478,695	10,24
479,188	10,39
479,681	10,55
480,174	10,66
480,667	10,77
481,159	10,76
481,652	10,62
482,144	10,59
482,637	10,79
483,129	10,95
483,621	10,83
484,113	10,93
484,605	10,67
485,097	11,1
485,588	10,51
486,08	10,87
486,571	10,91
487,063	10,88
487,554	10,54
488,045	10,7
488,536	10,79
489,027	10,73
489,518	10,53
490,008	10,76
490,499	10,88
490,989	10,65
491,48	10,59
491,97	10,56
492,46	10,68
492,95	10,55
493,44	11,11
493,93	10,85
494,419	10,89
494,909	10,75
495,398	10,8
495,888	10,77
496,377	10,95
496,866	10,61
497,355	10,58
497,844	10,87
498,333	10,68
498,821	10,45
499,31	10,63
499,798	10,93
500,287	10,9
500,775	10,76
501,263	10,82
501,751	10,7
502,239	10,65
502,727	10,8
503,215	10,72
503,702	10,93
504,19	10,9
504,677	10,66
505,164	10,84
505,651	10,77
506,139	10,76
506,625	10,92
507,112	10,94
507,599	11,11
508,086	11,11
508,572	10,86
509,058	11,24
509,545	11,03
510,031	11,05
510,517	10,9
511,003	10,98
511,489	10,89
511,974	10,88
512,46	11,14
512,946	11,35
513,431	10,96
513,916	11
514,401	10,88
514,887	11,22
515,371	11,19
515,856	11
516,341	11,2
516,826	11,3
517,31	11,18
517,795	11,14
518,279	11,38
518,763	11,24
519,247	11,3
519,731	11,41
520,215	11,11
520,699	11,49
521,182	11,37
521,666	11,43
522,149	11,35
522,633	11,59
523,116	11,48
523,599	11,57
524,082	11,39
524,565	11,46
525,048	11,38
525,53	11,41
526,013	11,48
526,495	11,45
526,978	11,62
527,46	11,74
527,942	11,56
528,424	11,42
528,906	11,98
529,388	11,54
529,87	11,83
530,351	11,76
530,833	11,82
531,314	11,63
531,795	11,62
532,277	11,62
532,758	11,69
533,238	11,72
533,719	11,67
534,2	11,84
534,681	11,74
535,161	11,91
535,642	11,66
536,122	11,57
536,602	11,78
537,082	11,75
537,562	11,91
538,042	11,62
538,522	11,83
539,001	11,95
539,481	11,9
539,96	11,93
540,44	12,02
540,919	12,15
541,398	12,11
541,877	12,22
542,356	12,29
542,835	12,21
543,313	12,11
543,792	12,07
544,27	11,92
544,749	11,9
545,227	12,05
545,705	12,09
546,183	12,62
546,661	12,29
547,139	12,1
547,616	12,1
548,094	12,2
548,571	11,8
549,049	11,78
549,526	12,14
550,003	11,9
550,48	11,76
550,957	11,79
551,434	11,53
551,911	11,77
552,387	11,72
552,864	11,86
553,34	11,94
553,817	12,05
554,293	12,04
554,769	11,86
555,245	11,97
555,721	11,8
556,197	11,75
556,672	11,94
557,148	11,67
557,623	11,8
558,099	11,79
558,574	11,91
559,049	11,92
559,524	11,78
559,999	11,98
560,474	11,98
560,948	11,56
561,423	11,89
561,897	12,01
562,372	11,78
562,846	11,99
563,32	11,79
563,794	11,88
564,268	11,74
564,742	11,86
565,216	11,62
565,69	11,75
566,163	11,77
566,636	11,71
567,11	11,69
567,583	11,6
568,056	11,88
568,529	11,71
569,002	11,77
569,475	11,76
569,947	11,71
570,42	11,77
570,892	11,7
571,365	11,73
571,837	11,7
572,309	11,79
572,781	11,72
573,253	11,69
573,725	11,69
574,197	11,6
574,668	11,49
575,14	11,6
575,611	11,63
576,082	11,65
576,554	11,57
577,025	11,74
577,496	11,57
577,967	11,62
578,437	11,49
578,908	11,67
579,379	11,53
579,849	11,52
580,319	11,61
580,79	11,52
581,26	11,66
581,73	11,67
582,2	11,62
582,669	11,7
583,139	11,47
583,609	11,35
584,078	11,47
584,548	11,47
585,017	11,62
585,486	11,45
585,955	11,28
586,424	11,54
586,893	11,59
587,362	11,61
587,83	11,45
588,299	11,41
588,767	11,27
589,236	11,35
589,704	11,57
590,172	11,59
590,64	11,45
591,108	11,26
591,576	11,47
592,043	11,37
592,511	11,43
592,978	11,35
593,446	11,49
593,913	11,48
594,38	11,56
594,847	11,49
595,314	11,23
595,781	11,36
596,248	11,52
596,715	11,36
597,181	11,45
597,647	11,58
598,114	11,38
598,58	11,45
599,046	11,42
599,512	11,52
599,978	11,49
600,444	11,46
600,91	11,45
601,375	11,32
601,841	11,46
602,306	11,41
602,771	11,47
603,236	11,51
603,702	11,33
604,167	11,44
604,631	11,26
605,096	11,45
605,561	11,39
606,025	11,42
606,49	11,19
606,954	11,27
607,418	11,41
607,882	11,44
608,347	11,26
608,81	11,33
609,274	11,47
609,738	11,45
610,202	11,53
610,665	11,47
611,128	11,57
611,592	12,01
612,055	11,89
612,518	11,52
612,981	11,42
613,444	11,49
613,907	11,48
614,369	11,43
614,832	11,33
615,294	11,38
615,757	11,52
616,219	11,4
616,681	11,27
617,143	11,29
617,605	11,47
618,067	11,21
618,529	11,2
618,99	11,28
619,452	11,23
619,913	11,22
620,375	11,26
620,836	11,4
621,297	11,24
621,758	11,26
622,219	11,26
622,68	11,27
623,14	11,27
623,601	11,21
624,061	11,13
624,522	11,32
624,982	11,33
625,442	11,29
625,902	11,22
626,362	11,22
626,822	11,19
627,282	11,12
627,742	11,24
628,201	11,21
628,661	11,17
629,12	11,15
629,579	11,18
630,038	11,02
630,497	11,24
630,956	11,28
631,415	11,49
631,874	11,12
632,332	11,15
632,791	11,17
633,249	11,16
633,708	10,94
634,166	11,15
634,624	11,16
635,082	11,09
635,54	11,15
635,998	11,12
636,455	11,05
636,913	11,13
637,37	11,07
637,828	11,15
638,285	11,1
638,742	11,04
639,199	11,18
639,656	11,1
640,113	11,13
640,57	11,06
641,027	10,99
641,483	10,86
641,94	10,94
642,396	11,03
642,852	11,05
643,309	11,09
643,765	10,91
644,221	10,96
644,676	10,94
645,132	10,84
645,588	10,97
646,043	11,02
646,499	10,97
646,954	10,97
647,409	10,84
647,864	10,86
648,319	10,87
648,774	10,77
649,229	10,87
649,684	10,89
650,139	10,87
650,593	10,83
651,047	10,83
651,502	10,87
651,956	11,07
652,41	10,88
652,864	10,94
653,318	10,99
653,772	10,86
654,225	10,73
654,679	10,89
655,133	10,96
655,586	10,96
656,039	10,71
656,492	10,9
656,946	10,94
657,399	10,85
657,851	11,01
658,304	10,89
658,757	10,88
659,209	10,83
659,662	10,88
660,114	10,87
660,567	10,78
661,019	10,73
661,471	10,78
661,923	10,64
662,375	10,76
662,826	10,63
663,278	10,7
663,73	10,86
664,181	10,76
664,632	10,75
665,084	10,76
665,535	10,77
665,986	10,71
666,437	10,77
666,888	10,69
667,338	10,64
667,789	10,81
668,24	10,76
668,69	10,69
669,14	10,78
669,591	10,7
670,041	10,74
670,491	10,69
670,941	10,78
671,391	10,77
671,84	10,69
672,29	10,66
672,74	10,63
673,189	10,71
673,638	10,73
674,088	10,7
674,537	10,72
674,986	10,69
675,435	10,75
675,883	10,76
676,332	10,79
676,781	10,74
677,229	10,82
677,678	10,65
678,126	10,74
678,574	10,68
679,022	10,8
679,47	10,73
679,918	10,71
680,366	10,71
680,814	10,78
681,261	10,78
681,709	10,83
682,156	10,77
682,604	10,8
683,051	10,86
683,498	10,73
683,945	10,77
684,392	10,77
684,839	10,88
685,286	10,83
685,732	10,97
686,179	10,95
686,625	10,88
687,071	10,87
687,518	10,92
687,964	11,03
688,41	10,93
688,856	10,99
689,301	10,98
689,747	11,03
690,193	11,13
690,638	10,98
691,084	11,08
691,529	11,17
691,974	11,11
692,419	11,04
692,864	11,28
693,309	11,24
693,754	11,34
694,199	11,26
694,643	11,38
695,088	11,3
695,532	11,39
695,977	11,31
696,421	11,5
696,865	11,45
697,309	11,47
697,753	11,62
698,197	11,54
698,64	11,62
699,084	11,72
699,527	11,72
699,971	11,67
700,414	11,72
700,857	11,67
701,3	11,65
701,743	11,83
702,186	11,71
702,629	11,95
703,072	11,82
703,515	11,85
703,957	11,82
704,399	11,83
704,842	11,93
705,284	11,94
705,726	12,03
706,168	12,02
706,61	12,04
707,052	12
707,494	12,14
707,935	12,23
708,377	12,19
708,818	12,11
709,26	12,26
709,701	12,14
710,142	12,18
710,583	12,25
711,024	12,17
711,465	12,28
711,905	12,31
712,346	12,35
712,787	12,3
713,227	12,29
713,667	12,36
714,108	12,3
714,548	12,15
714,988	12,39
715,428	12,29
715,868	12,23
716,307	12,38
716,747	12,41
717,186	12,53
717,626	12,46
718,065	12,35
718,504	12,38
718,944	12,41
719,383	12,52
719,822	12,46
720,261	12,4
720,699	12,54
721,138	12,39
721,576	12,5
722,015	12,41
722,453	12,37
722,892	12,58
723,33	12,61
723,768	12,63
724,206	12,57
724,644	12,64
725,081	12,51
725,519	12,48
725,957	12,45
726,394	12,57
726,832	12,38
727,269	12,48
727,706	12,48
728,143	12,58
728,58	12,46
729,017	12,6
729,454	12,51
729,89	12,44
730,327	12,61
730,764	12,59
731,2	12,63
731,636	12,5
732,072	12,46
732,509	12,55
732,945	12,63
733,38	12,58
733,816	12,53
734,252	12,58
734,688	12,54
735,123	12,59
735,559	12,53
735,994	12,59
736,429	12,44
736,864	12,52
737,299	12,52
737,734	12,59
738,169	12,6
738,604	12,6
739,038	12,63
739,473	12,64
739,907	12,46
740,342	12,48
740,776	12,59
741,21	12,67
741,644	12,56
742,078	12,54
742,512	12,67
742,946	12,54
743,379	12,61
743,813	12,58
744,246	12,53
744,68	12,59
745,113	12,53
745,546	12,56
745,979	12,43
746,412	12,45
746,845	12,54
747,278	12,52
747,711	12,63
748,143	12,54
748,576	12,58
749,008	12,51
749,441	12,45
749,873	12,6
750,305	12,57
750,737	12,42
751,169	12,55
751,601	12,54
752,032	12,41
752,464	12,42
752,896	12,53
753,327	12,57
753,758	12,61
754,19	12,44
754,621	12,5
755,052	12,4
755,483	12,41
755,914	12,46
756,344	12,53
756,775	12,44
757,206	12,41
757,636	12,47
758,066	12,57
758,497	12,5
758,927	12,41
759,357	12,45
759,787	12,55
760,217	12,41
760,647	12,52
761,076	12,47
761,506	12,42
761,935	12,42
762,365	12,37
762,794	12,35
763,223	12,38
763,653	12,39
764,082	12,35
764,51	12,44
764,939	12,41
765,368	12,47
765,797	12,39
766,225	12,39
766,654	12,22
767,082	12,48
767,51	12,45
767,938	12,36
768,367	12,33
768,795	12,3
769,222	12,43
769,65	12,36
770,078	12,37
770,505	12,31
770,933	12,45
771,36	12,41
771,788	12,42
772,215	12,43
772,642	12,33
773,069	12,32
773,496	12,36
773,923	12,52
774,349	12,39
774,776	12,42
775,203	12,41
775,629	12,4
776,055	12,26
776,482	12,39
776,908	12,44
777,334	12,38
777,76	12,26
778,186	12,3
778,611	12,26
779,037	12,48
779,463	12,39
779,888	12,37
780,314	12,49
780,739	12,32
781,164	12,21
781,589	12,37
782,014	12,39
782,439	12,37
782,864	12,34
783,289	12,29
783,713	12,24
784,138	12,26
784,562	12,29
784,987	12,25
785,411	12,27
785,835	12,31
786,259	12,16
786,683	12,22
787,107	12,4
787,531	12,19
787,954	12,29
788,378	12,29
788,802	12,22
789,225	12,17
789,648	12,32
790,071	12,23
790,495	12,34
790,918	12,34
791,34	12,33
791,763	12,36
792,186	12,3
792,609	12,26
793,031	12,18
793,454	12,3
793,876	12,18
794,298	12,21
794,721	12,33
795,143	12,31
795,565	12,11
795,986	12,23
796,408	12,3
796,83	12,22
797,252	12,17
797,673	12,32
798,094	12,15
798,516	12,2
798,937	12,19
799,358	12,21
799,779	12,28
800,2	12,25
800,621	12,18
801,042	12,32
801,462	12,24
801,883	12,2
802,303	12,28
802,724	12,26
803,144	12,4
803,564	12,2
803,984	12,2
804,404	12,18
804,824	12,39
805,244	12,21
805,664	12,17
806,084	12,25
806,503	12,27
806,923	12,25
807,342	12,16
807,761	12,27
808,18	12,24
808,599	12,19
809,018	12,3
809,437	12,26
809,856	12,21
810,275	12,28
810,693	12,28
811,112	12,24
811,53	12,24
811,949	12,23
812,367	12,14
812,785	12,19
813,203	12,13
813,621	12,32
814,039	12,18
814,457	12,38
814,874	12,19
815,292	12,35
815,709	12,36
816,127	12,12
816,544	12,41
816,961	12,23
817,378	12,33
817,795	12,06
818,212	12,08
818,629	12,28
819,046	12,16
819,462	12,25
819,879	12,33
820,295	12,07
820,712	12,16
821,128	12,26
821,544	12,16
821,96	12,13
822,376	12,27
822,792	12,23
823,208	12,23
823,624	12,18
824,039	12,25
824,455	12,28
824,87	12,25
825,286	12,2
825,701	12,28
826,116	12,21
826,531	12,24
826,946	12,17
827,361	12,3
827,776	12,21
828,19	12,21
828,605	12,23
829,02	12,15
829,434	12,25
829,848	12,06
830,263	12,22
830,677	12,21
831,091	12,13
831,505	12,28
831,919	12,31
832,332	11,97
832,746	12,24
833,16	12,33
833,573	12,21
833,987	12,14
