Data from C_2__Relative__0__00032.txt Node

Date: Mon Jan 29 18:10:52 CET 2024
User: diatiterra
Spectrometer: HDX00911
Trigger mode: 0
Integration Time (sec): 6,000000E-3
Scans to average: 2
Nonlinearity correction enabled: false
Boxcar width: 0
Storing dark spectrum: false
XAxis mode: Wavelengths
Number of Pixels in Spectrum: 2068
>>>>>Begin Spectral Data<<<<<
194,468	45,1
195,025	23,89
195,581	37,23
196,138	30
196,694	40,23
197,251	33,33
197,807	38
198,363	34,91
198,919	35,59
199,474	31,07
200,03	27,21
200,586	26,19
201,141	30,34
201,696	26,64
202,251	28,41
202,806	33,46
203,361	29,82
203,916	33,56
204,471	25,35
205,025	26,43
205,58	32,97
206,134	33,33
206,688	33,33
207,242	30,95
207,796	33,9
208,35	30,32
208,904	19,32
209,457	26,35
210,011	26,92
210,564	30,9
211,117	30,63
211,67	32,04
212,223	22,26
212,776	29,96
213,329	30,24
213,881	30,71
214,434	30
214,986	24,24
215,538	29,67
216,09	34,43
216,642	32,22
217,194	33,77
217,746	29,63
218,297	23,15
218,849	28,66
219,4	33,22
219,951	35,27
220,502	29,97
221,053	26,65
221,604	29,87
222,155	34,98
222,705	33,78
223,256	31,65
223,806	31,29
224,356	35,14
224,906	29,26
225,456	28,28
226,006	25,84
226,556	22,26
227,106	29,72
227,655	30,31
228,204	27,63
228,754	33,45
229,303	33,22
229,852	30,39
230,401	27,24
230,949	35,8
231,498	32,46
232,047	30,64
232,595	29,43
233,143	40,91
233,691	28,4
234,239	30,22
234,787	30,77
235,335	29,25
235,883	29,03
236,43	31,48
236,978	39,64
237,525	27,99
238,072	30,63
238,619	21,58
239,166	33,33
239,713	39,78
240,26	29,96
240,806	34,4
241,353	27,56
241,899	34,95
242,445	35,31
242,991	33,1
243,537	34,98
244,083	29,82
244,629	35,47
245,174	34,33
245,72	31,44
246,265	32,51
246,81	30,66
247,355	28,68
247,9	22,84
248,445	40,69
248,99	24,57
249,534	32,59
250,079	34,33
250,623	29,83
251,168	35,91
251,712	29,79
252,256	29,24
252,8	35,07
253,343	35,03
253,887	29,25
254,43	35,32
254,974	32,52
255,517	35,91
256,06	25,34
256,603	30,19
257,146	26,94
257,689	30,7
258,232	26,05
258,774	34,69
259,317	29,67
259,859	26,94
260,401	28,79
260,943	33,96
261,485	29,43
262,027	26,55
262,569	31,95
263,11	31,41
263,652	29,04
264,193	21,07
264,734	37,3
265,275	32,53
265,816	29,86
266,357	33,45
266,898	25,6
267,438	29,41
267,979	33,45
268,519	28,16
269,059	31,21
269,6	28,42
270,14	26,4
270,68	28,74
271,219	30,53
271,759	29,85
272,298	25,82
272,838	27,52
273,377	27,41
273,916	28,88
274,455	26,44
274,994	20,14
275,533	29,69
276,072	30,45
276,61	28,67
277,149	28,26
277,687	27,05
278,225	30,82
278,763	25,72
279,301	25,66
279,839	28,26
280,377	22,99
280,914	25,27
281,452	34,15
281,989	29,69
282,526	30,47
283,064	30,21
283,601	34,47
284,137	26,28
284,674	24,91
285,211	32,37
285,747	33,9
286,284	23,51
286,82	20,21
287,356	28,52
287,892	29,82
288,428	25,76
288,964	34,66
289,5	35,03
290,035	36,33
290,571	36,94
291,106	29,45
291,641	25,67
292,176	33,08
292,711	35,17
293,246	28,52
293,781	26,02
294,315	30,15
294,85	34,67
295,384	31,85
295,918	31,36
296,453	29,33
296,987	35,86
297,52	24,32
298,054	24,26
298,588	30,71
299,121	25,27
299,655	27,02
300,188	25,86
300,721	33,1
301,254	30,96
301,787	27,24
302,32	28,03
302,853	26,13
303,385	32,6
303,918	33,68
304,45	28,19
304,982	23,9
305,514	29,52
306,046	28,42
306,578	32,5
307,11	30,11
307,641	24,73
308,173	30,11
308,704	29,89
309,236	27,72
309,767	29,17
310,298	25,78
310,829	33,84
311,359	33,1
311,89	32,74
312,421	27,54
312,951	32
313,481	29,32
314,012	32,97
314,542	36,64
315,072	33,45
315,601	34,52
316,131	30,29
316,661	36,25
317,19	27,76
317,72	29,67
318,249	32,77
318,778	25,48
319,307	40,54
319,836	31,54
320,365	31,92
320,893	28,72
321,422	22,01
321,95	25,56
322,479	30,45
323,007	30,07
323,535	27,17
324,063	36,94
324,591	21
325,118	26,57
325,646	29,23
326,173	36,79
326,701	28,36
327,228	30,35
327,755	34,77
328,282	35,85
328,809	28,52
329,336	28,03
329,862	26,15
330,389	25,6
330,915	35,46
331,441	26,44
331,968	28,87
332,494	24,75
333,02	30,29
333,545	25,63
334,071	30,33
334,597	28,38
335,122	22,41
335,648	35,16
336,173	31,02
336,698	27,05
337,223	30,72
337,748	27,72
338,272	22,44
338,797	34,95
339,322	25,25
339,846	25
340,37	21,61
340,894	33,22
341,419	30,2
341,942	22,48
342,466	27,65
342,99	22,15
343,514	24,68
344,037	27,54
344,56	25,71
345,084	23,03
345,607	27,05
346,13	31,69
346,653	22,96
347,175	30,65
347,698	24,11
348,221	23,55
348,743	26,53
349,265	25,6
349,787	29,14
350,309	28,1
350,831	27,16
351,353	26,19
351,875	25,84
352,397	26,45
352,918	27,68
353,439	29,54
353,961	25,63
354,482	27,25
355,003	27,61
355,524	30,61
356,044	25,59
356,565	27,93
357,086	22,65
357,606	23,61
358,126	25,79
358,646	25,12
359,167	20,39
359,687	26,18
360,206	26,02
360,726	22,59
361,246	29,16
361,765	24,12
362,285	23,7
362,804	25,56
363,323	23,17
363,842	23,1
364,361	24,68
364,88	25,74
365,398	20,09
365,917	25,05
366,435	23,82
366,954	24,65
367,472	24,73
367,99	26,49
368,508	22,07
369,026	20,16
369,544	22
370,061	21,44
370,579	21,2
371,096	20,8
371,613	21,83
372,131	26,58
372,648	21,12
373,165	26,86
373,681	22,24
374,198	22,46
374,715	22,92
375,231	18,12
375,747	23,47
376,264	23,64
376,78	24,24
377,296	22,47
377,812	20,33
378,327	18,07
378,843	26,44
379,359	22,17
379,874	21,86
380,389	23,66
380,905	22,41
381,42	21,67
381,935	24,13
382,449	20,84
382,964	21,19
383,479	24,65
383,993	22
384,508	22,6
385,022	22,75
385,536	21,14
386,05	21,3
386,564	20,88
387,078	19,9
387,592	20,94
388,105	21,93
388,619	20,75
389,132	19,87
389,645	19,65
390,158	18,64
390,671	20,49
391,184	17,71
391,697	18,9
392,21	19,16
392,722	16,56
393,235	19,15
393,747	19,42
394,259	16,51
394,771	15,51
395,283	17,2
395,795	16,46
396,307	16,96
396,818	17,78
397,33	16,36
397,841	17,45
398,353	16,63
398,864	15,11
399,375	16,66
399,886	14,15
400,397	15,12
400,907	15,2
401,418	14,46
401,928	14,08
402,439	15,17
402,949	14,03
403,459	13,72
403,969	13,37
404,479	12,78
404,989	13,33
405,498	12,4
406,008	10,73
406,517	11,76
407,027	11,47
407,536	11,58
408,045	10,34
408,554	11,07
409,063	9,96
409,572	9,79
410,08	9,71
410,589	9,7
411,097	9,41
411,606	9,38
412,114	9,53
412,622	8,29
413,13	8,53
413,638	7,9
414,145	6,75
414,653	7,66
415,16	7,42
415,668	6,85
416,175	7
416,682	7,48
417,189	6,56
417,696	6,97
418,203	6,96
418,71	6,59
419,216	6,64
419,723	7,08
420,229	6,18
420,735	6,45
421,242	6,21
421,748	6,84
422,254	5,53
422,759	5,89
423,265	6,13
423,771	5,84
424,276	5,59
424,781	5,61
425,287	5,65
425,792	5,92
426,297	6,19
426,802	5,63
427,306	5,68
427,811	5,66
428,316	5,72
428,82	6,02
429,324	5,44
429,829	5,68
430,333	5,47
430,837	5,27
431,34	5,14
431,844	5,19
432,348	5,1
432,851	5,68
433,355	5,42
433,858	5,31
434,361	5,12
434,864	5,53
435,367	5,34
435,87	5,08
436,373	5,24
436,876	5,1
437,378	5,17
437,88	5,21
438,383	5,27
438,885	5,03
439,387	5,27
439,889	5,35
440,391	5,35
440,892	5,06
441,394	4,96
441,896	5,21
442,397	5,17
442,898	5,08
443,399	5,31
443,9	5,46
444,401	5,37
444,902	5,11
445,403	5,38
445,903	5,31
446,404	5,35
446,904	5,21
447,405	5,09
447,905	5,34
448,405	5,13
448,905	5,46
449,404	5,16
449,904	5,14
450,404	5,4
450,903	5,49
451,403	5,52
451,902	5,55
452,401	5,53
452,9	5,39
453,399	5,12
453,898	5,5
454,396	5,26
454,895	5,62
455,393	5,44
455,892	5,5
456,39	5,53
456,888	5,15
457,386	5,52
457,884	5,46
458,382	5,34
458,879	5,43
459,377	5,44
459,874	5,19
460,372	5,39
460,869	5,52
461,366	5,25
461,863	5,49
462,36	5,82
462,857	5,66
463,353	5,67
463,85	5,53
464,346	5,41
464,843	5,58
465,339	5,32
465,835	5,46
466,331	5,44
466,827	5,35
467,323	5,14
467,818	5,63
468,314	5,59
468,809	5,51
469,305	5,51
469,8	5,48
470,295	5,39
470,79	5,59
471,285	5,37
471,78	5,42
472,274	5,43
472,769	5,51
473,263	5,44
473,758	5,29
474,252	5,26
474,746	5,52
475,24	5,25
475,734	5,48
476,228	5,8
476,721	5,56
477,215	5,39
477,708	5,53
478,202	5,6
478,695	5,24
479,188	5,26
479,681	5,31
480,174	5,36
480,667	5,35
481,159	5,45
481,652	5,42
482,144	5,47
482,637	5,44
483,129	5,58
483,621	5,65
484,113	5,78
484,605	5,47
485,097	5,77
485,588	5,63
486,08	5,62
486,571	5,75
487,063	5,67
487,554	5,58
488,045	5,83
488,536	5,57
489,027	5,94
489,518	5,67
490,008	6,11
490,499	5,61
490,989	5,75
491,48	5,91
491,97	6,03
492,46	5,76
492,95	6,08
493,44	5,88
493,93	6,21
494,419	6,2
494,909	6,06
495,398	6,01
495,888	6,36
496,377	6,11
496,866	6,4
497,355	6,31
497,844	6,1
498,333	6,27
498,821	6,27
499,31	6,29
499,798	6,63
500,287	6,62
500,775	6,56
501,263	6,85
501,751	6,79
502,239	6,92
502,727	6,96
503,215	6,94
503,702	7,36
504,19	7,19
504,677	7,14
505,164	7,61
505,651	7,52
506,139	7,59
506,625	7,78
507,112	7,73
507,599	7,95
508,086	8,14
508,572	8,24
509,058	8,56
509,545	8,4
510,031	8,79
510,517	8,74
511,003	9,17
511,489	9,42
511,974	9,56
512,46	9,7
512,946	9,83
513,431	9,74
513,916	10
514,401	10,33
514,887	10,54
515,371	10,74
515,856	10,68
516,341	10,86
516,826	11,37
517,31	11,35
517,795	11,8
518,279	11,87
518,763	12,23
519,247	12,3
519,731	12,42
520,215	12,93
520,699	12,99
521,182	13,18
521,666	13,28
522,149	13,79
522,633	13,9
523,116	14,22
523,599	14,41
524,082	14,53
524,565	14,62
525,048	14,7
525,53	15,29
526,013	15,46
526,495	15,63
526,978	15,65
527,46	16,12
527,942	16,15
528,424	16,32
528,906	16,32
529,388	16,53
529,87	16,41
530,351	16,5
530,833	16,92
531,314	16,94
531,795	17,21
532,277	17,07
532,758	17,56
533,238	17,32
533,719	17,51
534,2	17,6
534,681	17,85
535,161	17,78
535,642	17,89
536,122	18,06
536,602	17,93
537,082	18,08
537,562	18,01
538,042	17,86
538,522	18,05
539,001	17,99
539,481	18,13
539,96	18,33
540,44	18,19
540,919	18,38
541,398	18,53
541,877	18,22
542,356	18,31
542,835	18,61
543,313	18,28
543,792	18,57
544,27	18,51
544,749	18,69
545,227	18,47
545,705	18,7
546,183	18,64
546,661	18,66
547,139	18,67
547,616	18,49
548,094	18,79
548,571	18,94
549,049	19,07
549,526	18,81
550,003	18,88
550,48	19,06
550,957	18,9
551,434	18,84
551,911	19,03
552,387	18,93
552,864	18,97
553,34	18,9
553,817	19,02
554,293	18,87
554,769	18,97
555,245	18,91
555,721	18,98
556,197	18,99
556,672	19,02
557,148	18,72
557,623	19,03
558,099	18,8
558,574	18,85
559,049	18,69
559,524	18,86
559,999	18,72
560,474	18,53
560,948	18,61
561,423	18,83
561,897	18,49
562,372	18,54
562,846	18,47
563,32	18,97
563,794	18,22
564,268	18,2
564,742	17,84
565,216	18,03
565,69	17,86
566,163	17,98
566,636	17,78
567,11	17,75
567,583	17,6
568,056	17,49
568,529	17,31
569,002	17,18
569,475	16,86
569,947	16,95
570,42	16,89
570,892	16,43
571,365	16,54
571,837	16,56
572,309	16,43
572,781	16,28
573,253	15,98
573,725	15,97
574,197	15,92
574,668	15,84
575,14	15,73
575,611	15,54
576,082	15,48
576,554	15,26
577,025	15,26
577,496	15,04
577,967	14,91
578,437	15
578,908	14,78
579,379	14,54
579,849	14,81
580,319	14,42
580,79	14,33
581,26	14,2
581,73	14,13
582,2	14,25
582,669	14,13
583,139	14,17
583,609	14
584,078	13,82
584,548	13,78
585,017	13,64
585,486	13,61
585,955	13,6
586,424	13,68
586,893	13,52
587,362	13,48
587,83	13,42
588,299	13,3
588,767	13,46
589,236	13,08
589,704	13,06
590,172	13,18
590,64	12,93
591,108	13,01
591,576	12,99
592,043	12,79
592,511	12,89
592,978	12,74
593,446	12,85
593,913	12,88
594,38	12,79
594,847	12,75
595,314	12,71
595,781	12,54
596,248	12,52
596,715	12,49
597,181	12,37
597,647	12,57
598,114	12,62
598,58	12,52
599,046	12,46
599,512	12,23
599,978	12,35
600,444	12,5
600,91	12,54
601,375	12,29
601,841	12,41
602,306	12,28
602,771	12,26
603,236	12,28
603,702	12,24
604,167	11,93
604,631	12
605,096	12,08
605,561	12,12
606,025	12,06
606,49	11,85
606,954	11,82
607,418	11,83
607,882	11,78
608,347	11,77
608,81	11,54
609,274	11,52
609,738	11,54
610,202	11,37
610,665	11,17
611,128	11,38
611,592	11,18
612,055	11,03
612,518	11
612,981	11,08
613,444	10,8
613,907	10,77
614,369	10,76
614,832	10,72
615,294	10,76
615,757	10,63
616,219	10,58
616,681	10,62
617,143	10,39
617,605	10,31
618,067	10,37
618,529	10,24
618,99	10,3
619,452	10,09
619,913	10,1
620,375	9,99
620,836	9,99
621,297	10
621,758	10,06
622,219	9,99
622,68	9,81
623,14	9,94
623,601	9,87
624,061	9,67
624,522	9,79
624,982	9,83
625,442	9,68
625,902	9,69
626,362	9,55
626,822	9,65
627,282	9,69
627,742	9,75
628,201	9,65
628,661	9,56
629,12	9,55
629,579	9,55
630,038	9,5
630,497	9,49
630,956	9,54
631,415	9,54
631,874	9,51
632,332	9,51
632,791	9,46
633,249	9,44
633,708	9,31
634,166	9,15
634,624	9,34
635,082	9,17
635,54	9,27
635,998	9,15
636,455	9,18
636,913	9,16
637,37	8,92
637,828	8,89
638,285	8,83
638,742	8,76
639,199	8,68
639,656	8,63
640,113	8,62
640,57	8,51
641,027	8,45
641,483	8,4
641,94	8,15
642,396	8,26
642,852	8,18
643,309	8,16
643,765	7,97
644,221	7,92
644,676	7,88
645,132	7,71
645,588	7,58
646,043	7,58
646,499	7,46
646,954	7,4
647,409	7,33
647,864	7,3
648,319	7,18
648,774	7,15
649,229	7,05
649,684	7,13
650,139	6,96
650,593	6,92
651,047	6,93
651,502	6,9
651,956	6,88
652,41	6,83
652,864	6,77
653,318	6,81
653,772	6,77
654,225	6,79
654,679	6,62
655,133	6,64
655,586	6,64
656,039	6,49
656,492	6,42
656,946	6,53
657,399	6,45
657,851	6,46
658,304	6,31
658,757	6,19
659,209	6,22
659,662	6,13
660,114	6,04
660,567	6,06
661,019	6,09
661,471	6,08
661,923	5,82
662,375	5,81
662,826	5,81
663,278	5,68
663,73	5,78
664,181	5,81
664,632	5,64
665,084	5,58
665,535	5,65
665,986	5,62
666,437	5,66
666,888	5,52
667,338	5,66
667,789	5,53
668,24	5,62
668,69	5,59
669,14	5,58
669,591	5,5
670,041	5,62
670,491	5,63
670,941	5,59
671,391	5,67
671,84	5,66
672,29	5,69
672,74	5,73
673,189	5,71
673,638	5,86
674,088	5,88
674,537	5,95
674,986	5,91
675,435	5,89
675,883	6,03
676,332	6,06
676,781	6,18
677,229	6,15
677,678	6,25
678,126	6,32
678,574	6,45
679,022	6,51
679,47	6,44
679,918	6,52
680,366	6,55
680,814	6,72
681,261	6,81
681,709	6,97
682,156	6,96
682,604	7,03
683,051	7
683,498	7,11
683,945	7,26
684,392	7,35
684,839	7,45
685,286	7,61
685,732	7,63
686,179	7,7
686,625	7,68
687,071	7,85
687,518	8
687,964	8,18
688,41	8,24
688,856	8,52
689,301	8,61
689,747	8,8
690,193	8,96
690,638	9,15
691,084	9,39
691,529	9,71
691,974	9,94
692,419	10,25
692,864	10,68
693,309	10,99
693,754	11,17
694,199	11,7
694,643	11,95
695,088	12,28
695,532	12,73
695,977	12,98
696,421	13,41
696,865	13,92
697,309	14,34
697,753	14,59
698,197	15,01
698,64	15,28
699,084	15,68
699,527	16,14
699,971	16,61
700,414	16,92
700,857	17,18
701,3	17,5
701,743	17,8
702,186	18,26
702,629	18,66
703,072	18,98
703,515	19,27
703,957	19,7
704,399	19,91
704,842	20,04
705,284	20,63
705,726	20,75
706,168	21,2
706,61	21,49
707,052	21,76
707,494	21,79
707,935	22,3
708,377	22,68
708,818	22,75
709,26	23,02
709,701	23,37
710,142	23,71
710,583	23,72
711,024	24
711,465	24,27
711,905	24,6
712,346	24,59
712,787	25,18
713,227	25,22
713,667	25,41
714,108	25,59
714,548	25,98
714,988	25,95
715,428	26,23
715,868	26,44
716,307	26,59
716,747	27
717,186	27,06
717,626	27,48
718,065	27,29
718,504	27,52
718,944	27,67
719,383	27,86
719,822	28,1
720,261	28,13
720,699	28,42
721,138	28,61
721,576	28,81
722,015	29,01
722,453	28,86
722,892	29,27
723,33	29,33
723,768	29,25
724,206	29,52
724,644	29,71
725,081	29,62
725,519	29,71
725,957	29,77
726,394	30,19
726,832	30,18
727,269	30,32
727,706	30,57
728,143	30,72
728,58	30,64
729,017	30,68
729,454	30,76
729,89	30,5
730,327	30,92
730,764	30,93
731,2	31,12
731,636	31,02
732,072	31
732,509	31,16
732,945	31,21
733,38	31,42
733,816	31,18
734,252	31,51
734,688	31,36
735,123	31,42
735,559	31,68
735,994	31,57
736,429	31,65
736,864	31,7
737,299	31,51
737,734	31,86
738,169	31,85
738,604	31,79
739,038	31,92
739,473	31,85
739,907	31,84
740,342	31,72
740,776	31,79
741,21	31,89
741,644	31,9
742,078	31,96
742,512	32,12
742,946	31,57
743,379	31,85
743,813	31,98
744,246	31,91
744,68	31,72
745,113	31,94
745,546	31,69
745,979	31,88
746,412	31,71
746,845	31,79
747,278	31,53
747,711	31,87
748,143	31,9
748,576	31,91
749,008	31,75
749,441	31,82
749,873	31,7
750,305	31,9
750,737	31,69
751,169	31,72
751,601	31,86
752,032	31,52
752,464	31,66
752,896	31,57
753,327	31,53
753,758	31,77
754,19	31,59
754,621	31,53
755,052	31,35
755,483	31,35
755,914	31,46
756,344	31,36
756,775	31,43
757,206	31,49
757,636	31,41
758,066	31,22
758,497	31,37
758,927	31,47
759,357	31,43
759,787	31,38
760,217	31,16
760,647	31,39
761,076	31,41
761,506	31,25
761,935	31,48
762,365	31,13
762,794	31,08
763,223	31,12
763,653	31,02
764,082	31,07
764,51	31,06
764,939	30,99
765,368	30,97
765,797	31,13
766,225	31,23
766,654	30,97
767,082	31,13
767,51	30,87
767,938	31,03
768,367	30,75
768,795	30,74
769,222	30,95
769,65	30,84
770,078	30,87
770,505	30,8
770,933	31,05
771,36	30,55
771,788	30,85
772,215	30,71
772,642	30,99
773,069	30,96
773,496	30,72
773,923	30,83
774,349	30,75
774,776	30,64
775,203	30,6
775,629	30,76
776,055	30,69
776,482	30,83
776,908	30,58
777,334	30,78
777,76	30,62
778,186	30,4
778,611	30,53
779,037	30,58
779,463	30,66
779,888	30,54
780,314	30,54
780,739	30,55
781,164	30,51
781,589	30,49
782,014	30,72
782,439	30,54
782,864	30,52
783,289	30,47
783,713	30,23
784,138	30,58
784,562	30,4
784,987	30,31
785,411	30,53
785,835	30,33
786,259	30,3
786,683	30,35
787,107	30,6
787,531	30,23
787,954	30,44
788,378	30,26
788,802	30,3
789,225	30,14
789,648	30,43
790,071	30,24
790,495	30,44
790,918	30,23
791,34	30,48
791,763	30,31
792,186	30,42
792,609	30,28
793,031	30,53
793,454	30,49
793,876	30,39
794,298	30,21
794,721	30,26
795,143	30,24
795,565	30,2
795,986	30,1
796,408	30,16
796,83	30,12
797,252	30,27
797,673	30,09
798,094	30,39
798,516	30,28
798,937	29,96
799,358	30,26
799,779	30,33
800,2	30,13
800,621	30,09
801,042	30,18
801,462	30,25
801,883	30,02
802,303	30,05
802,724	30,29
803,144	30,38
803,564	29,92
803,984	30,14
804,404	30,23
804,824	30,1
805,244	30,18
805,664	30,08
806,084	30,17
806,503	30,27
806,923	30,06
807,342	30,19
807,761	29,99
808,18	30,1
808,599	30,08
809,018	30,01
809,437	30,04
809,856	30,07
810,275	30,05
810,693	30,1
811,112	30,15
811,53	30,27
811,949	29,78
812,367	30,02
812,785	30,01
813,203	30,18
813,621	29,96
814,039	29,86
814,457	30,33
814,874	30,05
815,292	29,96
815,709	30,11
816,127	29,85
816,544	30,16
816,961	30,09
817,378	30,12
817,795	29,59
818,212	29,95
818,629	30,05
819,046	30,09
819,462	30
819,879	30,13
820,295	29,95
820,712	29,95
821,128	30,15
821,544	29,92
821,96	30,11
822,376	30,06
822,792	29,68
823,208	29,94
823,624	29,79
824,039	30,17
824,455	30,09
824,87	29,95
825,286	29,97
825,701	29,98
826,116	30,14
826,531	29,9
826,946	29,81
827,361	29,93
827,776	29,97
828,19	29,89
828,605	29,69
829,02	29,75
829,434	29,7
829,848	29,9
830,263	29,92
830,677	29,84
831,091	29,96
831,505	29,74
831,919	30,16
832,332	29,89
832,746	29,75
833,16	29,95
833,573	29,75
833,987	29,65
834,4	29,78
834,813	29,86
835,226	29,96
835,639	29,72
836,052	30,1
836,465	29,93
836,878	29,65
837,29	29,84
837,703	29,81
838,116	29,81
838,528	29,84
838,94	29,82
839,352	29,68
839,765	29,62
840,177	29,89
840,589	29,68
841	29,99
841,412	29,7
841,824	29,7
842,235	29,91
842,647	29,72
843,058	29,72
843,47	29,88
843,881	29,62
844,292	29,65
