Data from C_4__Relative__6__00048.txt Node

Date: Mon Jan 29 18:12:44 CET 2024
User: diatiterra
Spectrometer: HDX00911
Trigger mode: 0
Integration Time (sec): 6,000000E-3
Scans to average: 2
Nonlinearity correction enabled: false
Boxcar width: 0
Storing dark spectrum: false
XAxis mode: Wavelengths
Number of Pixels in Spectrum: 2068
>>>>>Begin Spectral Data<<<<<
194,468	44,12
195,025	30,09
195,581	43,62
196,138	32,31
196,694	44,25
197,251	33,33
197,807	33,6
198,363	39,64
198,919	36,3
199,474	31,79
200,03	34,56
200,586	38,78
201,141	31,46
201,696	33,91
202,251	34,32
202,806	32,71
203,361	40,35
203,916	44,52
204,471	35,21
205,025	32,14
205,58	38,71
206,134	37,41
206,688	39,13
207,242	27,21
207,796	33,56
208,35	29,96
208,904	33,9
209,457	36,46
210,011	34,97
210,564	34,72
211,117	36,97
211,67	33,45
212,223	33,56
212,776	39,33
213,329	28,87
213,881	32,86
214,434	36,21
214,986	28,28
215,538	39,56
216,09	32,46
216,642	37,04
217,194	30,79
217,746	35,69
218,297	35,23
218,849	34,58
219,4	40,21
219,951	36,73
220,502	36,93
221,053	33,86
221,604	45,97
222,155	45,68
222,705	34,45
223,256	46,4
223,806	40,14
224,356	37,32
224,906	38,89
225,456	37,93
226,006	29,53
226,556	43,43
227,106	41,26
227,655	31,36
228,204	36,18
228,754	34,14
229,303	44,07
229,852	35,29
230,401	43,73
230,949	48,25
231,498	42,91
232,047	36,03
232,595	42,2
233,143	38,26
233,691	45,2
234,239	35,82
234,787	38,11
235,335	33,67
235,883	43,01
236,43	29,26
236,978	31,27
237,525	36,94
238,072	31,37
238,619	31,51
239,166	40,07
239,713	40,89
240,26	43,45
240,806	34,75
241,353	37,81
241,899	31,72
242,445	39,51
242,991	40,42
243,537	33,66
244,083	35,27
244,629	32,09
245,174	42,91
245,72	38,13
246,265	42,4
246,81	39,42
247,355	33,46
247,9	33,91
248,445	42,76
248,99	31,83
249,534	38,92
250,079	34,33
250,623	31,86
251,168	31,88
251,712	42,91
252,256	32,56
252,8	39,58
253,343	40,76
253,887	39,46
254,43	41,26
254,974	39,51
255,517	33,89
256,06	29,79
256,603	47,17
257,146	36,36
257,689	31,33
258,232	35,63
258,774	30,26
259,317	32,97
259,859	29,15
260,401	41,29
260,943	33,96
261,485	42,55
262,027	40,69
262,569	29,7
263,11	37,91
263,652	31,62
264,193	35,71
264,734	36,9
265,275	36,95
265,816	41,01
266,357	42,45
266,898	33,79
267,438	30,98
267,979	38,55
268,519	27,08
269,059	37,23
269,6	44,21
270,14	36,96
270,68	41,38
271,219	38,6
271,759	30,97
272,298	36,36
272,838	35,66
273,377	29,26
273,916	32,49
274,455	36,4
274,994	38,49
275,533	31,74
276,072	29,7
276,61	37,2
277,149	32,61
277,687	36,3
278,225	39,04
278,763	40,58
279,301	39,62
279,839	46,74
280,377	32,12
280,914	36,26
281,452	49,59
281,989	40,96
282,526	43,01
283,064	40,62
283,601	41,67
284,137	36,5
284,674	33,21
285,211	31,65
285,747	34,58
286,284	29,82
286,82	36,88
287,356	29,55
287,892	36,84
288,428	26,1
288,964	38,99
289,5	41,84
290,035	38,49
290,571	35,82
291,106	35,27
291,641	36,02
292,176	45,49
292,711	40
293,246	35,74
293,781	34,94
294,315	35,29
294,85	37,59
295,384	39,63
295,918	36,24
296,453	34,63
296,987	36,21
297,52	36,64
298,054	36,76
298,588	42,13
299,121	41,76
299,655	32,98
300,188	33,08
300,721	40,34
301,254	37,37
301,787	41,06
302,32	38,64
302,853	41,11
303,385	34,07
303,918	33,33
304,45	39,77
304,982	37,05
305,514	37,27
306,046	32,28
306,578	42,86
307,11	41,26
307,641	32,73
308,173	33,83
308,704	40,61
309,236	44,94
309,767	33,75
310,298	32,06
310,829	43,73
311,359	40,57
311,89	37,37
312,421	35,14
312,951	34,55
313,481	48,59
314,012	39,19
314,542	35,96
315,072	31,64
315,601	37,37
316,131	33,58
316,661	41,67
317,19	32,38
317,72	42,86
318,249	33,11
318,778	40,68
319,307	36,82
319,836	34,56
320,365	41,37
320,893	37,23
321,422	35,82
321,95	33,33
322,479	41,18
323,007	37,68
323,535	41,13
324,063	41,42
324,591	26
325,118	29,37
325,646	38,85
326,173	46,07
326,701	35,64
327,228	34,19
327,755	38,35
328,282	38,87
328,809	32,96
329,336	40,14
329,862	39,23
330,389	37,88
330,915	39,36
331,441	37,29
331,968	38,83
332,494	36,45
333,02	31,39
333,545	29,24
334,071	36
334,597	34,46
335,122	34,78
335,648	39,56
336,173	35,97
336,698	32,88
337,223	45,05
337,748	31,93
338,272	35,31
338,797	38,83
339,322	30,56
339,846	35,55
340,37	32,23
340,894	40,41
341,419	36,58
341,942	34,9
342,466	34,81
342,99	32
343,514	32,79
344,037	36,72
344,56	37,62
345,084	35,96
345,607	33,74
346,13	34,46
346,653	32,7
347,175	37,42
347,698	33,04
348,221	28,78
348,743	34,4
349,265	37,5
349,787	34
350,309	30,03
350,831	32,24
351,353	41,01
351,875	35,96
352,397	37,47
352,918	32,77
353,439	35,77
353,961	30,99
354,482	35,39
355,003	34,32
355,524	42,6
356,044	35,09
356,565	33,17
357,086	32,06
357,606	30,36
358,126	31,39
358,646	31,84
359,167	30,47
359,687	36,08
360,206	35,18
360,726	29,29
361,246	33,98
361,765	28,51
362,285	32,94
362,804	34,89
363,323	31,42
363,842	37,14
364,361	32,9
364,88	29,75
365,398	35,76
365,917	37,78
366,435	28,11
366,954	36,27
367,472	35,82
367,99	36,96
368,508	31,45
369,026	36,43
369,544	34,18
370,061	33,92
370,579	35,65
371,096	30,47
371,613	34,86
372,131	36,44
372,648	37,18
373,165	35,01
373,681	31,52
374,198	33,61
374,715	33,33
375,231	33,23
375,747	37,52
376,264	30,19
376,78	31,9
377,296	35,28
377,812	30,12
378,327	31,56
378,843	34,86
379,359	30,87
379,874	30,6
380,389	31,36
380,905	33,82
381,42	32,64
381,935	27,87
382,449	31,89
382,964	34,1
383,479	34,99
383,993	31,13
384,508	33,26
385,022	32,21
385,536	31,1
386,05	29,69
386,564	28,65
387,078	31,1
387,592	30,42
388,105	28,61
388,619	30,48
389,132	29,75
389,645	31,1
390,158	28,17
390,671	31,91
391,184	26,22
391,697	28,87
392,21	26,42
392,722	26,79
393,235	27
393,747	26,69
394,259	27,62
394,771	25,33
395,283	24,68
395,795	25,85
396,307	23,78
396,818	26,1
397,33	23,83
397,841	26,18
398,353	25,51
398,864	24,57
399,375	23,65
399,886	23,35
400,397	23,63
400,907	24,08
401,418	21,77
401,928	21,32
402,439	22,03
402,949	21,49
403,459	19,97
403,969	20,69
404,479	20,1
404,989	20,72
405,498	19,4
406,008	18,53
406,517	17,48
407,027	18,36
407,536	17,09
408,045	16,12
408,554	15,03
409,063	15,43
409,572	14,56
410,08	14,41
410,589	14,67
411,097	14,49
411,606	14,52
412,114	13,15
412,622	14
413,13	13,19
413,638	12,51
414,145	11,6
414,653	12,22
415,16	11,09
415,668	11,59
416,175	11,42
416,682	10,8
417,189	10,64
417,696	10,43
418,203	10,68
418,71	10,51
419,216	10,05
419,723	10,91
420,229	9,88
420,735	10,09
421,242	9,66
421,748	9,4
422,254	9,88
422,759	9,12
423,265	9,26
423,771	9,02
424,276	9,46
424,781	9,84
425,287	9,55
425,792	9,5
426,297	9,54
426,802	8,95
427,306	9
427,811	8,89
428,316	9,09
428,82	9,19
429,324	8,72
429,829	9,18
430,333	8,6
430,837	8,5
431,34	8,74
431,844	8,5
432,348	8,7
432,851	8,21
433,355	8,61
433,858	7,97
434,361	8,77
434,864	8,56
435,367	8,33
435,87	8,92
436,373	8,74
436,876	8,32
437,378	8,01
437,88	8,27
438,383	8,46
438,885	8,41
439,387	7,86
439,889	7,96
440,391	8,76
440,892	8,52
441,394	8,07
441,896	8,18
442,397	7,94
442,898	8,17
443,399	8,85
443,9	8,3
444,401	8,42
444,902	8,13
445,403	8,22
445,903	8,44
446,404	8,41
446,904	8,49
447,405	8,43
447,905	8,95
448,405	8,36
448,905	8,63
449,404	8,69
449,904	8,63
450,404	8,6
450,903	8,52
451,403	8,65
451,902	8,47
452,401	8,81
452,9	8,61
453,399	8,93
453,898	8,83
454,396	8,45
454,895	9,08
455,393	8,9
455,892	8,77
456,39	9,26
456,888	8,69
457,386	8,59
457,884	9,31
458,382	8,93
458,879	8,81
459,377	9
459,874	9,03
460,372	8,89
460,869	9,21
461,366	8,8
461,863	9
462,36	8,98
462,857	9,06
463,353	9,12
463,85	9,19
464,346	8,94
464,843	9,15
465,339	9,12
465,835	8,93
466,331	8,7
466,827	9,03
467,323	8,77
467,818	8,8
468,314	9,04
468,809	8,8
469,305	9,31
469,8	8,76
470,295	9,19
470,79	8,98
471,285	8,91
471,78	9,06
472,274	9,02
472,769	9,22
473,263	8,52
473,758	9,24
474,252	9,05
474,746	8,92
475,24	8,83
475,734	9,06
476,228	9,11
476,721	9,15
477,215	8,96
477,708	8,87
478,202	8,94
478,695	9,09
479,188	8,9
479,681	9,25
480,174	9,09
480,667	9,27
481,159	9,07
481,652	9,38
482,144	8,93
482,637	9,15
483,129	9,42
483,621	9,26
484,113	9,5
484,605	9,48
485,097	9,39
485,588	9,53
486,08	9,43
486,571	9,4
487,063	9,26
487,554	9,19
488,045	9,3
488,536	9,35
489,027	9,51
489,518	9,64
490,008	9,59
490,499	9,7
490,989	9,76
491,48	9,7
491,97	9,8
492,46	9,49
492,95	9,83
493,44	10,07
493,93	9,86
494,419	10
494,909	10,06
495,398	10,33
495,888	10,1
496,377	10,06
496,866	10,27
497,355	10,32
497,844	10,64
498,333	10,63
498,821	10,6
499,31	10,62
499,798	10,78
500,287	10,89
500,775	11,2
501,263	11,2
501,751	11,42
502,239	11,78
502,727	11,54
503,215	11,53
503,702	11,87
504,19	11,61
504,677	11,98
505,164	12,42
505,651	12,63
506,139	12,62
506,625	12,76
507,112	12,66
507,599	13,1
508,086	13,42
508,572	13,27
509,058	13,61
509,545	13,98
510,031	14,06
510,517	14,37
511,003	14,27
511,489	14,54
511,974	14,66
512,46	15,53
512,946	15,43
513,431	15,5
513,916	15,76
514,401	16,01
514,887	16,3
515,371	16,58
515,856	17,31
516,341	17,38
516,826	17,26
517,31	17,81
517,795	18,08
518,279	18,23
518,763	18,53
519,247	18,68
519,731	19,3
520,215	19,32
520,699	19,6
521,182	19,88
521,666	20,27
522,149	20,47
522,633	21,18
523,116	20,92
523,599	21,17
524,082	21,83
524,565	21,69
525,048	21,79
525,53	22,41
526,013	22,84
526,495	22,69
526,978	22,7
527,46	23,71
527,942	23,58
528,424	23,8
528,906	24,12
529,388	24,38
529,87	24,13
530,351	24,59
530,833	24,65
531,314	24,75
531,795	24,93
532,277	24,56
532,758	25,08
533,238	25,65
533,719	25,51
534,2	25,81
534,681	25,37
535,161	25,87
535,642	25,76
536,122	25,6
536,602	25,73
537,082	25,92
537,562	25,77
538,042	26,03
538,522	26,21
539,001	26,01
539,481	26,34
539,96	26,16
540,44	26,68
540,919	26,59
541,398	26,29
541,877	26,51
542,356	26,39
542,835	26,17
543,313	26,78
543,792	26,44
544,27	26,54
544,749	26,82
545,227	26,71
545,705	26,68
546,183	26,73
546,661	26,78
547,139	26,76
547,616	26,84
548,094	27,16
548,571	27,05
549,049	27,03
549,526	27,1
550,003	27,11
550,48	27
550,957	27,24
551,434	27,05
551,911	27,22
552,387	26,97
552,864	27,16
553,34	27,21
553,817	27,04
554,293	27
554,769	27,23
555,245	26,62
555,721	27,04
556,197	27,47
556,672	26,91
557,148	26,78
557,623	26,74
558,099	27,1
558,574	26,95
559,049	26,95
559,524	27,15
559,999	26,99
560,474	26,96
560,948	26,8
561,423	26,95
561,897	26,45
562,372	26,6
562,846	26,3
563,32	26,34
563,794	26,11
564,268	26,2
564,742	25,95
565,216	25,95
565,69	25,93
566,163	26,27
566,636	25,89
567,11	25,53
567,583	25,52
568,056	25,21
568,529	25,47
569,002	25,29
569,475	25,06
569,947	24,71
570,42	24,67
570,892	24,73
571,365	24,14
571,837	24,12
572,309	24,26
572,781	24
573,253	23,75
573,725	23,37
574,197	23,5
574,668	23,31
575,14	23,38
575,611	22,95
576,082	22,85
576,554	22,56
577,025	23
577,496	22,75
577,967	22,6
578,437	22,2
578,908	22,16
579,379	22,27
579,849	21,95
580,319	21,96
580,79	21,66
581,26	21,6
581,73	21,62
582,2	21,32
582,669	21,5
583,139	21,11
583,609	21,01
584,078	21,08
584,548	20,81
585,017	20,95
585,486	20,52
585,955	20,67
586,424	20,56
586,893	20,41
587,362	20,47
587,83	20,46
588,299	20,18
588,767	20,37
589,236	19,85
589,704	19,96
590,172	20,24
590,64	19,82
591,108	19,87
591,576	19,83
592,043	19,56
592,511	19,95
592,978	19,87
593,446	19,52
593,913	19,54
594,38	19,57
594,847	19,46
595,314	19,41
595,781	19,24
596,248	19,38
596,715	19,11
597,181	19,19
597,647	19,22
598,114	19,22
598,58	19,37
599,046	18,97
599,512	19,19
599,978	19,05
600,444	19
600,91	19,08
601,375	18,97
601,841	18,88
602,306	18,83
602,771	18,62
603,236	18,68
603,702	18,6
604,167	18,52
604,631	18,47
605,096	18,72
605,561	18,6
606,025	18,19
606,49	18,21
606,954	18,24
607,418	18,13
607,882	18,02
608,347	18,08
608,81	17,96
609,274	17,91
609,738	17,84
610,202	17,71
610,665	17,62
611,128	17,53
611,592	17,53
612,055	17,39
612,518	17,15
612,981	17,16
613,444	17,02
613,907	16,96
614,369	16,85
614,832	16,74
615,294	16,79
615,757	16,49
616,219	16,57
616,681	16,69
617,143	16,36
617,605	16,51
618,067	16,34
618,529	16,08
618,99	16,16
619,452	16,12
619,913	16,06
620,375	15,93
620,836	15,88
621,297	15,9
621,758	15,64
622,219	15,69
622,68	15,53
623,14	15,44
623,601	15,58
624,061	15,39
624,522	15,49
624,982	15,56
625,442	15,23
625,902	15,43
626,362	15,23
626,822	15,3
627,282	15,28
627,742	15,41
628,201	15,15
628,661	15,14
629,12	15,31
629,579	15,15
630,038	15,2
630,497	15,13
630,956	15
631,415	15,05
631,874	14,98
632,332	14,85
632,791	14,88
633,249	14,71
633,708	14,66
634,166	14,77
634,624	14,66
635,082	14,59
635,54	14,58
635,998	14,66
636,455	14,61
636,913	14,38
637,37	14,36
637,828	14,28
638,285	14,12
638,742	14,03
639,199	14,01
639,656	13,83
640,113	13,74
640,57	13,62
641,027	13,37
641,483	13,41
641,94	13,04
642,396	13,14
642,852	12,96
643,309	12,98
643,765	12,69
644,221	12,46
644,676	12,58
645,132	12,43
645,588	12,28
646,043	12,15
646,499	12,06
646,954	11,97
647,409	11,77
647,864	11,76
648,319	11,72
648,774	11,43
649,229	11,47
649,684	11,33
650,139	11,22
650,593	11,14
651,047	11,23
651,502	10,99
651,956	11
652,41	10,92
652,864	10,95
653,318	10,91
653,772	10,86
654,225	10,86
654,679	10,73
655,133	10,68
655,586	10,63
656,039	10,52
656,492	10,38
656,946	10,38
657,399	10,33
657,851	10,21
658,304	10,26
658,757	9,94
659,209	9,89
659,662	9,91
660,114	9,72
660,567	9,74
661,019	9,66
661,471	9,48
661,923	9,43
662,375	9,19
662,826	9,25
663,278	9,25
663,73	9,14
664,181	9,04
664,632	8,92
665,084	8,89
665,535	8,96
665,986	8,86
666,437	8,87
666,888	8,67
667,338	8,71
667,789	8,74
668,24	8,68
668,69	8,65
669,14	8,5
669,591	8,52
670,041	8,56
670,491	8,48
670,941	8,7
671,391	8,45
671,84	8,49
672,29	8,66
672,74	8,59
673,189	8,64
673,638	8,7
674,088	8,66
674,537	8,78
674,986	8,88
675,435	8,83
675,883	8,91
676,332	8,86
676,781	8,99
677,229	8,98
677,678	9,05
678,126	9,25
678,574	9,23
679,022	9,35
679,47	9,39
679,918	9,34
680,366	9,45
680,814	9,34
681,261	9,64
681,709	9,81
682,156	9,78
682,604	10,03
683,051	9,97
683,498	10,17
683,945	10,31
684,392	10,33
684,839	10,36
685,286	10,6
685,732	10,74
686,179	11,03
686,625	11,19
687,071	11,21
687,518	11,6
687,964	11,71
688,41	12,09
688,856	12,3
689,301	12,55
689,747	12,87
690,193	13,06
690,638	13,48
691,084	13,92
691,529	14,24
691,974	14,7
692,419	14,93
692,864	15,55
693,309	15,93
693,754	16,39
694,199	16,74
694,643	17,25
695,088	17,77
695,532	18,38
695,977	18,66
696,421	18,95
696,865	19,64
697,309	20,07
697,753	20,56
698,197	21,14
698,64	21,39
699,084	21,75
699,527	22,44
699,971	22,8
700,414	23,46
700,857	23,69
701,3	24,08
701,743	24,43
702,186	24,74
702,629	25,17
703,072	25,59
703,515	26,14
703,957	26,29
704,399	26,68
704,842	26,94
705,284	27,33
705,726	27,79
706,168	28
706,61	28,18
707,052	28,75
707,494	28,94
707,935	29,1
708,377	29,88
708,818	29,66
709,26	30,01
709,701	30,23
710,142	30,49
710,583	30,92
711,024	31,11
711,465	31,38
711,905	31,66
712,346	31,59
712,787	32,09
713,227	32,28
713,667	32,71
714,108	32,7
714,548	33
714,988	33,21
715,428	33,45
715,868	33,57
716,307	33,92
716,747	33,99
717,186	34,29
717,626	34,38
718,065	34,5
718,504	34,86
718,944	34,84
719,383	35
719,822	35,12
720,261	35,42
720,699	35,66
721,138	35,4
721,576	35,92
722,015	36,07
722,453	36,11
722,892	36,37
723,33	36,52
723,768	36,44
724,206	36,71
724,644	36,87
725,081	36,84
725,519	36,81
725,957	37,14
726,394	37,13
726,832	37,33
727,269	37,33
727,706	37,64
728,143	37,48
728,58	37,68
729,017	37,72
729,454	37,79
729,89	37,92
730,327	37,84
730,764	37,84
731,2	38,11
731,636	38,03
732,072	37,99
732,509	38,25
732,945	38,45
733,38	38,24
733,816	38,62
734,252	38,13
734,688	38,45
735,123	38,54
735,559	38,46
735,994	38,67
736,429	38,46
736,864	38,54
737,299	38,47
737,734	38,55
738,169	38,75
738,604	38,6
739,038	38,69
739,473	38,91
739,907	38,61
740,342	38,66
740,776	38,58
741,21	38,51
741,644	38,74
742,078	38,49
742,512	38,88
742,946	38,53
743,379	38,73
743,813	38,61
744,246	38,75
744,68	38,57
745,113	38,48
745,546	38,68
745,979	38,53
746,412	38,49
746,845	38,6
747,278	38,44
747,711	38,61
748,143	38,63
748,576	38,53
749,008	38,45
749,441	38,26
749,873	38,37
750,305	38,62
750,737	38,26
751,169	38,49
751,601	38,37
752,032	38,27
752,464	38,41
752,896	38,26
753,327	38,17
753,758	38,52
754,19	38,31
754,621	37,97
755,052	37,92
755,483	38,19
755,914	38,22
756,344	38,06
756,775	38,23
757,206	38,08
757,636	38,05
758,066	38,18
758,497	37,85
758,927	37,86
759,357	37,81
759,787	37,81
760,217	37,74
760,647	37,63
761,076	37,83
761,506	37,61
761,935	37,78
762,365	37,67
762,794	37,63
763,223	37,81
763,653	37,68
764,082	37,75
764,51	37,63
764,939	37,65
765,368	37,44
765,797	37,17
766,225	37,52
766,654	37,52
767,082	37,88
767,51	37,29
767,938	37,34
768,367	36,94
768,795	37,01
769,222	37,26
769,65	37,07
770,078	37,45
770,505	37,12
770,933	37,3
771,36	37,27
771,788	37,29
772,215	37,21
772,642	37,33
773,069	37,34
773,496	37,26
773,923	36,98
774,349	37,19
774,776	37,1
775,203	36,78
775,629	37,27
776,055	36,86
776,482	37,13
776,908	36,92
777,334	36,84
777,76	37,18
778,186	36,81
778,611	36,92
779,037	36,92
779,463	36,69
779,888	36,88
780,314	36,96
780,739	36,79
781,164	36,84
781,589	36,9
782,014	37,02
782,439	36,79
782,864	36,76
783,289	36,88
783,713	36,8
784,138	36,83
784,562	36,98
784,987	36,67
785,411	36,37
785,835	36,85
786,259	36,72
786,683	36,8
787,107	36,8
787,531	36,7
787,954	36,83
788,378	36,64
788,802	36,71
789,225	36,64
789,648	36,6
790,071	36,55
790,495	36,71
790,918	36,63
791,34	36,57
791,763	36,75
792,186	36,53
792,609	36,47
793,031	36,52
793,454	36,85
793,876	36,62
794,298	36,73
794,721	36,48
795,143	36,66
795,565	36,42
795,986	36,44
796,408	36,7
796,83	36,55
797,252	36,75
797,673	36,65
798,094	36,55
798,516	36,57
798,937	36,41
799,358	36,49
799,779	36,64
800,2	36,6
800,621	36,48
801,042	36,73
801,462	36,28
801,883	36,56
802,303	36,48
802,724	36,35
803,144	36,32
803,564	36,4
803,984	36,46
804,404	36,29
804,824	36,39
805,244	36,32
805,664	36,5
806,084	36,66
806,503	36,48
806,923	36,22
807,342	36,42
807,761	36,34
808,18	36,38
808,599	36,4
809,018	36,3
809,437	36,31
809,856	36,23
810,275	36,39
810,693	36,22
811,112	36,41
811,53	36,33
811,949	36,26
812,367	36,03
812,785	36,28
813,203	36,13
813,621	36,27
814,039	36,24
814,457	36,36
814,874	36,14
815,292	36,36
815,709	36,45
816,127	36,14
816,544	36,51
816,961	36,33
817,378	36,62
817,795	36,06
818,212	36,35
818,629	36,19
819,046	36,47
819,462	36,41
819,879	36,27
820,295	36,12
820,712	36,35
821,128	36,26
821,544	36,01
821,96	36,57
822,376	36,11
822,792	36,01
823,208	36,06
823,624	36,22
824,039	36,41
824,455	36,49
824,87	36,24
825,286	36,08
825,701	36,3
826,116	36,13
826,531	35,92
826,946	36,09
827,361	36,15
827,776	36,15
828,19	36,24
828,605	35,95
829,02	36,14
829,434	36,35
829,848	36,09
830,263	36,19
830,677	36,1
831,091	36,23
831,505	35,96
831,919	36,19
832,332	35,89
832,746	36,3
833,16	35,84
833,573	36,06
833,987	35,97
834,4	36,19
834,813	36,01
835,226	36,19
835,639	36,24
836,052	36,34
836,465	36,12
836,878	36,01
837,29	35,84
837,703	36,09
838,116	35,98
838,528	35,71
838,94	35,96
839,352	35,96
839,765	35,97
