Data from C_4__Relative__4__00046.txt Node

Date: Mon Jan 29 18:12:34 CET 2024
User: diatiterra
Spectrometer: HDX00911
Trigger mode: 0
Integration Time (sec): 6,000000E-3
Scans to average: 2
Nonlinearity correction enabled: false
Boxcar width: 0
Storing dark spectrum: false
XAxis mode: Wavelengths
Number of Pixels in Spectrum: 2068
>>>>>Begin Spectral Data<<<<<
194,468	71,57
195,025	54,87
195,581	91,49
196,138	53,85
196,694	67,24
197,251	53,33
197,807	54,4
198,363	47,27
198,919	58,72
199,474	41,43
200,03	44,12
200,586	50
201,141	50,19
201,696	44,64
202,251	47,23
202,806	51,5
203,361	50,53
203,916	56,85
204,471	49,3
205,025	51,79
205,58	49,1
206,134	48,15
206,688	48,19
207,242	48,98
207,796	44,07
208,35	41,88
208,904	43,73
209,457	46,93
210,011	45,1
210,564	50,69
211,117	49,65
211,67	48,94
212,223	40,07
212,776	49,44
213,329	45,7
213,881	51,43
214,434	53,45
214,986	50,84
215,538	46,52
216,09	51,8
216,642	51,11
217,194	45,03
217,746	46,8
218,297	41,95
218,849	42,06
219,4	50
219,951	54,91
220,502	50,52
221,053	49,53
221,604	51,01
222,155	48,56
222,705	47,16
223,256	48,92
223,806	51,7
224,356	60,87
224,906	43,33
225,456	50,34
226,006	43,62
226,556	50
227,106	48,6
227,655	46,69
228,204	50,33
228,754	56,21
229,303	46,44
229,852	52,61
230,401	50,54
230,949	60,31
231,498	51,87
232,047	46,8
232,595	52,13
233,143	54,17
233,691	59,6
234,239	48,13
234,787	47,9
235,335	56,46
235,883	53,76
236,43	58,15
236,978	56
237,525	49,25
238,072	44,28
238,619	46,23
239,166	48,15
239,713	52,42
240,26	52,43
240,806	50
241,353	46,29
241,899	57,61
242,445	56,64
242,991	54,36
243,537	54,79
244,083	54,55
244,629	49,32
245,174	49,25
245,72	51,17
246,265	54,42
246,81	51,09
247,355	50
247,9	51,56
248,445	53,1
248,99	42,21
249,534	48,42
250,079	51,12
250,623	46,1
251,168	52,35
251,712	56,38
252,256	56,48
252,8	54,51
253,343	55,1
253,887	51,02
254,43	60,22
254,974	52,8
255,517	57,38
256,06	50,34
256,603	60
257,146	54,55
257,689	46,52
258,232	53,26
258,774	52,03
259,317	54,21
259,859	50,18
260,401	61,36
260,943	48,88
261,485	52,13
262,027	51,38
262,569	66,17
263,11	58,84
263,652	47,43
264,193	51,79
264,734	51,19
265,275	56,22
265,816	58,63
266,357	48,56
266,898	46,76
267,438	49,8
267,979	49,09
268,519	50,18
269,059	58,16
269,6	51,58
270,14	45,54
270,68	55,94
271,219	48,77
271,759	58,21
272,298	46,91
272,838	56,59
273,377	45,19
273,916	49,1
274,455	50,57
274,994	48,92
275,533	51,54
276,072	46,24
276,61	44,37
277,149	42,39
277,687	52,67
278,225	55,14
278,763	50,36
279,301	58,49
279,839	50
280,377	50,73
280,914	48,72
281,452	57,32
281,989	50,85
282,526	48,75
283,064	47,57
283,601	52,65
284,137	54,74
284,674	52,45
285,211	42,45
285,747	53,9
286,284	42,11
286,82	53,9
287,356	43,64
287,892	52,98
288,428	40,68
288,964	53,43
289,5	53,74
290,035	47,48
290,571	51,12
291,106	42,55
291,641	48,66
292,176	54,89
292,711	44,83
293,246	44,77
293,781	40,52
294,315	43,75
294,85	54,38
295,384	52,22
295,918	40,42
296,453	44,88
296,987	47,59
297,52	45,89
298,054	54,41
298,588	56,3
299,121	49,45
299,655	47,02
300,188	48,67
300,721	49,66
301,254	47,69
301,787	53,66
302,32	53,79
302,853	44,25
303,385	50,18
303,918	46,32
304,45	49,03
304,982	48,21
305,514	50,18
306,046	41,4
306,578	50
307,11	50,93
307,641	54,91
308,173	52,42
308,704	55,94
309,236	50,56
309,767	51,25
310,298	43,21
310,829	57,79
311,359	48,75
311,89	48,75
312,421	52,17
312,951	56,36
313,481	57,03
314,012	49,08
314,542	40,41
315,072	49,82
315,601	55,52
316,131	39,78
316,661	55
317,19	48,75
317,72	53,85
318,249	48,99
318,778	49,81
319,307	45,95
319,836	52,35
320,365	49,84
320,893	46,81
321,422	51,12
321,95	41,48
322,479	50,17
323,007	48,55
323,535	59,62
324,063	48,88
324,591	39,33
325,118	44,76
325,646	48,08
326,173	51,79
326,701	50,91
327,228	46,33
327,755	48,03
328,282	47,17
328,809	54,81
329,336	44,64
329,862	46,54
330,389	45,39
330,915	49,29
331,441	41,69
331,968	46,74
332,494	47,16
333,02	48,54
333,545	51,62
334,071	47
334,597	44,93
335,122	33,11
335,648	53,85
336,173	51,16
336,698	51,37
337,223	48,46
337,748	49,82
338,272	41,91
338,797	44,98
339,322	42,19
339,846	39,84
340,37	41,39
340,894	48,63
341,419	47,32
341,942	41,28
342,466	41,64
342,99	38,77
343,514	47,08
344,037	43,61
344,56	35,42
345,084	41,01
345,607	47,72
346,13	42,46
346,653	36,48
347,175	49,35
347,698	36,01
348,221	38,08
348,743	40,52
349,265	41,67
349,787	40,29
350,309	41,32
350,831	40,9
351,353	40,74
351,875	39,61
352,397	39,39
352,918	35,88
353,439	38,75
353,961	37,75
354,482	44,94
355,003	38,07
355,524	41,84
356,044	38,79
356,565	41,15
357,086	37,15
357,606	34,94
358,126	38,2
358,646	37,56
359,167	39,31
359,687	36,08
360,206	34,7
360,726	34,52
361,246	40,24
361,765	38,6
362,285	40,28
362,804	37,33
363,323	34,4
363,842	42,62
364,361	38,74
364,88	39,45
365,398	40,84
365,917	38,19
366,435	38,63
366,954	37,27
367,472	42,22
367,99	38,81
368,508	37,5
369,026	36,43
369,544	36,18
370,061	39,54
370,579	35,08
371,096	39,78
371,613	39,08
372,131	41,9
372,648	37,55
373,165	38,82
373,681	35,55
374,198	36,72
374,715	40,97
375,231	33,86
375,747	38,68
376,264	34,66
376,78	37,16
377,296	36,39
377,812	33,98
378,327	34,07
378,843	36,19
379,359	36,52
379,874	32,38
380,389	34,53
380,905	35,68
381,42	34,73
381,935	37,07
382,449	35,07
382,964	35,81
383,479	34,61
383,993	32,57
384,508	36,07
385,022	32,32
385,536	31,54
386,05	31,24
386,564	30,22
387,078	32,04
387,592	32,08
388,105	30,78
388,619	32,65
389,132	31,18
389,645	30,91
390,158	31,15
390,671	30,64
391,184	28,56
391,697	28,08
392,21	31,13
392,722	28,49
393,235	28,23
393,747	29,08
394,259	28,99
394,771	25,5
395,283	25,72
395,795	27,17
396,307	27,65
396,818	28,06
397,33	26,28
397,841	27,85
398,353	26,26
398,864	25,5
399,375	25,4
399,886	23,21
400,397	24,13
400,907	24,08
401,418	21,83
401,928	22,3
402,439	21,86
402,949	23,72
403,459	21,35
403,969	21,51
404,479	21,45
404,989	19,41
405,498	20,81
406,008	17,64
406,517	17,02
407,027	18,05
407,536	17,6
408,045	15,5
408,554	17,07
409,063	16,47
409,572	16,3
410,08	16,25
410,589	15,16
411,097	14,49
411,606	14,55
412,114	13,73
412,622	12,8
413,13	13,42
413,638	12,07
414,145	12,27
414,653	11,21
415,16	11,73
415,668	11,42
416,175	11,77
416,682	11,34
417,189	11,28
417,696	10,14
418,203	10,42
418,71	10,11
419,216	10,41
419,723	10,71
420,229	9,48
420,735	9,56
421,242	10,11
421,748	10,39
422,254	9,49
422,759	9,31
423,265	9,65
423,771	8,9
424,276	9,3
424,781	9,41
425,287	9
425,792	9,17
426,297	9,2
426,802	8,76
427,306	8,78
427,811	8,58
428,316	8,84
428,82	8,36
429,324	8,06
429,829	8,61
430,333	8,61
430,837	8,27
431,34	7,98
431,844	8,7
432,348	8,65
432,851	8,1
433,355	7,95
433,858	8,05
434,361	8,1
434,864	8,08
435,367	8,11
435,87	8,4
436,373	7,99
436,876	8,16
437,378	7,89
437,88	8,36
438,383	8,14
438,885	7,87
439,387	7,76
439,889	8,26
440,391	8,4
440,892	8,03
441,394	7,66
441,896	7,9
442,397	7,92
442,898	7,9
443,399	8,5
443,9	7,99
444,401	8,27
444,902	8,27
445,403	8,07
445,903	8,06
446,404	8,22
446,904	8,13
447,405	7,87
447,905	8,24
448,405	8,42
448,905	8,33
449,404	8,21
449,904	8,29
450,404	8,26
450,903	8,41
451,403	8,3
451,902	8,51
452,401	8,73
452,9	8,32
453,399	8,88
453,898	8,4
454,396	8,59
454,895	8,55
455,393	8,61
455,892	8,74
456,39	9,01
456,888	8,85
457,386	8,83
457,884	8,55
458,382	8,93
458,879	8,43
459,377	8,7
459,874	8,86
460,372	8,76
460,869	9,1
461,366	8,83
461,863	8,67
462,36	8,73
462,857	8,9
463,353	8,96
463,85	8,82
464,346	8,78
464,843	9
465,339	8,55
465,835	8,81
466,331	8,67
466,827	8,86
467,323	8,97
467,818	8,85
468,314	8,61
468,809	8,63
469,305	8,86
469,8	8,42
470,295	8,76
470,79	8,84
471,285	8,76
471,78	9
472,274	8,44
472,769	8,85
473,263	8,76
473,758	8,96
474,252	8,8
474,746	8,79
475,24	8,95
475,734	8,92
476,228	8,93
476,721	8,81
477,215	8,72
477,708	8,77
478,202	9,07
478,695	8,74
479,188	8,73
479,681	9,15
480,174	9,04
480,667	9,02
481,159	8,9
481,652	9,21
482,144	8,81
482,637	8,95
483,129	9,32
483,621	8,91
484,113	9,29
484,605	9,09
485,097	9,43
485,588	9,24
486,08	9,21
486,571	9,34
487,063	9,42
487,554	9,29
488,045	9,3
488,536	9,36
489,027	9,73
489,518	9,49
490,008	9,7
490,499	9,44
490,989	9,68
491,48	9,9
491,97	9,77
492,46	9,76
492,95	10,16
493,44	10,08
493,93	9,89
494,419	10,38
494,909	10,53
495,398	10,26
495,888	10,18
496,377	10,63
496,866	10,55
497,355	10,59
497,844	10,84
498,333	10,69
498,821	10,89
499,31	11,29
499,798	11,48
500,287	11,53
500,775	11,83
501,263	12,11
501,751	11,84
502,239	12,27
502,727	12,07
503,215	12,73
503,702	12,87
504,19	12,99
504,677	13,01
505,164	13,08
505,651	13,66
506,139	13,88
506,625	13,98
507,112	14,42
507,599	14,63
508,086	14,82
508,572	15,03
509,058	15,34
509,545	15,55
510,031	16,02
510,517	16,25
511,003	16,21
511,489	16,68
511,974	16,79
512,46	17,24
512,946	17,33
513,431	17,78
513,916	18,45
514,401	18,79
514,887	19,24
515,371	19,01
515,856	19,59
516,341	20,16
516,826	20,26
517,31	21,06
517,795	21,42
518,279	21,26
518,763	21,95
519,247	22,05
519,731	22,45
520,215	23,09
520,699	23,5
521,182	23,63
521,666	24,02
522,149	24,32
522,633	25,33
523,116	25,45
523,599	25,51
524,082	26,11
524,565	26,17
525,048	26,34
525,53	27
526,013	27,61
526,495	27,54
526,978	27,87
527,46	28,53
527,942	28,48
528,424	28,8
528,906	28,69
529,388	28,8
529,87	29,72
530,351	29,39
530,833	29,65
531,314	29,97
531,795	30,46
532,277	30,28
532,758	30,57
533,238	30,51
533,719	31,31
534,2	31,73
534,681	31,12
535,161	31,53
535,642	31,25
536,122	31,51
536,602	31,8
537,082	31,53
537,562	32,06
538,042	31,82
538,522	32,19
539,001	32
539,481	32,14
539,96	32,08
540,44	32,13
540,919	32,12
541,398	32,41
541,877	32,27
542,356	32,34
542,835	32,44
543,313	32,45
543,792	32,79
544,27	32,13
544,749	32,71
545,227	32,57
545,705	32,93
546,183	32,78
546,661	33,16
547,139	32,83
547,616	32,8
548,094	32,98
548,571	33,2
549,049	32,87
549,526	33,53
550,003	33,45
550,48	32,88
550,957	33,45
551,434	33,4
551,911	33,13
552,387	33,19
552,864	33,49
553,34	33,35
553,817	33,37
554,293	33,3
554,769	33,21
555,245	33,18
555,721	33,24
556,197	33,17
556,672	33,36
557,148	32,94
557,623	33,25
558,099	32,96
558,574	33,1
559,049	32,99
559,524	33,3
559,999	32,81
560,474	32,7
560,948	32,55
561,423	32,93
561,897	32,6
562,372	32,54
562,846	32,72
563,32	32,6
563,794	32,18
564,268	31,96
564,742	32,03
565,216	32,05
565,69	31,5
566,163	31,18
566,636	31,46
567,11	31,5
567,583	30,95
568,056	30,86
568,529	30,72
569,002	30,19
569,475	30,46
569,947	30,28
570,42	29,83
570,892	29,72
571,365	29,73
571,837	29,22
572,309	28,99
572,781	28,93
573,253	28,74
573,725	28,37
574,197	28,24
574,668	27,95
575,14	28,08
575,611	27,58
576,082	27,88
576,554	27,32
577,025	27,34
577,496	26,69
577,967	26,85
578,437	26,73
578,908	26,67
579,379	26,67
579,849	26,58
580,319	26,47
580,79	25,73
581,26	26,06
581,73	25,57
582,2	25,49
582,669	25,73
583,139	25,4
583,609	25,31
584,078	24,97
584,548	24,82
585,017	24,95
585,486	24,48
585,955	24,8
586,424	24,5
586,893	24,46
587,362	24,54
587,83	24,21
588,299	24,15
588,767	23,76
589,236	23,96
589,704	23,89
590,172	23,86
590,64	23,7
591,108	23,58
591,576	23,69
592,043	23,5
592,511	23,15
592,978	23,31
593,446	23
593,913	23,06
594,38	23,23
594,847	23,05
595,314	22,93
595,781	22,96
596,248	22,92
596,715	22,97
597,181	22,48
597,647	22,72
598,114	22,66
598,58	22,75
599,046	22,56
599,512	22,58
599,978	22,68
600,444	22,4
600,91	22,31
601,375	22,52
601,841	22,31
602,306	22,23
602,771	22,23
603,236	22,2
603,702	21,97
604,167	21,91
604,631	21,99
605,096	21,69
605,561	21,72
606,025	21,58
606,49	21,65
606,954	21,34
607,418	21,39
607,882	21,19
608,347	21,2
608,81	21,31
609,274	20,97
609,738	20,91
610,202	20,82
610,665	20,81
611,128	20,56
611,592	20,47
612,055	20,3
612,518	20,11
612,981	19,99
613,444	19,77
613,907	19,96
614,369	19,87
614,832	19,69
615,294	19,54
615,757	19,32
616,219	19,38
616,681	19,14
617,143	18,9
617,605	19,02
618,067	18,98
618,529	18,76
618,99	18,8
619,452	18,65
619,913	18,69
620,375	18,42
620,836	18,38
621,297	18,51
621,758	18,31
622,219	18,17
622,68	18,11
623,14	18,04
623,601	18
624,061	17,93
624,522	17,97
624,982	17,93
625,442	17,86
625,902	17,88
626,362	17,8
626,822	17,51
627,282	17,7
627,742	17,71
628,201	17,65
628,661	17,67
629,12	17,51
629,579	17,5
630,038	17,59
630,497	17,39
630,956	17,39
631,415	17,52
631,874	17,59
632,332	17,18
632,791	17,37
633,249	17,21
633,708	17,52
634,166	17,25
634,624	17,23
635,082	17,03
635,54	16,95
635,998	16,78
636,455	16,56
636,913	16,77
637,37	16,32
637,828	16,48
638,285	16,22
638,742	16,15
639,199	15,83
639,656	15,76
640,113	15,68
640,57	15,21
641,027	15,4
641,483	15,29
641,94	14,82
642,396	14,89
642,852	14,63
643,309	14,63
643,765	14,4
644,221	14,17
644,676	14,05
645,132	13,82
645,588	13,7
646,043	13,84
646,499	13,39
646,954	13,29
647,409	13,25
647,864	13,14
648,319	12,83
648,774	12,61
649,229	12,58
649,684	12,59
650,139	12,42
650,593	12,42
651,047	12,24
651,502	12,23
651,956	12,19
652,41	12,06
652,864	11,96
653,318	12,03
653,772	11,84
654,225	11,83
654,679	11,75
655,133	11,71
655,586	11,63
656,039	11,49
656,492	11,46
656,946	11,42
657,399	11,25
657,851	11,32
658,304	11,03
658,757	11,06
659,209	10,88
659,662	10,7
660,114	10,5
660,567	10,5
661,019	10,38
661,471	10,3
661,923	10,1
662,375	10,02
662,826	9,91
663,278	9,76
663,73	9,76
664,181	9,67
664,632	9,64
665,084	9,41
665,535	9,28
665,986	9,41
666,437	9,39
666,888	9,29
667,338	9,11
667,789	9,04
668,24	9,07
668,69	9,04
669,14	9,07
669,591	9,13
670,041	9,05
670,491	9,04
670,941	9,03
671,391	9,01
671,84	9,15
672,29	9,11
672,74	9,16
673,189	9,14
673,638	9,3
674,088	9,4
674,537	9,28
674,986	9,46
675,435	9,45
675,883	9,61
676,332	9,65
676,781	9,69
677,229	9,79
677,678	9,87
678,126	9,96
678,574	10,21
679,022	10,35
679,47	10,49
679,918	10,45
680,366	10,58
680,814	10,76
681,261	10,83
681,709	11,07
682,156	11,15
682,604	11,32
683,051	11,41
683,498	11,71
683,945	11,73
684,392	12,02
684,839	12,16
685,286	12,47
685,732	12,66
686,179	12,99
686,625	13,12
687,071	13,43
687,518	13,6
687,964	14,06
688,41	14,28
688,856	14,91
689,301	15,1
689,747	15,56
690,193	16,09
690,638	16,55
691,084	16,86
691,529	17,63
691,974	18,19
692,419	18,55
692,864	19,37
693,309	19,79
693,754	20,2
694,199	21,16
694,643	21,64
695,088	22,24
695,532	22,91
695,977	23,48
696,421	24,21
696,865	24,77
697,309	25,55
697,753	26,09
698,197	26,72
698,64	27,44
699,084	27,96
699,527	28,47
699,971	29,23
700,414	29,8
700,857	30,49
701,3	30,85
701,743	31,17
702,186	31,96
702,629	32,77
703,072	33
703,515	33,74
703,957	34,04
704,399	34,4
704,842	35,11
705,284	35,59
705,726	36
706,168	36,36
706,61	36,61
707,052	37,11
707,494	37,83
707,935	38,04
708,377	38,82
708,818	38,84
709,26	39,01
709,701	39,7
710,142	40,18
710,583	40,12
711,024	40,81
711,465	40,92
711,905	41,44
712,346	41,42
712,787	42,28
713,227	42,48
713,667	42,94
714,108	43,05
714,548	43,68
714,988	43,99
715,428	43,9
715,868	44,36
716,307	44,44
716,747	45,07
717,186	45,13
717,626	45,45
718,065	45,42
718,504	45,93
718,944	46,12
719,383	46,3
719,822	46,7
720,261	46,97
720,699	47,21
721,138	47,3
721,576	47,85
722,015	47,92
722,453	47,92
722,892	48,49
723,33	48,29
723,768	48,78
724,206	48,87
724,644	49,01
725,081	48,98
725,519	49,11
725,957	49,41
726,394	49,67
726,832	49,72
727,269	49,94
727,706	50,19
728,143	50,33
728,58	50,39
729,017	50,43
729,454	50,35
729,89	50,46
730,327	50,53
730,764	50,79
731,2	50,99
731,636	50,75
732,072	50,96
732,509	51,29
732,945	51,55
733,38	51,37
733,816	51,28
734,252	51,41
734,688	51,64
735,123	51,2
735,559	51,78
735,994	51,64
736,429	51,76
736,864	51,78
737,299	51,69
737,734	51,91
738,169	52,09
738,604	52,18
739,038	51,89
739,473	52,3
739,907	52,29
740,342	51,86
740,776	52,07
741,21	51,98
741,644	52,48
742,078	51,81
742,512	52,24
742,946	51,92
743,379	51,84
743,813	52,04
744,246	52,2
744,68	52,04
745,113	52,02
745,546	52,3
745,979	52,02
746,412	52,06
746,845	51,79
747,278	51,95
747,711	52,01
748,143	51,79
748,576	51,78
749,008	51,92
749,441	51,96
749,873	51,65
750,305	51,94
750,737	51,68
751,169	51,63
751,601	51,83
752,032	51,68
752,464	51,59
752,896	51,69
753,327	51,71
753,758	51,69
754,19	51,44
754,621	51,34
755,052	51,48
755,483	51,24
755,914	51,7
756,344	51,48
756,775	51,48
757,206	51,54
757,636	51,35
758,066	51,24
758,497	51,24
758,927	51,24
759,357	51,41
759,787	51,12
760,217	50,76
760,647	50,83
761,076	51,15
761,506	51,16
761,935	51
762,365	50,96
762,794	50,64
763,223	50,84
763,653	50,87
764,082	50,99
764,51	50,72
764,939	50,74
765,368	50,6
765,797	50,5
766,225	50,98
766,654	50,74
767,082	50,75
767,51	50,69
767,938	50,4
768,367	50,27
768,795	50,14
769,222	50,64
769,65	50,48
770,078	50,31
770,505	50,45
770,933	50,39
771,36	50,05
771,788	50,2
772,215	50,46
772,642	50,44
773,069	50,25
773,496	50,18
773,923	50,19
774,349	50,24
774,776	50,01
775,203	49,7
775,629	50,11
776,055	50,23
776,482	50,12
776,908	50
777,334	49,99
777,76	50,18
778,186	49,73
778,611	50,04
779,037	49,92
779,463	49,69
779,888	49,81
780,314	50,19
780,739	49,98
781,164	49,68
781,589	49,98
782,014	49,69
782,439	50
782,864	50
783,289	49,87
783,713	49,74
784,138	50,13
784,562	49,89
784,987	49,79
785,411	49,4
785,835	49,96
786,259	49,38
786,683	49,76
787,107	49,89
787,531	49,64
787,954	49,69
788,378	49,52
788,802	49,7
789,225	49,43
789,648	49,78
790,071	49,58
790,495	49,71
790,918	49,26
791,34	49,61
791,763	49,75
792,186	49,54
792,609	49,51
793,031	49,71
793,454	49,47
793,876	49,53
794,298	49,51
794,721	49,54
795,143	49,54
795,565	49,35
795,986	49,27
796,408	49,67
796,83	49,49
797,252	49,41
797,673	49,32
798,094	49,56
798,516	49,55
798,937	49,01
799,358	49,23
799,779	49,36
800,2	49,26
800,621	49,26
801,042	49,58
801,462	49,21
801,883	49,57
802,303	49,24
802,724	49,33
803,144	49,22
803,564	49,27
803,984	49,29
804,404	49,2
804,824	49,28
805,244	49,53
805,664	49,28
806,084	49,41
806,503	49,22
806,923	49,43
807,342	49,41
807,761	49,22
808,18	49,28
808,599	49,23
809,018	49,36
809,437	49
809,856	49,19
810,275	49,38
810,693	49,51
811,112	49,46
811,53	49,32
811,949	49,31
812,367	48,84
812,785	49,02
813,203	49,25
813,621	49,24
814,039	48,95
814,457	49,18
814,874	49,13
815,292	49,43
815,709	49,5
816,127	49,04
816,544	49,37
816,961	49,09
817,378	49,37
817,795	49,04
818,212	48,98
818,629	49,48
819,046	49,64
819,462	49,12
819,879	49,39
820,295	48,79
820,712	49,21
821,128	49,27
821,544	49,29
821,96	49,43
822,376	48,99
822,792	49,41
823,208	49,01
823,624	48,88
824,039	49,15
824,455	49,39
824,87	49,23
825,286	49,41
825,701	49,27
826,116	49,21
826,531	49,18
826,946	49,15
827,361	49,23
827,776	49,23
828,19	48,97
828,605	49,16
829,02	49,09
829,434	48,99
829,848	48,59
830,263	49,27
830,677	48,86
831,091	49,25
831,505	48,91
831,919	49,1
832,332	48,72
832,746	49,19
833,16	48,93
833,573	48,88
833,987	48,74
834,4	49,18
834,813	49,19
835,226	48,87
835,639	48,98
836,052	48,91
836,465	49,08
836,878	49,14
837,29	48,98
837,703	49,1
838,116	48,88
838,528	49,04
838,94	48,83
839,352	48,87
839,765	49,01
