Data from C_4__Relative__2__00044.txt Node

Date: Mon Jan 29 18:12:19 CET 2024
User: diatiterra
Spectrometer: HDX00911
Trigger mode: 0
Integration Time (sec): 6,000000E-3
Scans to average: 2
Nonlinearity correction enabled: false
Boxcar width: 0
Storing dark spectrum: false
XAxis mode: Wavelengths
Number of Pixels in Spectrum: 2068
>>>>>Begin Spectral Data<<<<<
194,468	48,04
195,025	46,02
195,581	50
196,138	53,85
196,694	43,68
197,251	42,22
197,807	44,4
198,363	43,27
198,919	46,98
199,474	33,93
200,03	33,46
200,586	38,44
201,141	45,32
201,696	34,26
202,251	38,01
202,806	42,86
203,361	42,46
203,916	44,18
204,471	39,44
205,025	40,36
205,58	30,11
206,134	38,89
206,688	42,03
207,242	35,71
207,796	34,24
208,35	35,38
208,904	32,88
209,457	31,77
210,011	39,51
210,564	34,72
211,117	42,96
211,67	35,56
212,223	33,9
212,776	38,58
213,329	35,05
213,881	33,21
214,434	44,48
214,986	35,35
215,538	35,53
216,09	33,11
216,642	37,41
217,194	33,44
217,746	35,35
218,297	31,21
218,849	36,14
219,4	40,21
219,951	42,91
220,502	31,01
221,053	35,42
221,604	41,28
222,155	41,98
222,705	41,47
223,256	31,65
223,806	31,97
224,356	43,12
224,906	39,26
225,456	40,34
226,006	33,56
226,556	35,04
227,106	36,01
227,655	37,63
228,204	35,53
228,754	37,24
229,303	44,75
229,852	37,58
230,401	35,84
230,949	45,53
231,498	38,81
232,047	36,36
232,595	40,78
233,143	43,94
233,691	35,2
234,239	36,19
234,787	33,57
235,335	38,44
235,883	43,37
236,43	39,26
236,978	45,45
237,525	39,18
238,072	36,53
238,619	33,9
239,166	32,32
239,713	41,64
240,26	39,7
240,806	35,46
241,353	41,7
241,899	40,45
242,445	38,81
242,991	41,11
243,537	35,31
244,083	36,73
244,629	38,85
245,174	44,4
245,72	34,45
246,265	39,58
246,81	42,7
247,355	34,56
247,9	38,75
248,445	42,07
248,99	34,95
249,534	36,39
250,079	44,03
250,623	30,51
251,168	39,6
251,712	42,2
252,256	44,85
252,8	40,28
253,343	42,36
253,887	34,01
254,43	40,15
254,974	34,97
255,517	41,95
256,06	38,01
256,603	44,53
257,146	42,76
257,689	35,13
258,232	39,08
258,774	37,64
259,317	35,9
259,859	38,01
260,401	49,62
260,943	39,93
261,485	36,52
262,027	42,76
262,569	41,73
263,11	43,32
263,652	42,65
264,193	36,79
264,734	46,03
265,275	44,58
265,816	47,12
266,357	43,17
266,898	43,69
267,438	41,18
267,979	49,45
268,519	34,3
269,059	34,4
269,6	37,89
270,14	42,57
270,68	39,08
271,219	38,6
271,759	40,3
272,298	36
272,838	35,66
273,377	45,19
273,916	38,99
274,455	35,63
274,994	35,25
275,533	43,69
276,072	32,71
276,61	43
277,149	26,09
277,687	37,37
278,225	36,3
278,763	41,67
279,301	36,98
279,839	38,41
280,377	43,07
280,914	32,6
281,452	46,75
281,989	43
282,526	44,44
283,064	44,1
283,601	40,53
284,137	33,21
284,674	47,92
285,211	31,29
285,747	37,29
286,284	43,16
286,82	40,07
287,356	36,77
287,892	36,84
288,428	38,64
288,964	37,91
289,5	38,44
290,035	42,81
290,571	35,07
291,106	36,36
291,641	41
292,176	41,73
292,711	39,66
293,246	32,85
293,781	38,29
294,315	39,34
294,85	37,96
295,384	44,81
295,918	37,98
296,453	34,28
296,987	45,86
297,52	36,99
298,054	29,78
298,588	38,58
299,121	39,19
299,655	40
300,188	36,88
300,721	41,72
301,254	38,08
301,787	37,8
302,32	44,32
302,853	36,93
303,385	48,72
303,918	37,19
304,45	49,03
304,982	42,63
305,514	38,38
306,046	30,53
306,578	42,86
307,11	36,06
307,641	36,73
308,173	37,17
308,704	34,87
309,236	33,33
309,767	39,58
310,298	33,8
310,829	52,47
311,359	40,21
311,89	43,42
312,421	49,28
312,951	48
313,481	41,77
314,012	42,12
314,542	33,22
315,072	37,45
315,601	43,42
316,131	37,59
316,661	38,33
317,19	40,93
317,72	43,22
318,249	39,53
318,778	44,87
319,307	34,8
319,836	45,3
320,365	39,74
320,893	43,26
321,422	37,31
321,95	39,63
322,479	41,52
323,007	38,77
323,535	48,68
324,063	53,36
324,591	34,67
325,118	37,06
325,646	40,77
326,173	50,36
326,701	37,82
327,228	37,06
327,755	42,29
328,282	43,4
328,809	37,41
329,336	44,29
329,862	46,15
330,389	36,18
330,915	36,52
331,441	38,64
331,968	34,71
332,494	34,45
333,02	41,61
333,545	38,63
334,071	39,33
334,597	42,57
335,122	32,78
335,648	45,05
336,173	38,28
336,698	37,67
337,223	34,13
337,748	38,25
338,272	32,34
338,797	36,25
339,322	35,55
339,846	35,55
340,37	32,23
340,894	36,64
341,419	32,89
341,942	36,91
342,466	39,25
342,99	35,38
343,514	27,6
344,037	38,69
344,56	35,42
345,084	41,96
345,607	42,25
346,13	38,77
346,653	36,16
347,175	38,06
347,698	35,71
348,221	37,5
348,743	34,69
349,265	33,04
349,787	33,43
350,309	37,74
350,831	38,21
351,353	38,62
351,875	39,33
352,397	35,54
352,918	40,68
353,439	37,67
353,961	30,99
354,482	42,13
355,003	30,56
355,524	39,54
356,044	32,98
356,565	39,15
357,086	30,79
357,606	33,73
358,126	36,25
358,646	38,81
359,167	38,08
359,687	34,91
360,206	32,29
360,726	28,87
361,246	39,04
361,765	29,39
362,285	40,05
362,804	26
363,323	30,5
363,842	36,9
364,361	34,2
364,88	36,29
365,398	32,23
365,917	37,17
366,435	36,7
366,954	36,87
367,472	35,18
367,99	37,17
368,508	36,72
369,026	32,75
369,544	32,91
370,061	34,8
370,579	34,9
371,096	35,04
371,613	36,33
372,131	35,39
372,648	34,3
373,165	38,47
373,681	33,8
374,198	34,59
374,715	35,76
375,231	35,45
375,747	35,04
376,264	32,59
376,78	38,44
377,296	33,39
377,812	30,86
378,327	30,67
378,843	36,19
379,359	33,04
379,874	31,69
380,389	32,19
380,905	32,76
381,42	29,63
381,935	30,4
382,449	31,13
382,964	35,08
383,479	33,08
383,993	29,33
384,508	30,33
385,022	31,39
385,536	28,19
386,05	31,68
386,564	32,53
387,078	28,27
387,592	31,67
388,105	29,01
388,619	29,7
389,132	26,81
389,645	29,8
390,158	28,26
390,671	31,91
391,184	26,3
391,697	26,33
392,21	27,33
392,722	26,95
393,235	26,51
393,747	26,52
394,259	24,72
394,771	22,11
395,283	24,36
395,795	26,16
396,307	24,4
396,818	23,83
397,33	23,09
397,841	23,75
398,353	23,85
398,864	24,14
399,375	22,11
399,886	22,29
400,397	21,68
400,907	22,38
401,418	21,14
401,928	19,94
402,439	21,45
402,949	19,77
403,459	19,97
403,969	19,65
404,479	18,74
404,989	19,46
405,498	19,49
406,008	17,59
406,517	15,81
407,027	16,85
407,536	15,78
408,045	15,16
408,554	15,31
409,063	14,32
409,572	14,15
410,08	14,49
410,589	13,48
411,097	13,04
411,606	12,94
412,114	13,15
412,622	12,11
413,13	11,93
413,638	11,32
414,145	11,36
414,653	10,67
415,16	10,2
415,668	10,55
416,175	9,9
416,682	10,12
417,189	10,28
417,696	9,68
418,203	9,91
418,71	9,7
419,216	9
419,723	9,41
420,229	9,44
420,735	8,67
421,242	9,62
421,748	9,54
422,254	9,14
422,759	8,94
423,265	8,67
423,771	8,92
424,276	8,44
424,781	8,44
425,287	8,68
425,792	8,83
426,297	8,84
426,802	7,95
427,306	8,43
427,811	8,45
428,316	8,32
428,82	8,34
429,324	8,06
429,829	8,25
430,333	7,81
430,837	7,76
431,34	7,98
431,844	7,79
432,348	7,69
432,851	7,89
433,355	7,79
433,858	7,58
434,361	7,75
434,864	8,06
435,367	7,6
435,87	7,82
436,373	8,13
436,876	7,68
437,378	7,39
437,88	7,63
438,383	7,71
438,885	7,52
439,387	7,66
439,889	7,61
440,391	8,13
440,892	7,56
441,394	7,25
441,896	7,8
442,397	7,74
442,898	7,34
443,399	8,22
443,9	7,94
444,401	7,78
444,902	8,07
445,403	7,56
445,903	7,81
446,404	8,1
446,904	7,51
447,405	7,76
447,905	7,85
448,405	8,02
448,905	7,77
449,404	8,02
449,904	7,9
450,404	7,79
450,903	8,06
451,403	8,11
451,902	8,52
452,401	8,24
452,9	8,35
453,399	8,49
453,898	8,34
454,396	8,43
454,895	8,26
455,393	8,16
455,892	8,34
456,39	8,42
456,888	8,4
457,386	8,33
457,884	8,16
458,382	8,38
458,879	8,71
459,377	8,53
459,874	8,53
460,372	8,3
460,869	8,58
461,366	8,49
461,863	8,71
462,36	8,4
462,857	8,77
463,353	8,51
463,85	8,7
464,346	8,8
464,843	8,61
465,339	8,51
465,835	8,5
466,331	8,4
466,827	8,52
467,323	8,22
467,818	8,71
468,314	8,73
468,809	8,6
469,305	8,76
469,8	8,73
470,295	8,65
470,79	8,75
471,285	8,43
471,78	8,54
472,274	8,48
472,769	8,62
473,263	8,56
473,758	8,73
474,252	8,4
474,746	8,51
475,24	8,84
475,734	8,6
476,228	8,55
476,721	8,76
477,215	8,57
477,708	8,72
478,202	8,87
478,695	8,71
479,188	8,63
479,681	8,8
480,174	8,67
480,667	8,58
481,159	8,81
481,652	8,67
482,144	8,79
482,637	8,86
483,129	8,99
483,621	9,1
484,113	9,22
484,605	9,03
485,097	8,96
485,588	8,97
486,08	9,09
486,571	9,26
487,063	9,02
487,554	9,02
488,045	9
488,536	9,18
489,027	9,04
489,518	9,25
490,008	9,33
490,499	9,34
490,989	9,56
491,48	9,68
491,97	9,4
492,46	9,48
492,95	9,94
493,44	9,74
493,93	10,07
494,419	10,04
494,909	9,95
495,398	10,17
495,888	9,94
496,377	10,09
496,866	10,11
497,355	10,49
497,844	10,67
498,333	10,58
498,821	10,59
499,31	11,04
499,798	10,96
500,287	11,38
500,775	11,4
501,263	11,74
501,751	11,57
502,239	11,82
502,727	12,2
503,215	12,16
503,702	12,67
504,19	12,7
504,677	12,69
505,164	13,09
505,651	13,25
506,139	13,38
506,625	13,44
507,112	14,25
507,599	14,33
508,086	14,24
508,572	14,64
509,058	14,55
509,545	15,04
510,031	15,12
510,517	15,67
511,003	16,02
511,489	16,11
511,974	16,51
512,46	16,52
512,946	16,82
513,431	17,24
513,916	17,54
514,401	17,57
514,887	17,85
515,371	18,29
515,856	18,77
516,341	19,29
516,826	19,35
517,31	19,85
517,795	19,79
518,279	20,35
518,763	21,14
519,247	21,15
519,731	21,68
520,215	21,62
520,699	21,86
521,182	22,13
521,666	23,26
522,149	23,12
522,633	23,28
523,116	23,36
523,599	24,01
524,082	24,09
524,565	23,97
525,048	24,69
525,53	24,78
526,013	25
526,495	25,37
526,978	25,89
527,46	26,64
527,942	25,78
528,424	26,4
528,906	26,51
529,388	27
529,87	26,94
530,351	27,02
530,833	27,57
531,314	27,88
531,795	27,9
532,277	27,9
532,758	28,13
533,238	28,34
533,719	28,51
534,2	28,82
534,681	28,6
535,161	28,76
535,642	28,24
536,122	28,64
536,602	28,88
537,082	29
537,562	29,19
538,042	28,91
538,522	29,08
539,001	29,03
539,481	29,11
539,96	29,38
540,44	29,21
540,919	29,46
541,398	29,28
541,877	29,2
542,356	29,24
542,835	29,73
543,313	29,58
543,792	29,45
544,27	29,1
544,749	29,71
545,227	29,59
545,705	29,89
546,183	29,81
546,661	29,85
547,139	29,56
547,616	29,84
548,094	30,23
548,571	29,94
549,049	30,1
549,526	29,97
550,003	30,21
550,48	30,13
550,957	29,61
551,434	29,91
551,911	30,03
552,387	29,72
552,864	30,3
553,34	30,2
553,817	30,29
554,293	30,38
554,769	30,15
555,245	30,04
555,721	30,49
556,197	30,43
556,672	30,14
557,148	29,98
557,623	30,23
558,099	29,98
558,574	29,99
559,049	30,19
559,524	30,09
559,999	29,89
560,474	29,73
560,948	30,21
561,423	29,69
561,897	29,78
562,372	29,9
562,846	29,59
563,32	29,53
563,794	29,44
564,268	29,51
564,742	29,4
565,216	29,48
565,69	28,8
566,163	28,92
566,636	28,75
567,11	28,64
567,583	28,47
568,056	28,38
568,529	28,21
569,002	28,1
569,475	27,9
569,947	27,83
570,42	27,39
570,892	27,55
571,365	27,18
571,837	27,15
572,309	26,95
572,781	26,76
573,253	26,86
573,725	26,19
574,197	26,46
574,668	26,1
575,14	26,21
575,611	25,96
576,082	25,68
576,554	25,5
577,025	25,57
577,496	25,21
577,967	25,11
578,437	25,02
578,908	24,82
579,379	24,75
579,849	24,73
580,319	24,8
580,79	24,19
581,26	24,49
581,73	24,05
582,2	24,11
582,669	23,99
583,139	23,75
583,609	23,74
584,078	23,72
584,548	23,18
585,017	23,36
585,486	23,2
585,955	23,04
586,424	23,06
586,893	23,01
587,362	22,96
587,83	22,8
588,299	22,72
588,767	22,9
589,236	22,45
589,704	22,94
590,172	22,49
590,64	22,34
591,108	22,42
591,576	22,1
592,043	21,99
592,511	21,81
592,978	22,06
593,446	21,78
593,913	21,75
594,38	21,68
594,847	21,78
595,314	21,79
595,781	21,65
596,248	21,53
596,715	21,41
597,181	21,57
597,647	21,61
598,114	21,5
598,58	21,52
599,046	21,33
599,512	21,24
599,978	21,09
600,444	21,21
600,91	21,02
601,375	21,36
601,841	21,17
602,306	21,02
602,771	20,99
603,236	21,1
603,702	21,11
604,167	20,99
604,631	20,99
605,096	20,75
605,561	20,43
606,025	20,85
606,49	20,56
606,954	20,44
607,418	20,42
607,882	20,29
608,347	20,23
608,81	20,04
609,274	19,97
609,738	20,06
610,202	19,9
610,665	19,91
611,128	19,65
611,592	19,91
612,055	19,6
612,518	19,47
612,981	19,25
613,444	19,02
613,907	18,98
614,369	19,12
614,832	18,75
615,294	18,68
615,757	18,68
616,219	18,67
616,681	18,54
617,143	18,31
617,605	18,18
618,067	18,33
618,529	18
618,99	17,9
619,452	17,91
619,913	18,03
620,375	17,95
620,836	17,91
621,297	17,84
621,758	17,77
622,219	17,75
622,68	17,63
623,14	17,55
623,601	17,64
624,061	17,39
624,522	17,32
624,982	17,45
625,442	17,25
625,902	17,25
626,362	17,39
626,822	17,17
627,282	16,98
627,742	17,07
628,201	17,13
628,661	16,95
629,12	17,04
629,579	17,1
630,038	17,06
630,497	17,03
630,956	17,01
631,415	16,94
631,874	16,81
632,332	16,77
632,791	16,69
633,249	16,62
633,708	16,74
634,166	16,72
634,624	16,61
635,082	16,63
635,54	16,51
635,998	16,24
636,455	16,24
636,913	16,04
637,37	15,95
637,828	15,88
638,285	15,8
638,742	15,75
639,199	15,61
639,656	15,29
640,113	15,1
640,57	14,91
641,027	15,03
641,483	14,89
641,94	14,68
642,396	14,55
642,852	14,53
643,309	14,4
643,765	13,92
644,221	13,83
644,676	13,96
645,132	13,63
645,588	13,49
646,043	13,49
646,499	13,09
646,954	13,01
647,409	12,99
647,864	12,7
648,319	12,66
648,774	12,54
649,229	12,36
649,684	12,34
650,139	12,35
650,593	12,25
651,047	12,17
651,502	12,27
651,956	11,93
652,41	12,05
652,864	11,98
653,318	11,81
653,772	11,84
654,225	12,01
654,679	11,68
655,133	11,6
655,586	11,61
656,039	11,41
656,492	11,44
656,946	11,33
657,399	11,27
657,851	11,12
658,304	11,11
658,757	10,91
659,209	10,93
659,662	10,66
660,114	10,7
660,567	10,62
661,019	10,47
661,471	10,49
661,923	10,17
662,375	10,1
662,826	10,1
663,278	9,91
663,73	9,91
664,181	9,76
664,632	9,73
665,084	9,54
665,535	9,49
665,986	9,5
666,437	9,51
666,888	9,45
667,338	9,36
667,789	9,36
668,24	9,34
668,69	9,34
669,14	9,18
669,591	9,22
670,041	9,29
670,491	9,3
670,941	9,25
671,391	9,39
671,84	9,24
672,29	9,35
672,74	9,35
673,189	9,4
673,638	9,38
674,088	9,55
674,537	9,68
674,986	9,71
675,435	9,8
675,883	9,85
676,332	9,94
676,781	10,17
677,229	10,15
677,678	10,17
678,126	10,44
678,574	10,52
679,022	10,67
679,47	10,68
679,918	10,86
680,366	10,94
680,814	11,02
681,261	11,3
681,709	11,42
682,156	11,42
682,604	11,77
683,051	11,93
683,498	12,02
683,945	12,03
684,392	12,53
684,839	12,69
685,286	12,66
685,732	13,02
686,179	13,2
686,625	13,24
687,071	13,69
687,518	13,9
687,964	14,08
688,41	14,46
688,856	14,74
689,301	15,18
689,747	15,42
690,193	15,94
690,638	16,26
691,084	16,65
691,529	17,19
691,974	17,53
692,419	18,17
692,864	18,51
693,309	18,95
693,754	19,5
694,199	20,26
694,643	20,6
695,088	21,18
695,532	21,78
695,977	22,39
696,421	22,84
696,865	23,1
697,309	23,88
697,753	24,28
698,197	24,97
698,64	25,36
699,084	25,75
699,527	26,31
699,971	26,81
700,414	27,1
700,857	27,55
701,3	27,95
701,743	28,44
702,186	28,87
702,629	29,55
703,072	29,73
703,515	30,12
703,957	30,28
704,399	30,68
704,842	31,05
705,284	31,34
705,726	31,86
706,168	32,14
706,61	32,44
707,052	32,72
707,494	33,03
707,935	33,39
708,377	33,5
708,818	33,78
709,26	34,08
709,701	34,42
710,142	34,76
710,583	34,78
711,024	35,21
711,465	35,33
711,905	35,62
712,346	35,74
712,787	36,12
713,227	36,43
713,667	36,51
714,108	36,6
714,548	37,03
714,988	37,24
715,428	37,28
715,868	37,52
716,307	37,88
716,747	38,15
717,186	38,1
717,626	38,35
718,065	38,18
718,504	38,69
718,944	38,82
719,383	38,91
719,822	39,16
720,261	39,25
720,699	39,6
721,138	39,59
721,576	39,68
722,015	39,86
722,453	39,72
722,892	40,15
723,33	39,99
723,768	40,38
724,206	40,33
724,644	40,39
725,081	40,54
725,519	40,64
725,957	40,69
726,394	40,7
726,832	41,19
727,269	41,34
727,706	41,25
728,143	41,15
728,58	41,32
729,017	41,35
729,454	41,39
729,89	41,08
730,327	41,5
730,764	41,44
731,2	41,77
731,636	41,56
732,072	41,39
732,509	41,96
732,945	41,93
733,38	41,78
733,816	41,81
734,252	41,73
734,688	41,99
735,123	41,81
735,559	41,71
735,994	42,14
736,429	42,01
736,864	41,69
737,299	42,05
737,734	42,05
738,169	41,96
738,604	42,21
739,038	42,17
739,473	42,21
739,907	42,07
740,342	42,05
740,776	42,02
741,21	41,88
741,644	41,99
742,078	41,78
742,512	42,21
742,946	41,75
743,379	41,99
743,813	41,84
744,246	41,7
744,68	42,08
745,113	42,03
745,546	41,85
745,979	42,1
746,412	41,88
746,845	41,91
747,278	41,73
747,711	41,73
748,143	41,45
748,576	41,9
749,008	41,7
749,441	41,76
749,873	41,51
750,305	41,51
750,737	41,28
751,169	41,35
751,601	41,49
752,032	41,17
752,464	41,48
752,896	41,33
753,327	41,26
753,758	41,58
754,19	41,25
754,621	41,2
755,052	41,12
755,483	41,09
755,914	41,28
756,344	41,14
756,775	40,85
757,206	41,05
757,636	40,78
758,066	41,39
758,497	40,9
758,927	40,95
759,357	40,77
759,787	40,88
760,217	40,77
760,647	40,43
761,076	40,66
761,506	40,79
761,935	40,7
762,365	40,4
762,794	40,32
763,223	40,52
763,653	40,63
764,082	40,54
764,51	40,22
764,939	40,39
765,368	40,31
765,797	39,92
766,225	40,24
766,654	40,25
767,082	40,62
767,51	40,04
767,938	39,94
768,367	39,9
768,795	39,88
769,222	39,89
769,65	40,19
770,078	40,02
770,505	39,85
770,933	39,92
771,36	39,73
771,788	39,79
772,215	39,81
772,642	39,97
773,069	40,04
773,496	39,77
773,923	40,21
774,349	39,78
774,776	39,64
775,203	39,42
775,629	39,85
776,055	39,65
776,482	39,74
776,908	39,78
777,334	39,63
777,76	39,53
778,186	39,55
778,611	39,57
779,037	39,66
779,463	39,58
779,888	39,54
780,314	39,56
780,739	39,6
781,164	39,55
781,589	39,47
782,014	39,38
782,439	39,44
782,864	39,47
783,289	39,38
783,713	39,35
784,138	39,41
784,562	39,48
784,987	39,29
785,411	39,28
785,835	39,35
786,259	39,32
786,683	39,12
787,107	39,39
787,531	39,47
787,954	39,4
788,378	39,31
788,802	39,17
789,225	39,13
789,648	39,2
790,071	39,26
790,495	39,31
790,918	39,03
791,34	39,06
791,763	39,29
792,186	39,13
792,609	39,1
793,031	39,1
793,454	39,07
793,876	39,09
794,298	39,08
794,721	38,92
795,143	39,04
795,565	38,72
795,986	39,08
796,408	39,18
796,83	39,01
797,252	39
797,673	39,28
798,094	39,22
798,516	39,02
798,937	38,85
799,358	38,96
799,779	39,11
800,2	38,95
800,621	38,98
801,042	39,04
801,462	39,11
801,883	39,15
802,303	38,7
802,724	38,89
803,144	38,88
803,564	38,75
803,984	38,73
804,404	38,74
804,824	39,08
805,244	39
805,664	38,91
806,084	38,89
806,503	38,94
806,923	38,88
807,342	39,05
807,761	38,72
808,18	38,62
808,599	38,81
809,018	39,08
809,437	38,68
809,856	39
810,275	38,87
810,693	38,94
811,112	39,02
811,53	39,01
811,949	38,92
812,367	38,68
812,785	38,88
813,203	38,55
813,621	38,66
814,039	38,72
814,457	38,94
814,874	38,66
815,292	38,91
815,709	38,79
816,127	38,48
816,544	38,82
816,961	38,52
817,378	38,84
817,795	38,45
818,212	38,65
818,629	38,74
819,046	38,55
819,462	38,9
819,879	38,61
820,295	38,58
820,712	38,7
821,128	38,96
821,544	38,37
821,96	38,9
822,376	38,56
822,792	38,59
823,208	38,49
823,624	38,65
824,039	38,61
824,455	39,01
824,87	38,74
825,286	38,59
825,701	38,41
826,116	38,62
826,531	38,5
826,946	38,67
827,361	38,64
827,776	38,79
828,19	38,66
828,605	38,49
829,02	38,68
829,434	38,72
829,848	38,25
830,263	38,51
830,677	38,66
831,091	38,7
831,505	38,63
831,919	38,62
832,332	38,53
832,746	38,39
833,16	38,5
833,573	38,6
833,987	38,59
834,4	38,42
834,813	38,68
835,226	38,62
835,639	38,38
836,052	38,5
836,465	38,26
836,878	38,6
837,29	38,34
837,703	38,63
838,116	38,31
838,528	38,49
838,94	38,42
839,352	38,64
839,765	38,6
