Data from C_4__Relative__3__00045.txt Node

Date: Mon Jan 29 18:12:24 CET 2024
User: diatiterra
Spectrometer: HDX00911
Trigger mode: 0
Integration Time (sec): 6,000000E-3
Scans to average: 2
Nonlinearity correction enabled: false
Boxcar width: 0
Storing dark spectrum: false
XAxis mode: Wavelengths
Number of Pixels in Spectrum: 2068
>>>>>Begin Spectral Data<<<<<
194,468	44,12
195,025	35,4
195,581	58,51
196,138	34,62
196,694	43,68
197,251	31,11
197,807	34,4
198,363	40
198,919	39,5
199,474	35
200,03	30,15
200,586	33,33
201,141	30,34
201,696	28,37
202,251	31,73
202,806	33,83
203,361	37,19
203,916	36,64
204,471	35,56
205,025	24,64
205,58	36,92
206,134	30,74
206,688	31,52
207,242	37,07
207,796	34,24
208,35	32,13
208,904	31,86
209,457	28,52
210,011	33,57
210,564	35,42
211,117	35,92
211,67	29,23
212,223	24,32
212,776	43,07
213,329	29,55
213,881	28,93
214,434	30
214,986	31,99
215,538	26,74
216,09	31,15
216,642	35,93
217,194	32,12
217,746	35,35
218,297	32,55
218,849	31,78
219,4	36,01
219,951	33,82
220,502	29,97
221,053	30,41
221,604	36,24
222,155	31,28
222,705	30,43
223,256	39,93
223,806	35,71
224,356	37,32
224,906	39,26
225,456	31,72
226,006	29,87
226,556	25,55
227,106	33,57
227,655	32,75
228,204	31,91
228,754	31,03
229,303	32,88
229,852	41,5
230,401	34,41
230,949	45,53
231,498	31,34
232,047	31,99
232,595	34,04
233,143	39,77
233,691	34,8
234,239	33,21
234,787	31,82
235,335	31,63
235,883	41,94
236,43	30,74
236,978	36
237,525	40,3
238,072	30,26
238,619	28,42
239,166	36,36
239,713	32,71
240,26	40,45
240,806	34,4
241,353	36,4
241,899	35,6
242,445	38,46
242,991	38,68
243,537	31,02
244,083	32
244,629	35,14
245,174	36,19
245,72	37,79
246,265	32,86
246,81	32,12
247,355	33,46
247,9	31,14
248,445	33,79
248,99	30,8
249,534	35,13
250,079	34,7
250,623	32,88
251,168	36,24
251,712	35,46
252,256	33,22
252,8	46,18
253,343	37,26
253,887	33,33
254,43	43,12
254,974	32,17
255,517	42,62
256,06	34,93
256,603	38,11
257,146	37,37
257,689	33,23
258,232	31,42
258,774	33,58
259,317	34,43
259,859	31
260,401	35,23
260,943	39,93
261,485	41,49
262,027	37,24
262,569	34,59
263,11	40,07
263,652	35,66
264,193	36,43
264,734	36,11
265,275	33,33
265,816	46,4
266,357	34,89
266,898	31,06
267,438	36,08
267,979	41,82
268,519	33,57
269,059	33,33
269,6	32,98
270,14	32,67
270,68	38,7
271,219	38,6
271,759	33,21
272,298	26,91
272,838	32,17
273,377	34,44
273,916	30,69
274,455	31,42
274,994	36,33
275,533	39,59
276,072	31,2
276,61	32,08
277,149	30,43
277,687	34,88
278,225	36,64
278,763	35,51
279,301	39,25
279,839	34,78
280,377	32,85
280,914	26,74
281,452	38,62
281,989	45,39
282,526	39,43
283,064	36,81
283,601	35,61
284,137	28,47
284,674	37,74
285,211	26,98
285,747	35,59
286,284	32,63
286,82	33,33
287,356	32,3
287,892	41,4
288,428	32,88
288,964	37,18
289,5	37,41
290,035	38,13
290,571	38,81
291,106	34,55
291,641	35,63
292,176	42,11
292,711	33,1
293,246	29,96
293,781	28,62
294,315	32,72
294,85	39,78
295,384	32,96
295,918	37,28
296,453	33,22
296,987	35,52
297,52	32,88
298,054	38,24
298,588	37,4
299,121	27,84
299,655	35,09
300,188	29,28
300,721	37,59
301,254	32,74
301,787	30,89
302,32	38,26
302,853	31,01
303,385	40,29
303,918	31,93
304,45	37,45
304,982	32,67
305,514	33,58
306,046	32,28
306,578	39,29
307,11	35,32
307,641	29,82
308,173	32,71
308,704	32,18
309,236	38,2
309,767	33,33
310,298	35,54
310,829	39,16
311,359	33,45
311,89	37,37
312,421	30,8
312,951	36,36
313,481	35,34
314,012	37
314,542	35,27
315,072	32,73
315,601	39,86
316,131	37,23
316,661	32,5
317,19	32,03
317,72	41,39
318,249	32,43
318,778	38,02
319,307	35,81
319,836	36,24
320,365	35,83
320,893	39,72
321,422	32,84
321,95	34,81
322,479	39,1
323,007	27,9
323,535	39,62
324,063	38,81
324,591	33,33
325,118	32,87
325,646	35,38
326,173	51,07
326,701	34,18
327,228	35,14
327,755	34,05
328,282	35,85
328,809	34,44
329,336	34,6
329,862	37,31
330,389	35,84
330,915	33,33
331,441	32,2
331,968	35,74
332,494	30,1
333,02	28,1
333,545	34,3
334,071	39,33
334,597	30,74
335,122	30,77
335,648	38,46
336,173	35,97
336,698	30,82
337,223	34,13
337,748	27,72
338,272	27,06
338,797	33,66
339,322	22,59
339,846	31,25
340,37	21,61
340,894	35,62
341,419	26,85
341,942	26,51
342,466	32,76
342,99	28,92
343,514	27,6
344,037	35,74
344,56	31,97
345,084	27,76
345,607	36,17
346,13	26,15
346,653	26,73
347,175	33,55
347,698	31,55
348,221	26,16
348,743	26,53
349,265	30,95
349,787	31,71
350,309	31,13
350,831	29,55
351,353	31,22
351,875	32,02
352,397	29,48
352,918	34,18
353,439	37,67
353,961	25,92
354,482	30,9
355,003	29,22
355,524	29,85
356,044	28,23
356,565	27,93
357,086	25,95
357,606	25,78
358,126	34,79
358,646	30,85
359,167	34,4
359,687	29,72
360,206	32,05
360,726	27,82
361,246	31,08
361,765	27,63
362,285	27,96
362,804	30,67
363,323	22,25
363,842	30,24
364,361	30,3
364,88	27,43
365,398	26,93
365,917	33,68
366,435	30,04
366,954	30,46
367,472	31,77
367,99	26,9
368,508	29,69
369,026	27,13
369,544	27,82
370,061	32,34
370,579	29,83
371,096	27,92
371,613	30,83
372,131	31,16
372,648	32,31
373,165	33,45
373,681	28,72
374,198	28,2
374,715	33,16
375,231	29,41
375,747	31,74
376,264	27,48
376,78	30,3
377,296	32,59
377,812	24,48
378,327	26,22
378,843	32,2
379,359	30,14
379,874	29,51
380,389	31,09
380,905	27,98
381,42	24,93
381,935	27,87
382,449	29,35
382,964	27,89
383,479	28,74
383,993	27,64
384,508	24,36
385,022	27,89
385,536	26,4
386,05	25,94
386,564	28,02
387,078	23,46
387,592	27,81
388,105	26,06
388,619	24,29
389,132	25
389,645	22,44
390,158	25,2
390,671	24,12
391,184	25,52
391,697	22,48
392,21	23,45
392,722	20,78
393,235	22,67
393,747	22,93
394,259	22,22
394,771	21,2
395,283	21,42
395,795	21,82
396,307	22,77
396,818	21,79
397,33	21,02
397,841	20,79
398,353	20,54
398,864	20,99
399,375	20,92
399,886	18,98
400,397	19,22
400,907	18,7
401,418	19,07
401,928	18,85
402,439	17,91
402,949	17,09
403,459	18,42
403,969	17,9
404,479	17,66
404,989	17,52
405,498	15,95
406,008	15,59
406,517	14,64
407,027	14,9
407,536	15,18
408,045	14,08
408,554	13,19
409,063	13,9
409,572	14,04
410,08	14,09
410,589	13,34
411,097	11,55
411,606	12,45
412,114	12,17
412,622	12,44
413,13	11,91
413,638	11,79
414,145	11,52
414,653	11,65
415,16	10,86
415,668	11,13
416,175	10,8
416,682	10,75
417,189	10,83
417,696	10,76
418,203	10,4
418,71	10,36
419,216	9,49
419,723	10,73
420,229	10,12
420,735	10,53
421,242	10,42
421,748	10,95
422,254	9,57
422,759	9,95
423,265	9,77
423,771	9,11
424,276	8,9
424,781	9,58
425,287	9,23
425,792	9,53
426,297	10,05
426,802	8,95
427,306	9,62
427,811	9,73
428,316	9,32
428,82	9,16
429,324	8,78
429,829	9,43
430,333	9
430,837	9,2
431,34	9,22
431,844	8,87
432,348	9,1
432,851	8,92
433,355	9,19
433,858	8,92
434,361	8,56
434,864	9,08
435,367	9,05
435,87	8,61
436,373	8,92
436,876	9,12
437,378	8,63
437,88	8,95
438,383	8,42
438,885	8,52
439,387	8,29
439,889	8,85
440,391	8,7
440,892	8,53
441,394	8,52
441,896	8,81
442,397	8,55
442,898	8,53
443,399	9,02
443,9	8,97
444,401	8,96
444,902	9,21
445,403	8,31
445,903	9,16
446,404	9,15
446,904	8,72
447,405	8,57
447,905	9,05
448,405	8,65
448,905	9,19
449,404	9,17
449,904	9,21
450,404	8,89
450,903	9,05
451,403	9,1
451,902	9,26
452,401	9,2
452,9	9,02
453,399	9,69
453,898	9,33
454,396	9,48
454,895	9,83
455,393	9,13
455,892	9,6
456,39	10
456,888	9,09
457,386	9,38
457,884	9,58
458,382	9,41
458,879	9,54
459,377	9,59
459,874	9,77
460,372	9,24
460,869	9,79
461,366	9,5
461,863	9,58
462,36	9,68
462,857	9,31
463,353	9,36
463,85	9,31
464,346	9,7
464,843	9,65
465,339	9,59
465,835	9,71
466,331	9,47
466,827	9,36
467,323	9,24
467,818	9,68
468,314	9,91
468,809	9,4
469,305	10
469,8	9,72
470,295	9,5
470,79	9,79
471,285	9,6
471,78	9,56
472,274	9,64
472,769	9,63
473,263	9,66
473,758	9,57
474,252	10
474,746	9,66
475,24	9,61
475,734	9,62
476,228	9,78
476,721	9,84
477,215	9,57
477,708	9,43
478,202	9,8
478,695	9,62
479,188	9,57
479,681	9,5
480,174	9,69
480,667	9,68
481,159	9,74
481,652	10,17
482,144	9,67
482,637	9,86
483,129	10,03
483,621	9,92
484,113	10,46
484,605	9,93
485,097	10
485,588	10,03
486,08	10,38
486,571	9,85
487,063	10,22
487,554	10,44
488,045	10,17
488,536	10,05
489,027	10,45
489,518	10,15
490,008	10,4
490,499	10,57
490,989	10,38
491,48	10,43
491,97	10,37
492,46	10,62
492,95	10,58
493,44	11,11
493,93	11,07
494,419	10,85
494,909	10,91
495,398	10,98
495,888	11,23
496,377	11,37
496,866	11,36
497,355	11,54
497,844	11,56
498,333	11,49
498,821	11,38
499,31	12,1
499,798	12,11
500,287	11,92
500,775	12,21
501,263	12,4
501,751	12,29
502,239	12,51
502,727	12,77
503,215	13,06
503,702	13,32
504,19	13,59
504,677	13,56
505,164	13,57
505,651	14
506,139	13,83
506,625	14,01
507,112	14,57
507,599	14,5
508,086	14,61
508,572	15,18
509,058	15,12
509,545	15,15
510,031	15,81
510,517	15,61
511,003	15,92
511,489	16,13
511,974	16,52
512,46	16,67
512,946	17,02
513,431	16,84
513,916	17,55
514,401	17,59
514,887	17,85
515,371	18,34
515,856	17,98
516,341	18,66
516,826	19,13
517,31	19,24
517,795	19,47
518,279	19,52
518,763	19,92
519,247	20,09
519,731	20,62
520,215	20,87
520,699	21,08
521,182	21,21
521,666	21,59
522,149	21,7
522,633	22,07
523,116	22,03
523,599	22,29
524,082	22,85
524,565	22,97
525,048	22,99
525,53	23,14
526,013	23,53
526,495	23,59
526,978	23,75
527,46	24,49
527,942	24,23
528,424	24,65
528,906	24,57
529,388	24,77
529,87	24,98
530,351	25,01
530,833	25,04
531,314	25,44
531,795	25,3
532,277	25,43
532,758	25,46
533,238	25,68
533,719	25,78
534,2	25,85
534,681	25,9
535,161	26,42
535,642	25,99
536,122	25,92
536,602	26,38
537,082	26
537,562	26,33
538,042	26,3
538,522	26,52
539,001	26,51
539,481	26,15
539,96	26,3
540,44	26,69
540,919	26,85
541,398	26,44
541,877	26,73
542,356	26,57
542,835	26,92
543,313	26,93
543,792	27,03
544,27	26,91
544,749	26,98
545,227	26,62
545,705	27,08
546,183	26,84
546,661	26,91
547,139	26,78
547,616	27,14
548,094	27,19
548,571	27,11
549,049	26,95
549,526	27,12
550,003	27,13
550,48	26,98
550,957	27,1
551,434	27,24
551,911	27,26
552,387	27,06
552,864	27,02
553,34	27,27
553,817	27,17
554,293	27,29
554,769	27,19
555,245	27,43
555,721	27
556,197	27,65
556,672	26,99
557,148	27,09
557,623	27,18
558,099	27,16
558,574	27
559,049	26,97
559,524	27,14
559,999	27,17
560,474	26,74
560,948	27,26
561,423	27,27
561,897	27,13
562,372	27,09
562,846	26,8
563,32	26,96
563,794	26,81
564,268	26,53
564,742	26,97
565,216	26,62
565,69	26,46
566,163	26,23
566,636	26,21
567,11	26,35
567,583	26,02
568,056	26,23
568,529	25,7
569,002	25,84
569,475	25,3
569,947	25,8
570,42	25,36
570,892	25,18
571,365	25,07
571,837	25,16
572,309	25,31
572,781	24,7
573,253	24,74
573,725	24,34
574,197	24,42
574,668	24,39
575,14	24,48
575,611	23,95
576,082	24
576,554	23,92
577,025	23,77
577,496	23,66
577,967	23,62
578,437	23,5
578,908	23,16
579,379	23,33
579,849	23,39
580,319	23,05
580,79	22,88
581,26	22,9
581,73	22,87
582,2	22,66
582,669	22,77
583,139	22,58
583,609	22,5
584,078	22,42
584,548	22,2
585,017	22,3
585,486	21,79
585,955	22,04
586,424	22,12
586,893	22,01
587,362	22,12
587,83	21,85
588,299	21,53
588,767	21,56
589,236	21,65
589,704	21,65
590,172	21,64
590,64	21,23
591,108	21,23
591,576	21,54
592,043	21,02
592,511	21,2
592,978	21,21
593,446	21,12
593,913	21,3
594,38	21,13
594,847	20,85
595,314	20,81
595,781	20,92
596,248	20,82
596,715	20,93
597,181	20,79
597,647	20,9
598,114	20,52
598,58	20,85
599,046	20,49
599,512	20,72
599,978	20,78
600,444	20,83
600,91	20,65
601,375	20,74
601,841	20,62
602,306	20,48
602,771	20,45
603,236	20,63
603,702	20,56
604,167	20,19
604,631	19,94
605,096	20,21
605,561	20,08
606,025	20,24
606,49	20,03
606,954	20,01
607,418	19,93
607,882	19,92
608,347	19,79
608,81	19,93
609,274	19,63
609,738	19,56
610,202	19,6
610,665	19,39
611,128	19,35
611,592	19,49
612,055	19,11
612,518	19,21
612,981	19,13
613,444	18,87
613,907	18,73
614,369	18,72
614,832	18,84
615,294	18,62
615,757	18,4
616,219	18,46
616,681	18,31
617,143	18,22
617,605	18,09
618,067	18,16
618,529	18,11
618,99	18,15
619,452	17,92
619,913	17,93
620,375	17,85
620,836	17,85
621,297	17,83
621,758	17,7
622,219	17,63
622,68	17,55
623,14	17,65
623,601	17,64
624,061	17,36
624,522	17,52
624,982	17,48
625,442	17,51
625,902	17,19
626,362	17,31
626,822	17,36
627,282	17,27
627,742	17,36
628,201	17,29
628,661	17,35
629,12	17,15
629,579	16,93
630,038	17,27
630,497	17,22
630,956	17,12
631,415	17,13
631,874	16,98
632,332	17,14
632,791	16,93
633,249	17,01
633,708	16,84
634,166	17,03
634,624	16,81
635,082	16,64
635,54	16,85
635,998	16,54
636,455	16,58
636,913	16,45
637,37	16,31
637,828	16,11
638,285	16,26
638,742	16,32
639,199	16,09
639,656	15,91
640,113	15,72
640,57	15,58
641,027	15,67
641,483	15,4
641,94	15,27
642,396	15,22
642,852	15,13
643,309	15,05
643,765	14,7
644,221	14,6
644,676	14,45
645,132	14,5
645,588	14,38
646,043	14,35
646,499	14,1
646,954	13,98
647,409	13,76
647,864	13,83
648,319	13,54
648,774	13,51
649,229	13,64
649,684	13,35
650,139	13,33
650,593	13,29
651,047	13,23
651,502	13,18
651,956	13,17
652,41	13,11
652,864	13,11
653,318	13
653,772	12,76
654,225	12,85
654,679	12,75
655,133	12,6
655,586	12,76
656,039	12,62
656,492	12,64
656,946	12,55
657,399	12,4
657,851	12,27
658,304	12,37
658,757	12,14
659,209	12,1
659,662	11,89
660,114	11,69
660,567	11,65
661,019	11,53
661,471	11,4
661,923	11,43
662,375	11,27
662,826	11,13
663,278	10,95
663,73	11,03
664,181	10,95
664,632	10,94
665,084	10,71
665,535	10,6
665,986	10,53
666,437	10,52
666,888	10,55
667,338	10,35
667,789	10,35
668,24	10,32
668,69	10,37
669,14	10,19
669,591	10,23
670,041	10,31
670,491	10,25
670,941	10,11
671,391	10,17
671,84	10,22
672,29	10,13
672,74	10,15
673,189	10,28
673,638	10,32
674,088	10,28
674,537	10,36
674,986	10,38
675,435	10,4
675,883	10,56
676,332	10,47
676,781	10,51
677,229	10,74
677,678	10,7
678,126	10,73
678,574	10,92
679,022	11,1
679,47	11,11
679,918	11,14
680,366	11,27
680,814	11,4
681,261	11,41
681,709	11,71
682,156	11,64
682,604	11,92
683,051	11,96
683,498	12,21
683,945	12,21
684,392	12,4
684,839	12,63
685,286	12,85
685,732	13,11
686,179	13,28
686,625	13,3
687,071	13,69
687,518	13,89
687,964	14,22
688,41	14,38
688,856	14,68
689,301	15
689,747	15,48
690,193	15,7
690,638	16,11
691,084	16,44
691,529	16,94
691,974	17,25
692,419	17,61
692,864	18,03
693,309	18,46
693,754	18,91
694,199	19,35
694,643	19,56
695,088	20,26
695,532	20,51
695,977	21,03
696,421	21,41
696,865	21,93
697,309	22,17
697,753	22,61
698,197	23,09
698,64	23,38
699,084	23,66
699,527	24,24
699,971	24,45
700,414	24,83
700,857	24,98
701,3	25,48
701,743	25,66
702,186	26,01
702,629	26,72
703,072	26,77
703,515	26,99
703,957	27,33
704,399	27,48
704,842	27,76
705,284	28,24
705,726	28,31
706,168	28,73
706,61	28,66
707,052	29,35
707,494	29,3
707,935	29,49
708,377	29,92
708,818	30,05
709,26	30,24
709,701	30,2
710,142	30,54
710,583	30,84
711,024	31,02
711,465	31,21
711,905	31,27
712,346	31,42
712,787	31,49
713,227	31,92
713,667	32,08
714,108	32,21
714,548	32,18
714,988	32,6
715,428	32,47
715,868	32,79
716,307	32,9
716,747	32,94
717,186	33,12
717,626	33,29
718,065	33,18
718,504	33,48
718,944	33,29
719,383	33,32
719,822	33,97
720,261	33,84
720,699	33,9
721,138	33,87
721,576	34,37
722,015	34,31
722,453	34,36
722,892	34,69
723,33	34,52
723,768	34,74
724,206	34,75
724,644	34,73
725,081	34,9
725,519	34,86
725,957	35
726,394	35,18
726,832	35,3
727,269	35,37
727,706	35,33
728,143	35,42
728,58	35,34
729,017	35,36
729,454	35,5
729,89	35,36
730,327	35,69
730,764	35,51
731,2	35,73
731,636	35,5
732,072	35,42
732,509	35,63
732,945	35,98
733,38	35,92
733,816	35,91
734,252	35,6
734,688	35,74
735,123	35,76
735,559	35,91
735,994	35,71
736,429	35,75
736,864	35,94
737,299	35,85
737,734	36,05
738,169	35,8
738,604	35,92
739,038	35,95
739,473	36,02
739,907	36,23
740,342	36,03
740,776	36,03
741,21	35,82
741,644	36
742,078	35,85
742,512	36,23
742,946	35,74
743,379	35,79
743,813	35,85
744,246	35,78
744,68	35,77
745,113	35,59
745,546	35,78
745,979	35,48
746,412	35,91
746,845	35,75
747,278	35,64
747,711	35,66
748,143	35,58
748,576	35,58
749,008	35,72
749,441	35,6
749,873	35,56
750,305	35,54
750,737	35,35
751,169	35,58
751,601	35,41
752,032	35,43
752,464	35,59
752,896	35,47
753,327	35,29
753,758	35,53
754,19	35,44
754,621	35,38
755,052	35,42
755,483	35,18
755,914	35,28
756,344	35,09
756,775	35,3
757,206	35,18
757,636	34,96
758,066	35,29
758,497	35,27
758,927	34,93
759,357	35,26
759,787	35,08
760,217	34,84
760,647	34,88
761,076	34,91
761,506	35,1
761,935	35
762,365	34,94
762,794	34,65
763,223	34,78
763,653	34,94
764,082	34,88
764,51	34,81
764,939	34,48
765,368	34,75
765,797	34,53
766,225	34,71
766,654	34,6
767,082	34,99
767,51	34,45
767,938	34,65
768,367	34,34
768,795	34,54
769,222	34,56
769,65	34,44
770,078	34,33
770,505	34,44
770,933	34,44
771,36	34,29
771,788	34,48
772,215	34,72
772,642	34,41
773,069	34,46
773,496	34,41
773,923	34,34
774,349	34,25
774,776	34,27
775,203	34,14
775,629	34,35
776,055	34,21
776,482	34,33
776,908	34,14
777,334	34,35
777,76	34,28
778,186	34,25
778,611	34,04
779,037	34,22
779,463	34,25
779,888	34,02
780,314	34,22
780,739	34,18
781,164	33,88
781,589	34,16
782,014	34,14
782,439	34,29
782,864	34,17
783,289	34,19
783,713	34,14
784,138	34,09
784,562	34,24
784,987	34,09
785,411	33,8
785,835	33,92
786,259	33,84
786,683	34,03
787,107	34,26
787,531	33,91
787,954	33,91
788,378	34,17
788,802	33,9
789,225	34,11
789,648	33,95
790,071	33,86
790,495	34,01
790,918	33,93
791,34	33,89
791,763	33,81
792,186	33,62
792,609	33,89
793,031	33,97
793,454	33,88
793,876	33,86
794,298	33,86
794,721	33,88
795,143	34,02
795,565	33,53
795,986	33,94
796,408	34,04
796,83	33,95
797,252	33,59
797,673	33,69
798,094	33,84
798,516	33,81
798,937	33,6
799,358	33,83
799,779	33,91
800,2	33,76
800,621	33,75
801,042	33,76
801,462	33,89
801,883	33,79
802,303	33,51
802,724	33,78
803,144	33,85
803,564	33,81
803,984	33,74
804,404	33,54
804,824	33,61
805,244	33,81
805,664	33,78
806,084	33,77
806,503	33,89
806,923	33,79
807,342	33,83
807,761	33,57
808,18	33,47
808,599	33,44
809,018	33,64
809,437	33,36
809,856	33,53
810,275	33,67
810,693	33,6
811,112	33,73
811,53	33,63
811,949	33,69
812,367	33,62
812,785	33,35
813,203	33,47
813,621	33,61
814,039	33,65
814,457	33,68
814,874	33,77
815,292	33,55
815,709	33,78
816,127	33,37
816,544	33,51
816,961	33,48
817,378	33,73
817,795	33,61
818,212	33,51
818,629	33,66
819,046	33,72
819,462	33,69
819,879	33,51
820,295	33,42
820,712	33,69
821,128	33,49
821,544	33,62
821,96	33,62
822,376	33,66
822,792	33,31
823,208	33,51
823,624	33,47
824,039	33,32
824,455	33,5
824,87	33,6
825,286	33,67
825,701	33,59
826,116	33,31
826,531	33,49
826,946	33,56
827,361	33,43
827,776	33,85
828,19	33,53
828,605	33,36
829,02	33,47
829,434	33,47
829,848	33,42
830,263	33,43
830,677	33,52
831,091	33,47
831,505	33,59
831,919	33,52
832,332	33,27
832,746	33,66
833,16	33,22
833,573	33,37
833,987	33,38
834,4	33,22
834,813	33,44
835,226	33,5
835,639	33,31
836,052	33,48
836,465	33,39
836,878	33,4
837,29	33,26
837,703	33,6
838,116	33,38
