Data from D_1__Relative__9__00068.txt Node

Date: Mon Jan 29 18:15:01 CET 2024
User: diatiterra
Spectrometer: HDX00911
Trigger mode: 0
Integration Time (sec): 6,000000E-3
Scans to average: 2
Nonlinearity correction enabled: false
Boxcar width: 0
Storing dark spectrum: false
XAxis mode: Wavelengths
Number of Pixels in Spectrum: 2068
>>>>>Begin Spectral Data<<<<<
194,468	47,06
195,025	29,2
195,581	45,74
196,138	28,46
196,694	39,08
197,251	33,33
197,807	36,8
198,363	30,55
198,919	31,67
199,474	21,43
200,03	21,32
200,586	26,53
201,141	39,7
201,696	26,3
202,251	29,15
202,806	30,83
203,361	31,23
203,916	31,51
204,471	28,52
205,025	25
205,58	27,96
206,134	25,93
206,688	31,52
207,242	25,51
207,796	30,51
208,35	20,58
208,904	26,44
209,457	29,96
210,011	27,62
210,564	35,76
211,117	31,34
211,67	22,89
212,223	25,68
212,776	31,46
213,329	25,09
213,881	22,14
214,434	27,59
214,986	24,92
215,538	26,74
216,09	26,23
216,642	28,89
217,194	28,81
217,746	27,27
218,297	25,84
218,849	31,46
219,4	31,82
219,951	30,91
220,502	22,3
221,053	32,29
221,604	34,23
222,155	30,86
222,705	30,77
223,256	31,29
223,806	28,91
224,356	29,71
224,906	27,78
225,456	26,55
226,006	26,85
226,556	29,2
227,106	29,37
227,655	27,18
228,204	21,38
228,754	26,9
229,303	28,14
229,852	29,41
230,401	25,09
230,949	34,63
231,498	25,37
232,047	33,67
232,595	28,01
233,143	28,41
233,691	32
234,239	20,9
234,787	20,63
235,335	20,07
235,883	38,35
236,43	31,11
236,978	25,82
237,525	31,34
238,072	27,68
238,619	22,26
239,166	27,61
239,713	33,46
240,26	32,96
240,806	27,3
241,353	36,75
241,899	34,3
242,445	29,37
242,991	34,49
243,537	27,39
244,083	30,91
244,629	35,47
245,174	31,72
245,72	26,76
246,265	31,1
246,81	25,55
247,355	32,35
247,9	24,57
248,445	37,24
248,99	24,91
249,534	31,65
250,079	29,85
250,623	28,81
251,168	28,19
251,712	31,91
252,256	32,56
252,8	37,85
253,343	36,62
253,887	32,99
254,43	35,32
254,974	31,82
255,517	34,56
256,06	20,21
256,603	31,7
257,146	34,34
257,689	33,54
258,232	35,25
258,774	21,03
259,317	29,67
259,859	29,89
260,401	33,71
260,943	30,6
261,485	31,91
262,027	26,55
262,569	27,07
263,11	33,57
263,652	34,56
264,193	27,14
264,734	38,1
265,275	26,51
265,816	28,78
266,357	33,09
266,898	34,81
267,438	23,92
267,979	24,73
268,519	25,99
269,059	34,4
269,6	32,63
270,14	32,67
270,68	23,37
271,219	30,88
271,759	24,25
272,298	20
272,838	27,13
273,377	22,96
273,916	23,1
274,455	32,57
274,994	27,7
275,533	30,03
276,072	20,3
276,61	28,67
277,149	25
277,687	32,38
278,225	30,48
278,763	27,9
279,301	29,06
279,839	33,33
280,377	22,99
280,914	28,21
281,452	36,18
281,989	35,49
282,526	35,48
283,064	31,6
283,601	29,55
284,137	29,56
284,674	29,06
285,211	25,18
285,747	31,53
286,284	24,91
286,82	29,08
287,356	30,93
287,892	31,23
288,428	26,1
288,964	25,63
289,5	29,93
290,035	29,5
290,571	28,73
291,106	25,82
291,641	28,74
292,176	30,45
292,711	26,55
293,246	23,83
293,781	23,79
294,315	22,43
294,85	30,66
295,384	34,07
295,918	27,87
296,453	30,74
296,987	36,55
297,52	23,97
298,054	29,04
298,588	36,22
299,121	19,41
299,655	28,77
300,188	29,28
300,721	27,59
301,254	37,72
301,787	28,05
302,32	35,61
302,853	33,8
303,385	30,4
303,918	29,82
304,45	30,5
304,982	32,27
305,514	29,89
306,046	28,42
306,578	35
307,11	23,05
307,641	30,18
308,173	30,48
308,704	36,02
309,236	30,34
309,767	27,92
310,298	32,75
310,829	39,54
311,359	31,67
311,89	34,16
312,421	30,43
312,951	38,55
313,481	39,76
314,012	36,63
314,542	32,53
315,072	38,55
315,601	38,08
316,131	32,48
316,661	37,08
317,19	27,76
317,72	31,5
318,249	32,43
318,778	35,74
319,307	32,43
319,836	36,24
320,365	35,18
320,893	37,59
321,422	36,57
321,95	37,41
322,479	32,53
323,007	34,42
323,535	42,26
324,063	36,19
324,591	30,67
325,118	27,62
325,646	35,77
326,173	36,79
326,701	33,09
327,228	36,1
327,755	32,62
328,282	32,83
328,809	29,26
329,336	32,53
329,862	37,31
330,389	30,03
330,915	38,3
331,441	26,44
331,968	28,52
332,494	27,76
333,02	33,21
333,545	29,24
334,071	38,67
334,597	26,69
335,122	23,75
335,648	34,43
336,173	28,38
336,698	27,4
337,223	35,49
337,748	23,51
338,272	29,7
338,797	33,98
339,322	27,57
339,846	21,48
340,37	26,37
340,894	30,14
341,419	31,54
341,942	34,9
342,466	25,94
342,99	26,15
343,514	25
344,037	26,23
344,56	25,71
345,084	24,61
345,607	26,14
346,13	28,31
346,653	27,04
347,175	28,39
347,698	26,19
348,221	31,1
348,743	24,78
349,265	28,27
349,787	24
350,309	23,69
350,831	20,3
351,353	29,89
351,875	22,75
352,397	27
352,918	28,81
353,439	29
353,961	18,59
354,482	27,81
355,003	23,06
355,524	20,15
356,044	26,65
356,565	24,69
357,086	23,41
357,606	23,37
358,126	23,6
358,646	26,62
359,167	21,13
359,687	25,24
360,206	22,17
360,726	18,41
361,246	19,76
361,765	22,15
362,285	23,7
362,804	22,67
363,323	21,1
363,842	21,9
364,361	22,51
364,88	27,85
365,398	21,41
365,917	25,87
366,435	20,82
366,954	22,65
367,472	21,11
367,99	24,85
368,508	21,29
369,026	21,12
369,544	20,18
370,061	23,2
370,579	21,95
371,096	20,62
371,613	18,35
372,131	23,94
372,648	24,01
373,165	23,05
373,681	21,72
374,198	19,18
374,715	21,7
375,231	18,92
375,747	23,14
376,264	19,01
376,78	23,29
377,296	20,41
377,812	16,91
378,327	17,93
378,843	23,34
379,359	17,1
379,874	20,63
380,389	21,73
380,905	19,5
381,42	19,58
381,935	20,27
382,449	22,74
382,964	21,19
383,479	20,43
383,993	20,43
384,508	19,67
385,022	21,47
385,536	19,46
386,05	17,88
386,564	18,26
387,078	18,95
387,592	17,4
388,105	16,52
388,619	19,47
389,132	17,49
389,645	18,44
390,158	16,62
390,671	18,4
391,184	13,54
391,697	15,05
392,21	16,76
392,722	15,42
393,235	15,38
393,747	17,37
394,259	15,78
394,771	14,44
395,283	12,98
395,795	14,6
396,307	14,25
396,818	14,67
397,33	14,06
397,841	15,02
398,353	13,92
398,864	14,76
399,375	14,35
399,886	12,43
400,397	12,98
400,907	14,79
401,418	12,38
401,928	12,99
402,439	12,56
402,949	12,03
403,459	13
403,969	10,81
404,479	9,91
404,989	10,44
405,498	10,21
406,008	9,66
406,517	9,16
407,027	9,74
407,536	9,33
408,045	9,35
408,554	9,47
409,063	8,31
409,572	8,57
410,08	8,2
410,589	8,19
411,097	7,52
411,606	7,7
412,114	8
412,622	8,11
413,13	7,07
413,638	6,48
414,145	7,19
414,653	6,64
415,16	6,71
415,668	6,73
416,175	5,96
416,682	6,26
417,189	5,72
417,696	5,69
418,203	6
418,71	5,57
419,216	5,24
419,723	6,03
420,229	5,24
420,735	5,34
421,242	5,43
421,748	5,73
422,254	5,31
422,759	5,5
423,265	5,11
423,771	4,62
424,276	5,63
424,781	5,01
425,287	4,78
425,792	4,84
426,297	5,2
426,802	4,82
427,306	4,92
427,811	4,9
428,316	4,93
428,82	4,73
429,324	4,87
429,829	5,11
430,333	5,13
430,837	4,7
431,34	4,55
431,844	4,81
432,348	4,45
432,851	4,6
433,355	4,49
433,858	4,36
434,361	4,31
434,864	4,49
435,367	4,47
435,87	4,61
436,373	4,82
436,876	3,91
437,378	4,11
437,88	4,42
438,383	4,26
438,885	4,41
439,387	4,18
439,889	4,13
440,391	4,62
440,892	3,92
441,394	4,41
441,896	4,2
442,397	3,97
442,898	4,58
443,399	4,24
443,9	4,5
444,401	3,99
444,902	4,3
445,403	4,27
445,903	4,12
446,404	4,14
446,904	4,35
447,405	4,22
447,905	4,26
448,405	4,2
448,905	4,45
449,404	4,53
449,904	4,56
450,404	4,22
450,903	4,28
451,403	4,37
451,902	4,23
452,401	4,64
452,9	4,07
453,399	4,56
453,898	4,5
454,396	4,37
454,895	4,47
455,393	4,36
455,892	4,49
456,39	4,57
456,888	4,27
457,386	4,42
457,884	4,53
458,382	4,44
458,879	4,54
459,377	4,5
459,874	4,35
460,372	4,44
460,869	4,31
461,366	4,64
461,863	4,53
462,36	4,36
462,857	4,57
463,353	4,2
463,85	4,64
464,346	4,53
464,843	4,53
465,339	4,3
465,835	4,68
466,331	4,44
466,827	4,41
467,323	4,46
467,818	4,44
468,314	4,47
468,809	4,53
469,305	4,38
469,8	4,49
470,295	4,82
470,79	4,5
471,285	4,31
471,78	4,3
472,274	4,45
472,769	4,46
473,263	4,31
473,758	4,36
474,252	4,6
474,746	4,45
475,24	4,53
475,734	4,45
476,228	4,6
476,721	4,33
477,215	4,46
477,708	4,64
478,202	4,59
478,695	4,24
479,188	4,44
479,681	4,52
480,174	4,6
480,667	4,52
481,159	4,34
481,652	4,7
482,144	4,13
482,637	4,3
483,129	4,42
483,621	4,41
484,113	4,71
484,605	4,67
485,097	4,58
485,588	4,69
486,08	4,69
486,571	4,65
487,063	4,58
487,554	4,54
488,045	4,78
488,536	4,65
489,027	4,67
489,518	4,68
490,008	4,8
490,499	4,62
490,989	4,79
491,48	5
491,97	4,91
492,46	4,69
492,95	4,87
493,44	4,75
493,93	4,86
494,419	5,15
494,909	4,83
495,398	4,83
495,888	4,95
496,377	5,2
496,866	5,09
497,355	5,05
497,844	5,37
498,333	5,31
498,821	5,12
499,31	5,55
499,798	5,33
500,287	5,42
500,775	5,57
501,263	5,43
501,751	5,66
502,239	5,82
502,727	5,92
503,215	5,87
503,702	6,16
504,19	6,19
504,677	5,96
505,164	6,22
505,651	6,32
506,139	6,08
506,625	6,51
507,112	6,57
507,599	6,64
508,086	6,84
508,572	7,09
509,058	7,05
509,545	7,24
510,031	7,23
510,517	7,27
511,003	7,68
511,489	7,75
511,974	7,9
512,46	8,16
512,946	8,12
513,431	8,17
513,916	8,39
514,401	8,64
514,887	8,8
515,371	8,63
515,856	9,2
516,341	9,35
516,826	9,47
517,31	9,8
517,795	10,14
518,279	10,15
518,763	10,42
519,247	10,59
519,731	10,85
520,215	10,99
520,699	11,4
521,182	11,37
521,666	12,03
522,149	11,77
522,633	12,19
523,116	12,43
523,599	12,58
524,082	12,87
524,565	12,99
525,048	13,25
525,53	13,39
526,013	13,69
526,495	13,89
526,978	13,98
527,46	14,35
527,942	14,19
528,424	14,82
528,906	14,56
529,388	15,1
529,87	15,07
530,351	14,74
530,833	15,16
531,314	15,38
531,795	15,46
532,277	15,65
532,758	15,55
533,238	15,79
533,719	15,64
534,2	15,82
534,681	16,2
535,161	16,04
535,642	16,17
536,122	16,17
536,602	16,3
537,082	16,44
537,562	16,39
538,042	16,46
538,522	16,65
539,001	16,49
539,481	16,72
539,96	16,36
540,44	16,71
540,919	16,68
541,398	16,69
541,877	16,89
542,356	16,89
542,835	16,93
543,313	16,73
543,792	17,01
544,27	16,85
544,749	17,14
545,227	16,53
545,705	16,92
546,183	17,16
546,661	17
547,139	16,88
547,616	17,2
548,094	17,4
548,571	17,27
549,049	17,39
549,526	17,34
550,003	17,29
550,48	17,21
550,957	17,44
551,434	17,38
551,911	17,48
552,387	17,58
552,864	17,49
553,34	17,21
553,817	17,59
554,293	17,57
554,769	17,33
555,245	17,23
555,721	17,12
556,197	17,49
556,672	17,35
557,148	17,31
557,623	17,24
558,099	17,32
558,574	17,33
559,049	17,25
559,524	17,09
559,999	17,06
560,474	17,03
560,948	17,07
561,423	16,92
561,897	17,03
562,372	16,85
562,846	16,89
563,32	16,63
563,794	16,73
564,268	16,57
564,742	16,39
565,216	16,26
565,69	16,08
566,163	16,09
566,636	16,27
567,11	15,86
567,583	15,72
568,056	15,93
568,529	15,8
569,002	15,73
569,475	15,34
569,947	15,18
570,42	15,06
570,892	15,19
571,365	14,85
571,837	14,67
572,309	14,81
572,781	14,71
573,253	14,6
573,725	14,11
574,197	14,36
574,668	14,11
575,14	14,11
575,611	13,82
576,082	13,9
576,554	13,59
577,025	13,61
577,496	13,34
577,967	13,38
578,437	13,41
578,908	13,47
579,379	13
579,849	12,97
580,319	13,09
580,79	12,93
581,26	12,67
581,73	12,79
582,2	12,41
582,669	12,66
583,139	12,51
583,609	12,34
584,078	12,21
584,548	12,21
585,017	12,18
585,486	11,98
585,955	11,92
586,424	11,85
586,893	11,97
587,362	11,85
587,83	11,87
588,299	11,71
588,767	11,69
589,236	11,47
589,704	11,73
590,172	11,6
590,64	11,31
591,108	11,39
591,576	11,46
592,043	11,33
592,511	11,21
592,978	11,38
593,446	11,25
593,913	11,15
594,38	11,08
594,847	11,16
595,314	11,02
595,781	11,21
596,248	11,09
596,715	11,18
597,181	10,89
597,647	10,98
598,114	10,96
598,58	10,85
599,046	10,94
599,512	10,97
599,978	10,9
600,444	10,97
600,91	10,59
601,375	10,88
601,841	10,72
602,306	10,65
602,771	10,68
603,236	10,67
603,702	10,68
604,167	10,73
604,631	10,42
605,096	10,6
605,561	10,56
606,025	10,33
606,49	10,34
606,954	10,39
607,418	10,21
607,882	10,2
608,347	10,28
608,81	10
609,274	10,14
609,738	9,98
610,202	9,99
610,665	9,75
611,128	9,83
611,592	9,81
612,055	9,7
612,518	9,62
612,981	9,78
613,444	9,47
613,907	9,37
614,369	9,28
614,832	9,32
615,294	9,33
615,757	9,15
616,219	9,2
616,681	9,08
617,143	9,11
617,605	8,95
618,067	8,91
618,529	8,98
618,99	8,88
619,452	8,98
619,913	8,8
620,375	8,56
620,836	8,65
621,297	8,77
621,758	8,58
622,219	8,49
622,68	8,54
623,14	8,51
623,601	8,54
624,061	8,52
624,522	8,48
624,982	8,39
625,442	8,45
625,902	8,36
626,362	8,23
626,822	8,41
627,282	8,27
627,742	8,3
628,201	8,21
628,661	8,35
629,12	8,31
629,579	8,18
630,038	8,26
630,497	8,16
630,956	8,17
631,415	8,25
631,874	8,24
632,332	8,19
632,791	8,04
633,249	7,99
633,708	8,06
634,166	8,11
634,624	8,17
635,082	8,01
635,54	7,88
635,998	7,97
636,455	7,9
636,913	7,83
637,37	7,73
637,828	7,67
638,285	7,63
638,742	7,57
639,199	7,54
639,656	7,43
640,113	7,44
640,57	7,17
641,027	7,21
641,483	7,19
641,94	7,06
642,396	7,03
642,852	6,95
643,309	6,8
643,765	6,69
644,221	6,66
644,676	6,54
645,132	6,58
645,588	6,47
646,043	6,47
646,499	6,25
646,954	6,27
647,409	6,15
647,864	6,06
648,319	6,09
648,774	6,01
649,229	5,95
649,684	5,98
650,139	5,73
650,593	5,83
651,047	5,81
651,502	5,85
651,956	5,72
652,41	5,65
652,864	5,67
653,318	5,67
653,772	5,6
654,225	5,71
654,679	5,49
655,133	5,55
655,586	5,47
656,039	5,47
656,492	5,47
656,946	5,41
657,399	5,43
657,851	5,23
658,304	5,32
658,757	5,22
659,209	5,13
659,662	5,1
660,114	5
660,567	5,02
661,019	4,98
661,471	4,88
661,923	4,92
662,375	4,84
662,826	4,74
663,278	4,67
663,73	4,71
664,181	4,69
664,632	4,65
665,084	4,63
665,535	4,57
665,986	4,55
666,437	4,56
666,888	4,57
667,338	4,53
667,789	4,51
668,24	4,51
668,69	4,56
669,14	4,5
669,591	4,52
670,041	4,52
670,491	4,45
670,941	4,55
671,391	4,52
671,84	4,57
672,29	4,57
672,74	4,58
673,189	4,66
673,638	4,6
674,088	4,72
674,537	4,65
674,986	4,7
675,435	4,81
675,883	4,79
676,332	4,91
676,781	4,89
677,229	4,89
677,678	4,88
678,126	5,03
678,574	5,15
679,022	5,05
679,47	5,09
679,918	5,29
680,366	5,34
680,814	5,35
681,261	5,36
681,709	5,5
682,156	5,48
682,604	5,57
683,051	5,63
683,498	5,71
683,945	5,81
684,392	5,88
684,839	5,89
685,286	5,97
685,732	6,24
686,179	6,14
686,625	6,3
687,071	6,4
687,518	6,46
687,964	6,68
688,41	6,86
688,856	6,93
689,301	7,08
689,747	7,24
690,193	7,34
690,638	7,7
691,084	7,86
691,529	8,19
691,974	8,52
692,419	8,69
692,864	9,01
693,309	9,36
693,754	9,58
694,199	9,95
694,643	10,29
695,088	10,76
695,532	11,1
695,977	11,28
696,421	11,78
696,865	12,2
697,309	12,58
697,753	12,99
698,197	13,27
698,64	13,65
699,084	13,95
699,527	14,47
699,971	14,83
700,414	15,09
700,857	15,45
701,3	15,89
701,743	16,23
702,186	16,61
702,629	16,95
703,072	17,06
703,515	17,57
703,957	18,03
704,399	18,18
704,842	18,48
705,284	18,84
705,726	19,33
706,168	19,55
706,61	19,8
707,052	20,31
707,494	20,36
707,935	20,74
708,377	21,08
708,818	21,18
709,26	21,49
709,701	21,7
710,142	22,12
710,583	22,34
711,024	22,69
711,465	22,78
711,905	23,16
712,346	23,36
712,787	23,63
713,227	23,9
713,667	24,29
714,108	24,32
714,548	24,67
714,988	24,79
715,428	24,89
715,868	25,1
716,307	25,52
716,747	25,88
717,186	25,79
717,626	26,01
718,065	26,19
718,504	26,41
718,944	26,72
719,383	26,95
719,822	26,96
720,261	27,22
720,699	27,46
721,138	27,59
721,576	27,71
722,015	27,92
722,453	27,91
722,892	28,3
723,33	28,35
723,768	28,31
724,206	28,64
724,644	28,65
725,081	28,89
725,519	29,13
725,957	28,82
726,394	29,3
726,832	29,55
727,269	29,37
727,706	29,59
728,143	29,63
728,58	29,74
729,017	29,77
729,454	29,76
729,89	29,86
730,327	30,16
730,764	29,97
731,2	30,16
731,636	30,03
732,072	30,21
732,509	30,4
732,945	30,54
733,38	30,38
733,816	30,57
734,252	30,63
734,688	30,68
735,123	30,41
735,559	30,72
735,994	30,76
736,429	31,12
736,864	30,88
737,299	30,82
737,734	30,93
738,169	30,87
738,604	30,93
739,038	31
739,473	31,24
739,907	30,98
740,342	31,02
740,776	30,85
741,21	31,19
741,644	30,99
742,078	31
742,512	31,17
742,946	30,94
743,379	31,22
743,813	31,16
744,246	31,25
744,68	31,07
745,113	31,05
745,546	31,09
745,979	31,06
746,412	31,1
746,845	31,19
747,278	30,76
747,711	31,18
748,143	30,88
748,576	31,07
749,008	31,11
749,441	31
749,873	31,04
750,305	31
750,737	30,75
751,169	30,75
751,601	31,06
752,032	30,74
752,464	30,88
752,896	30,81
753,327	30,84
753,758	31,03
754,19	30,81
754,621	30,64
755,052	30,83
755,483	30,78
755,914	30,88
756,344	30,77
756,775	30,57
757,206	30,68
757,636	30,52
758,066	30,75
758,497	30,47
758,927	30,5
759,357	30,61
759,787	30,55
760,217	30,4
760,647	30,59
761,076	30,51
761,506	30,41
761,935	30,4
762,365	30,36
762,794	30,31
763,223	30,22
763,653	30,41
764,082	30,19
764,51	30,45
764,939	30,28
765,368	30,29
765,797	30,04
766,225	30,3
766,654	30,19
767,082	30,17
767,51	30,19
767,938	30,07
768,367	30,09
768,795	30,11
769,222	30,22
769,65	30,16
770,078	30,15
770,505	29,95
770,933	29,97
771,36	29,91
771,788	30,08
772,215	29,99
772,642	29,91
773,069	29,88
773,496	30,11
773,923	29,9
774,349	29,98
774,776	29,53
775,203	29,67
775,629	29,88
776,055	29,74
776,482	29,78
776,908	29,71
777,334	29,93
777,76	29,89
778,186	29,8
778,611	29,76
779,037	29,76
779,463	29,75
779,888	29,56
780,314	29,83
780,739	29,75
781,164	29,54
781,589	29,78
782,014	29,69
782,439	29,7
782,864	29,71
783,289	29,62
783,713	29,48
784,138	29,71
784,562	29,71
784,987	29,5
785,411	29,44
785,835	29,48
786,259	29,56
786,683	29,48
787,107	29,64
787,531	29,43
787,954	29,45
788,378	29,52
788,802	29,66
789,225	29,45
789,648	29,56
790,071	29,57
790,495	29,48
790,918	29,45
791,34	29,58
791,763	29,35
792,186	29,36
792,609	29,59
793,031	29,61
793,454	29,52
793,876	29,53
794,298	29,28
794,721	29,15
795,143	29,47
795,565	29,4
795,986	29,38
796,408	29,38
796,83	29,26
797,252	29,1
797,673	29,42
798,094	29,29
798,516	29,45
798,937	28,99
799,358	29,33
799,779	29,26
800,2	29,37
800,621	28,94
801,042	29,36
801,462	29,3
801,883	29,11
802,303	29,33
802,724	29,18
803,144	29,41
803,564	29,22
803,984	29,19
804,404	29,16
804,824	29,43
805,244	29,28
805,664	29,14
806,084	29,08
806,503	29,11
806,923	29,27
807,342	29,33
807,761	28,97
808,18	29,37
808,599	29,05
809,018	29,29
809,437	29,22
809,856	29,22
810,275	29,13
810,693	29,26
811,112	29,12
811,53	29,06
811,949	29,11
812,367	29,15
812,785	29,05
813,203	29,26
813,621	29,39
814,039	29,03
814,457	29,06
814,874	29,25
815,292	29,09
815,709	29,1
816,127	28,96
816,544	28,96
816,961	29,01
817,378	29,22
817,795	29,1
818,212	29,04
818,629	29,21
819,046	29,13
819,462	29,14
819,879	29,03
820,295	28,87
820,712	29,03
821,128	29,08
821,544	29,11
821,96	29,06
822,376	29,21
822,792	29,08
823,208	28,92
823,624	29,11
824,039	28,81
824,455	29,2
824,87	29,14
825,286	29,04
825,701	29,01
826,116	28,96
826,531	29,01
826,946	29,12
827,361	29,13
827,776	29,02
828,19	28,85
828,605	29,07
829,02	28,87
829,434	29,05
829,848	29,06
830,263	29,09
830,677	29,04
831,091	29,02
831,505	28,9
831,919	28,97
832,332	28,78
832,746	29,18
833,16	28,78
833,573	28,95
833,987	28,77
834,4	28,92
834,813	28,88
835,226	28,95
835,639	29,01
836,052	28,96
836,465	28,97
836,878	28,93
837,29	28,93
837,703	28,92
838,116	28,81
838,528	28,85
838,94	29,04
839,352	28,85
839,765	28,77
840,177	28,73
840,589	28,68
841	28,86
841,412	29,05
841,824	28,88
842,235	28,81
842,647	28,82
843,058	28,72
843,47	28,86
843,881	28,71
844,292	28,62
844,703	28,96
845,114	28,75
845,525	28,67
845,935	29,06
846,346	28,75
