Data from D_5__Relative__7__00088.txt Node

Date: Mon Jan 29 18:17:51 CET 2024
User: diatiterra
Spectrometer: HDX00911
Trigger mode: 0
Integration Time (sec): 6,000000E-3
Scans to average: 2
Nonlinearity correction enabled: false
Boxcar width: 0
Storing dark spectrum: false
XAxis mode: Wavelengths
Number of Pixels in Spectrum: 2068
>>>>>Begin Spectral Data<<<<<
194,468	45,1
195,025	47,79
195,581	67,02
196,138	47,69
196,694	48,28
197,251	40,44
197,807	40,4
198,363	40,73
198,919	46,26
199,474	42,14
200,03	40,07
200,586	34,69
201,141	42,7
201,696	38,06
202,251	42,8
202,806	34,96
203,361	40,35
203,916	40,75
204,471	35,92
205,025	28,57
205,58	34,05
206,134	37,78
206,688	38,41
207,242	38,44
207,796	41,02
208,35	35,38
208,904	33,56
209,457	43,32
210,011	39,86
210,564	43,06
211,117	35,92
211,67	43,66
212,223	36,99
212,776	42,7
213,329	36,77
213,881	28,93
214,434	36,9
214,986	33
215,538	37,73
216,09	32,46
216,642	44,44
217,194	41,06
217,746	36,36
218,297	34,56
218,849	34,89
219,4	45,1
219,951	44,73
220,502	32,06
221,053	41,38
221,604	44,63
222,155	42,39
222,705	39,8
223,256	36,33
223,806	37,07
224,356	41,3
224,906	36,67
225,456	34,14
226,006	34,56
226,556	40,51
227,106	37,41
227,655	37,98
228,204	39,14
228,754	35,86
229,303	37,29
229,852	38,24
230,401	35,84
230,949	47,47
231,498	37,31
232,047	34,34
232,595	43,26
233,143	47,73
233,691	37,6
234,239	37,31
234,787	31,12
235,335	36,73
235,883	40,5
236,43	41,11
236,978	39,64
237,525	42,91
238,072	32,47
238,619	34,25
239,166	36,7
239,713	44,98
240,26	41,2
240,806	31,56
241,353	38,52
241,899	38,83
242,445	37,41
242,991	43,9
243,537	38,61
244,083	43,64
244,629	38,51
245,174	50
245,72	42,47
246,265	38,16
246,81	44,16
247,355	32,72
247,9	34,26
248,445	44,14
248,99	30,1
249,534	38,29
250,079	44,03
250,623	33,9
251,168	38,93
251,712	43,62
252,256	33,55
252,8	37,15
253,343	35,03
253,887	41,5
254,43	42,75
254,974	42,31
255,517	36,91
256,06	32,19
256,603	42,26
257,146	43,43
257,689	34,49
258,232	39,85
258,774	40,96
259,317	32,97
259,859	37,27
260,401	44,32
260,943	28,73
261,485	34,04
262,027	36,9
262,569	37,59
263,11	36,46
263,652	36,76
264,193	33,57
264,734	38,49
265,275	37,35
265,816	41,01
266,357	30,94
266,898	36,86
267,438	30,59
267,979	37,45
268,519	38,27
269,059	39,72
269,6	37,89
270,14	38,28
270,68	30,27
271,219	39,3
271,759	35,07
272,298	29,82
272,838	35,66
273,377	37,41
273,916	34,3
274,455	39,46
274,994	37,05
275,533	40,61
276,072	35,34
276,61	38,57
277,149	38,77
277,687	36,65
278,225	36,64
278,763	41,67
279,301	42,64
279,839	33,7
280,377	35,4
280,914	37
281,452	43,5
281,989	45,73
282,526	44,09
283,064	38,89
283,601	45,08
284,137	40,88
284,674	38,49
285,211	30,22
285,747	37,97
286,284	34,74
286,82	41,84
287,356	34,36
287,892	43,16
288,428	32,88
288,964	34,3
289,5	49,32
290,035	38,85
290,571	36,57
291,106	45,09
291,641	35,25
292,176	41,73
292,711	37,24
293,246	33,94
293,781	34,2
294,315	41,18
294,85	39,42
295,384	38,15
295,918	32,75
296,453	34,63
296,987	42,41
297,52	32,19
298,054	38,24
298,588	29,13
299,121	37,73
299,655	46,32
300,188	38,02
300,721	35,86
301,254	43,06
301,787	41,46
302,32	45,45
302,853	37,28
303,385	35,9
303,918	36,84
304,45	40,93
304,982	35,86
305,514	32,47
306,046	31,23
306,578	41,07
307,11	31,97
307,641	41,45
308,173	31,97
308,704	41,76
309,236	34,08
309,767	25,42
310,298	31,36
310,829	40,68
311,359	31,67
311,89	42,7
312,421	39,49
312,951	36,36
313,481	42,97
314,012	44,69
314,542	34,59
315,072	34,55
315,601	39,15
316,131	35,04
316,661	27,92
317,19	41,28
317,72	41,39
318,249	38,51
318,778	33,08
319,307	31,42
319,836	36,24
320,365	35,83
320,893	32,98
321,422	40,3
321,95	40
322,479	35,64
323,007	33,33
323,535	36,6
324,063	41,42
324,591	32,67
325,118	35,31
325,646	33,08
326,173	42,14
326,701	33,82
327,228	38,34
327,755	33,69
328,282	29,06
328,809	32,22
329,336	30,1
329,862	36,15
330,389	34,47
330,915	35,11
331,441	33,56
331,968	31,27
332,494	30,1
333,02	33,94
333,545	33,21
334,071	36,67
334,597	32,09
335,122	35,12
335,648	42,12
336,173	36,63
336,698	27,74
337,223	37,88
337,748	25,96
338,272	34,32
338,797	42,39
339,322	27,91
339,846	33,98
340,37	28,21
340,894	36,99
341,419	36,91
341,942	33,89
342,466	31,74
342,99	28,31
343,514	29,55
344,037	31,15
344,56	33,23
345,084	32,49
345,607	32,52
346,13	33,23
346,653	30,19
347,175	37,1
347,698	28,27
348,221	32,27
348,743	28,57
349,265	28,57
349,787	29,14
350,309	30,58
350,831	23,88
351,353	30,69
351,875	30,62
352,397	28,1
352,918	21,19
353,439	29,81
353,961	24,23
354,482	26,4
355,003	24,66
355,524	34,44
356,044	21,37
356,565	27,18
357,086	30,28
357,606	20,48
358,126	27,98
358,646	24,13
359,167	22,6
359,687	28,07
360,206	26,27
360,726	21,55
361,246	27,23
361,765	23,03
362,285	24,17
362,804	21,78
363,323	18,58
363,842	23,57
364,361	24,24
364,88	24,26
365,398	24,5
365,917	21,97
366,435	22,75
366,954	23,65
367,472	23,03
367,99	24,44
368,508	26,17
369,026	21,51
369,544	20,73
370,061	23,9
370,579	20,26
371,096	20,44
371,613	25,5
372,131	24,47
372,648	24,37
373,165	26,52
373,681	23,64
374,198	19,18
374,715	22,92
375,231	20,67
375,747	23,64
376,264	23,64
376,78	23,29
377,296	18,04
377,812	18,84
378,327	21,78
378,843	20,68
379,359	18,41
379,874	19,81
380,389	21,6
380,905	19,1
381,42	17,89
381,935	18,27
382,449	23,25
382,964	19,24
383,479	18,14
383,993	17,19
384,508	22,48
385,022	20,65
385,536	17,23
386,05	19,76
386,564	17,94
387,078	17,38
387,592	20,1
388,105	17,4
388,619	17,9
389,132	18,16
389,645	18,25
390,158	15,66
390,671	19,4
391,184	16,58
391,697	15,31
392,21	17,42
392,722	15,5
393,235	16,53
393,747	15,83
394,259	16,18
394,771	14,69
395,283	14,65
395,795	15,45
396,307	14,87
396,818	14,83
397,33	14,29
397,841	15,1
398,353	12,72
398,864	13,11
399,375	12,6
399,886	13,43
400,397	12,48
400,907	13,27
401,418	12,04
401,928	12,24
402,439	13,02
402,949	11,41
403,459	12,17
403,969	11,95
404,479	11,59
404,989	10,55
405,498	10,55
406,008	9,85
406,517	10,04
407,027	10
407,536	10,05
408,045	9,22
408,554	8,59
409,063	7,74
409,572	8,76
410,08	8,3
410,589	8,26
411,097	7,79
411,606	8,28
412,114	7,63
412,622	6,64
413,13	6,87
413,638	6,54
414,145	6,78
414,653	6,25
415,16	6,07
415,668	6
416,175	5,46
416,682	6,03
417,189	5,54
417,696	5,53
418,203	5,51
418,71	5,61
419,216	5,51
419,723	5,54
420,229	5,28
420,735	4,65
421,242	5,34
421,748	5,48
422,254	5
422,759	4,99
423,265	4,81
423,771	4,77
424,276	5,4
424,781	5
425,287	5,17
425,792	5,24
426,297	5,33
426,802	4,71
427,306	4,81
427,811	4,66
428,316	5,21
428,82	4,44
429,324	4,52
429,829	4,62
430,333	4,56
430,837	4,68
431,34	4,62
431,844	4,5
432,348	3,92
432,851	4,4
433,355	4,35
433,858	4,25
434,361	4,35
434,864	4,26
435,367	4,24
435,87	4,35
436,373	4,54
436,876	4,03
437,378	3,97
437,88	4,3
438,383	4,29
438,885	4,23
439,387	4,23
439,889	4,03
440,391	4,56
440,892	4,18
441,394	4,07
441,896	4,25
442,397	3,81
442,898	4,29
443,399	4,51
443,9	4,31
444,401	4,5
444,902	4,18
445,403	4,17
445,903	4,38
446,404	4,31
446,904	4,18
447,405	3,83
447,905	4,47
448,405	4,3
448,905	4,28
449,404	4,32
449,904	4,56
450,404	4,3
450,903	4,24
451,403	4,22
451,902	4,38
452,401	4,45
452,9	4,32
453,399	4,48
453,898	4,66
454,396	4,15
454,895	4,31
455,393	4,22
455,892	4,3
456,39	4,68
456,888	3,96
457,386	4,48
457,884	4,45
458,382	4,45
458,879	4,58
459,377	4,21
459,874	4,26
460,372	3,89
460,869	4,23
461,366	4,25
461,863	4,44
462,36	4,22
462,857	4,33
463,353	4,52
463,85	4,31
464,346	4,04
464,843	4,18
465,339	4,72
465,835	4,33
466,331	4,39
466,827	4,28
467,323	4,24
467,818	4,29
468,314	4,35
468,809	4,14
469,305	4,27
469,8	4,23
470,295	4,3
470,79	4,31
471,285	4,29
471,78	4,3
472,274	3,92
472,769	4,19
473,263	4,15
473,758	4,3
474,252	4,16
474,746	4,71
475,24	4,43
475,734	4,24
476,228	4,23
476,721	4,35
477,215	4,36
477,708	4,44
478,202	4,37
478,695	4,19
479,188	4,48
479,681	4,45
480,174	4,31
480,667	4,38
481,159	4,24
481,652	4,25
482,144	4,19
482,637	4,32
483,129	4,46
483,621	4,24
484,113	4,42
484,605	4,5
485,097	4,34
485,588	4,23
486,08	4,6
486,571	4,35
487,063	4,3
487,554	4,35
488,045	4,32
488,536	4,61
489,027	4,48
489,518	4,38
490,008	4,64
490,499	4,53
490,989	4,59
491,48	4,7
491,97	4,73
492,46	4,66
492,95	4,63
493,44	4,77
493,93	4,84
494,419	4,79
494,909	4,93
495,398	4,79
495,888	4,96
496,377	5,04
496,866	4,93
497,355	5,21
497,844	5,18
498,333	5,19
498,821	5,31
499,31	5,31
499,798	5,44
500,287	5,41
500,775	5,43
501,263	5,58
501,751	5,46
502,239	5,85
502,727	5,92
503,215	5,9
503,702	5,98
504,19	6,34
504,677	6,21
505,164	6,35
505,651	6,33
506,139	6,65
506,625	6,71
507,112	6,68
507,599	6,94
508,086	7,06
508,572	7,16
509,058	7,35
509,545	7,58
510,031	7,68
510,517	8,02
511,003	7,98
511,489	8,34
511,974	8,26
512,46	8,6
512,946	8,71
513,431	9,03
513,916	9,21
514,401	9,25
514,887	9,71
515,371	9,76
515,856	9,84
516,341	10,24
516,826	10,76
517,31	10,94
517,795	10,88
518,279	11,18
518,763	11,54
519,247	11,76
519,731	11,87
520,215	12,36
520,699	12,57
521,182	12,58
521,666	12,92
522,149	13,21
522,633	13,37
523,116	13,76
523,599	14,14
524,082	14,19
524,565	14,52
525,048	15,15
525,53	14,93
526,013	15,41
526,495	15,15
526,978	15,64
527,46	16,16
527,942	16,24
528,424	16,36
528,906	16,35
529,388	16,7
529,87	16,83
530,351	16,76
530,833	17,21
531,314	17,16
531,795	17,39
532,277	17,66
532,758	17,54
533,238	17,62
533,719	17,9
534,2	18,34
534,681	18,19
535,161	18,12
535,642	18,13
536,122	18,11
536,602	18,47
537,082	18,65
537,562	18,61
538,042	18,48
538,522	18,83
539,001	18,82
539,481	18,79
539,96	18,96
540,44	18,51
540,919	19,13
541,398	19,01
541,877	18,94
542,356	19,07
542,835	19,02
543,313	19,19
543,792	19,17
544,27	19,05
544,749	19,03
545,227	19,1
545,705	18,99
546,183	19,41
546,661	19,53
547,139	19,43
547,616	19,45
548,094	19,57
548,571	19,36
549,049	19,55
549,526	19,78
550,003	19,77
550,48	19,58
550,957	19,4
551,434	19,44
551,911	19,85
552,387	19,39
552,864	19,8
553,34	19,64
553,817	19,69
554,293	19,54
554,769	19,44
555,245	19,7
555,721	19,51
556,197	19,71
556,672	19,56
557,148	19,27
557,623	19,48
558,099	19,38
558,574	19,45
559,049	19,36
559,524	19,42
559,999	19,32
560,474	19,17
560,948	19,46
561,423	19,1
561,897	18,9
562,372	19,33
562,846	19,01
563,32	18,99
563,794	18,79
564,268	18,55
564,742	18,48
565,216	18,28
565,69	18,53
566,163	18,37
566,636	18,33
567,11	18,07
567,583	18,01
568,056	17,92
568,529	17,7
569,002	17,33
569,475	17,29
569,947	17,07
570,42	17,34
570,892	16,99
571,365	16,91
571,837	16,66
572,309	16,61
572,781	16,3
573,253	16,21
573,725	15,97
574,197	15,98
574,668	15,67
575,14	15,73
575,611	15,52
576,082	15,57
576,554	15,26
577,025	15,26
577,496	14,91
577,967	14,86
578,437	14,73
578,908	14,75
579,379	14,49
579,849	14,74
580,319	14,43
580,79	14,13
581,26	14,2
581,73	14,21
582,2	14,03
582,669	14,01
583,139	13,88
583,609	13,39
584,078	13,69
584,548	13,41
585,017	13,53
585,486	13,3
585,955	13,37
586,424	13,12
586,893	13,16
587,362	13,32
587,83	13,2
588,299	12,9
588,767	13,06
589,236	12,74
589,704	12,9
590,172	12,68
590,64	12,71
591,108	12,52
591,576	12,65
592,043	12,51
592,511	12,53
592,978	12,55
593,446	12,5
593,913	12,3
594,38	12,39
594,847	12,28
595,314	12,34
595,781	12,32
596,248	12,24
596,715	12,22
597,181	12,16
597,647	12,05
598,114	12,01
598,58	12,04
599,046	12,05
599,512	11,98
599,978	11,95
600,444	12,06
600,91	11,96
601,375	11,98
601,841	11,98
602,306	11,94
602,771	11,71
603,236	11,86
603,702	11,64
604,167	11,69
604,631	11,63
605,096	11,57
605,561	11,62
606,025	11,49
606,49	11,25
606,954	11,43
607,418	11,2
607,882	11,15
608,347	11,14
608,81	11,05
609,274	10,98
609,738	10,8
610,202	10,84
610,665	10,87
611,128	10,74
611,592	10,66
612,055	10,6
612,518	10,36
612,981	10,45
613,444	10,36
613,907	10,17
614,369	10,18
614,832	10,03
615,294	10,02
615,757	10,04
616,219	9,87
616,681	9,74
617,143	9,87
617,605	9,63
618,067	9,57
618,529	9,44
618,99	9,65
619,452	9,51
619,913	9,38
620,375	9,31
620,836	9,23
621,297	9,32
621,758	9,24
622,219	9,23
622,68	9,17
623,14	9,02
623,601	9,08
624,061	8,98
624,522	8,99
624,982	8,97
625,442	8,99
625,902	9,02
626,362	8,89
626,822	8,94
627,282	8,93
627,742	8,8
628,201	8,87
628,661	8,79
629,12	8,78
629,579	8,74
630,038	8,83
630,497	8,74
630,956	8,96
631,415	8,63
631,874	8,74
632,332	8,53
632,791	8,66
633,249	8,55
633,708	8,58
634,166	8,36
634,624	8,57
635,082	8,3
635,54	8,42
635,998	8,4
636,455	8,32
636,913	8,26
637,37	8,24
637,828	8,05
638,285	8,18
638,742	8,02
639,199	8
639,656	7,88
640,113	7,71
640,57	7,52
641,027	7,63
641,483	7,44
641,94	7,34
642,396	7,33
642,852	7,34
643,309	7,15
643,765	7,04
644,221	6,98
644,676	6,86
645,132	6,77
645,588	6,73
646,043	6,64
646,499	6,45
646,954	6,63
647,409	6,38
647,864	6,23
648,319	6,27
648,774	6,16
649,229	6,17
649,684	6,1
650,139	5,92
650,593	5,95
651,047	6,03
651,502	5,92
651,956	5,84
652,41	5,84
652,864	5,88
653,318	5,94
653,772	5,81
654,225	5,78
654,679	5,69
655,133	5,7
655,586	5,64
656,039	5,5
656,492	5,55
656,946	5,52
657,399	5,42
657,851	5,4
658,304	5,37
658,757	5,32
659,209	5,32
659,662	5,17
660,114	5,11
660,567	5,06
661,019	5,03
661,471	4,91
661,923	4,93
662,375	4,9
662,826	4,87
663,278	4,68
663,73	4,77
664,181	4,76
664,632	4,72
665,084	4,66
665,535	4,58
665,986	4,61
666,437	4,53
666,888	4,55
667,338	4,49
667,789	4,62
668,24	4,56
668,69	4,65
669,14	4,52
669,591	4,54
670,041	4,61
670,491	4,64
670,941	4,74
671,391	4,76
671,84	4,72
672,29	4,78
672,74	4,81
673,189	4,85
673,638	4,85
674,088	4,95
674,537	5,01
674,986	5,03
675,435	5
675,883	5,15
676,332	5,15
676,781	5,2
677,229	5,3
677,678	5,36
678,126	5,48
678,574	5,48
679,022	5,62
679,47	5,67
679,918	5,78
680,366	5,84
680,814	6
681,261	6
681,709	6,12
682,156	6,13
682,604	6,37
683,051	6,39
683,498	6,39
683,945	6,43
684,392	6,53
684,839	6,7
685,286	6,69
685,732	6,87
686,179	6,89
686,625	7,07
687,071	7,09
687,518	7,31
687,964	7,37
688,41	7,47
688,856	7,6
689,301	7,79
689,747	7,97
690,193	8,2
690,638	8,5
691,084	8,79
691,529	9,12
691,974	9,42
692,419	9,66
692,864	10,1
693,309	10,48
693,754	10,78
694,199	11,17
694,643	11,63
695,088	12,08
695,532	12,48
695,977	12,93
696,421	13,26
696,865	13,86
697,309	14,15
697,753	14,72
698,197	15,21
698,64	15,64
699,084	16,09
699,527	16,66
699,971	17,15
700,414	17,62
700,857	17,96
701,3	18,41
701,743	18,77
702,186	19,45
702,629	19,87
703,072	20,14
703,515	20,55
703,957	20,95
704,399	21,5
704,842	21,77
705,284	22,25
705,726	22,67
706,168	23,03
706,61	23,47
707,052	23,87
707,494	24,12
707,935	24,63
708,377	25,07
708,818	25,38
709,26	25,68
709,701	26,06
710,142	26,32
710,583	26,73
711,024	27,08
711,465	27,28
711,905	27,82
712,346	27,81
712,787	28,15
713,227	28,48
713,667	28,81
714,108	29,17
714,548	29,69
714,988	29,91
715,428	29,83
715,868	30,39
716,307	30,76
716,747	31,17
717,186	31,3
717,626	31,44
718,065	31,8
718,504	31,83
718,944	32,26
719,383	32,5
719,822	32,63
720,261	33,03
720,699	33,28
721,138	33,38
721,576	33,66
722,015	33,8
722,453	33,92
722,892	34,64
723,33	34,56
723,768	34,35
724,206	34,97
724,644	35,11
725,081	35,27
725,519	35,3
725,957	35,5
726,394	35,86
726,832	35,81
727,269	36,16
727,706	36,31
728,143	36,3
728,58	36,4
729,017	36,36
729,454	36,68
729,89	36,65
730,327	37,09
730,764	36,85
731,2	37,06
731,636	36,97
732,072	36,96
732,509	37,65
732,945	37,44
733,38	37,39
733,816	37,69
734,252	37,58
734,688	37,66
735,123	37,88
735,559	37,98
735,994	37,98
736,429	37,84
736,864	37,98
737,299	38,05
737,734	38,17
738,169	38,35
738,604	38,26
739,038	38,21
739,473	38,47
739,907	38,36
740,342	38,39
740,776	38,37
741,21	38,52
741,644	38,39
742,078	38,54
742,512	38,67
742,946	38,4
743,379	38,64
743,813	38,26
744,246	38,5
744,68	38,57
745,113	38,76
745,546	38,59
745,979	38,37
746,412	38,44
746,845	38,56
747,278	38,34
747,711	38,53
748,143	38,6
748,576	38,38
749,008	38,68
749,441	38,63
749,873	38,13
750,305	38,62
750,737	38,43
751,169	38,3
751,601	38,56
752,032	38,4
752,464	38,13
752,896	38,25
753,327	38,53
753,758	38,25
754,19	38,44
754,621	38,23
755,052	37,99
755,483	38,15
755,914	38,26
756,344	38,03
756,775	38,17
757,206	38,16
757,636	38,13
758,066	38,05
758,497	38,12
758,927	37,98
759,357	37,94
759,787	38
760,217	38,06
760,647	37,99
761,076	37,91
761,506	38,2
761,935	38
762,365	37,74
762,794	37,89
763,223	37,71
763,653	37,98
764,082	37,75
764,51	37,64
764,939	37,46
765,368	37,6
765,797	37,64
766,225	37,63
766,654	37,56
767,082	37,97
767,51	37,39
767,938	37,53
768,367	37,46
768,795	37,45
769,222	37,51
769,65	37,57
770,078	37,38
770,505	37,47
770,933	37,5
771,36	37,14
771,788	37,4
772,215	37,61
772,642	37,55
773,069	37,33
773,496	37,54
773,923	37,32
774,349	37,57
774,776	37,2
775,203	37,19
775,629	37,31
776,055	37,16
776,482	37,16
776,908	37,31
777,334	37,24
777,76	37,23
778,186	37
778,611	37,1
779,037	37,41
779,463	37,17
779,888	37,02
780,314	37,33
780,739	36,91
781,164	37,11
781,589	37
782,014	37,2
782,439	37,05
782,864	37
783,289	37,09
783,713	36,93
784,138	36,92
784,562	37,16
784,987	36,89
785,411	36,73
785,835	36,9
786,259	36,68
786,683	37,2
787,107	37,18
787,531	36,92
787,954	37,28
788,378	36,91
788,802	37,04
789,225	36,82
789,648	37,03
790,071	37,05
790,495	37,01
790,918	36,6
791,34	36,73
791,763	36,83
792,186	36,9
792,609	36,79
793,031	36,79
793,454	37,03
793,876	37,2
794,298	36,78
794,721	36,65
795,143	36,69
795,565	36,63
795,986	36,77
796,408	36,8
796,83	36,82
797,252	36,59
797,673	36,69
798,094	36,44
798,516	36,89
798,937	36,4
799,358	36,63
799,779	36,75
800,2	36,74
800,621	36,63
801,042	36,96
801,462	37
801,883	36,89
802,303	36,41
802,724	36,63
803,144	36,86
803,564	36,68
803,984	36,7
804,404	36,49
804,824	36,7
805,244	36,59
805,664	36,74
806,084	36,47
806,503	36,53
806,923	36,56
807,342	36,83
807,761	36,54
808,18	37
808,599	36,49
809,018	36,72
809,437	36,6
809,856	36,54
810,275	36,79
810,693	36,49
811,112	36,42
811,53	36,79
811,949	36,61
812,367	36,53
812,785	36,57
813,203	36,42
813,621	36,79
814,039	36,47
814,457	36,78
814,874	36,42
815,292	36,78
815,709	36,57
816,127	36,26
816,544	36,71
816,961	36,68
817,378	36,71
817,795	36,56
818,212	36,59
818,629	36,68
819,046	36,58
819,462	36,56
819,879	36,57
820,295	36,53
820,712	36,29
821,128	36,52
821,544	36,48
821,96	36,64
822,376	36,54
822,792	36,41
823,208	36,42
823,624	36,3
824,039	36,44
824,455	36,57
824,87	36,61
825,286	36,59
825,701	36,57
826,116	36,45
826,531	36,21
826,946	36,36
827,361	36,56
827,776	36,5
828,19	36,44
828,605	36,65
829,02	36,41
829,434	36,52
829,848	36,05
830,263	36,7
830,677	36,28
831,091	36,55
831,505	36,46
831,919	36,58
832,332	36,44
832,746	36,26
833,16	36,23
833,573	36,17
833,987	36,45
834,4	36,38
834,813	36,37
835,226	36,49
835,639	36,29
836,052	36,63
836,465	36,33
836,878	36,46
837,29	36,48
837,703	36,12
838,116	36,29
838,528	36,18
838,94	36,36
839,352	36,34
839,765	36,19
840,177	36,25
840,589	36,22
841	36,33
841,412	36,27
841,824	36,3
842,235	36,34
842,647	36,1
843,058	36,44
843,47	36,26
843,881	36,18
844,292	36,28
844,703	36,23
845,114	36,35
845,525	36,23
