Data from E_2__Relative__8__00099.txt Node

Date: Mon Jan 29 18:19:13 CET 2024
User: diatiterra
Spectrometer: HDX00911
Trigger mode: 0
Integration Time (sec): 6,000000E-3
Scans to average: 2
Nonlinearity correction enabled: false
Boxcar width: 0
Storing dark spectrum: false
XAxis mode: Wavelengths
Number of Pixels in Spectrum: 2068
>>>>>Begin Spectral Data<<<<<
194,468	63,73
195,025	49,56
195,581	59,57
196,138	53,08
196,694	47,13
197,251	47,56
197,807	40,4
198,363	39,64
198,919	40,21
199,474	38,93
200,03	36,4
200,586	37,07
201,141	43,82
201,696	34,26
202,251	42,8
202,806	38,35
203,361	37,19
203,916	41,1
204,471	35,21
205,025	31,79
205,58	37,28
206,134	40,74
206,688	39,49
207,242	38,44
207,796	35,59
208,35	41,16
208,904	38,31
209,457	38,99
210,011	42,66
210,564	37,5
211,117	33,1
211,67	37,32
212,223	28,42
212,776	49,44
213,329	33,68
213,881	25,36
214,434	31,38
214,986	38,05
215,538	33,7
216,09	36,39
216,642	45,19
217,194	43,05
217,746	41,08
218,297	33,22
218,849	31,15
219,4	37,76
219,951	36,73
220,502	32,06
221,053	41,38
221,604	44,97
222,155	40,74
222,705	41,81
223,256	38,49
223,806	36,73
224,356	38,41
224,906	34,07
225,456	33,79
226,006	30,87
226,556	30,29
227,106	36,71
227,655	41,11
228,204	35,86
228,754	38,28
229,303	36,61
229,852	36,93
230,401	39,07
230,949	45,91
231,498	47,01
232,047	39,39
232,595	39,01
233,143	53,03
233,691	40
234,239	39,18
234,787	36,01
235,335	41,84
235,883	35,48
236,43	35,56
236,978	37,09
237,525	40,3
238,072	43,54
238,619	36,3
239,166	43,77
239,713	44,61
240,26	32,96
240,806	33,69
241,353	44,88
241,899	39,48
242,445	46,5
242,991	39,72
243,537	47,52
244,083	43,64
244,629	39,53
245,174	45,9
245,72	35,12
246,265	40,28
246,81	46,72
247,355	33,09
247,9	37,72
248,445	48,62
248,99	41,18
249,534	44,62
250,079	47,01
250,623	41,36
251,168	42,95
251,712	41,49
252,256	42,86
252,8	49,31
253,343	40,13
253,887	40,14
254,43	44,98
254,974	48,95
255,517	42,95
256,06	38,36
256,603	51,32
257,146	42,42
257,689	43,99
258,232	47,13
258,774	33,58
259,317	38,83
259,859	35,79
260,401	47,73
260,943	43,28
261,485	44,33
262,027	43,79
262,569	47,74
263,11	41,52
263,652	44,12
264,193	44,29
264,734	38,1
265,275	44,58
265,816	42,45
266,357	42,81
266,898	34,13
267,438	43,14
267,979	41,09
268,519	45,13
269,059	48,58
269,6	44,21
270,14	32,34
270,68	29,89
271,219	43,51
271,759	39,93
272,298	38,55
272,838	41,09
273,377	44,07
273,916	35,02
274,455	37,16
274,994	35,97
275,533	38,91
276,072	36,09
276,61	37,54
277,149	32,25
277,687	42,35
278,225	27,05
278,763	33,7
279,301	43,4
279,839	37,32
280,377	36,13
280,914	34,43
281,452	47,97
281,989	45,39
282,526	40,86
283,064	47,22
283,601	36,74
284,137	38,32
284,674	43,4
285,211	27,7
285,747	37,63
286,284	31,58
286,82	42,55
287,356	37,11
287,892	37,89
288,428	26,78
288,964	34,3
289,5	42,18
290,035	44,6
290,571	30,97
291,106	33,09
291,641	33,72
292,176	37,97
292,711	46,55
293,246	35,74
293,781	35,32
294,315	34,56
294,85	41,61
295,384	45,56
295,918	38,33
296,453	37,46
296,987	37,93
297,52	34,25
298,054	35,66
298,588	39,76
299,121	37,73
299,655	36,84
300,188	36,88
300,721	41,38
301,254	33,1
301,787	37,4
302,32	42,8
302,853	32,75
303,385	36,26
303,918	38,95
304,45	40,15
304,982	41,43
305,514	35,06
306,046	42,11
306,578	42,14
307,11	37,92
307,641	43,64
308,173	32,71
308,704	44,06
309,236	35,96
309,767	31,67
310,298	34,15
310,829	44,49
311,359	39,86
311,89	35,94
312,421	38,41
312,951	37,82
313,481	44,58
314,012	37,73
314,542	38,01
315,072	34,18
315,601	39,5
316,131	31,39
316,661	34,17
317,19	31,32
317,72	37
318,249	35,81
318,778	36,5
319,307	33,11
319,836	37,58
320,365	37,13
320,893	41,13
321,422	39,18
321,95	29,26
322,479	42,91
323,007	31,88
323,535	40,38
324,063	46,27
324,591	33,67
325,118	35,66
325,646	38,85
326,173	43,93
326,701	34,18
327,228	34,19
327,755	36,56
328,282	47,55
328,809	41,85
329,336	31,83
329,862	38,85
330,389	35,49
330,915	32,98
331,441	29,49
331,968	39,52
332,494	36,79
333,02	31,75
333,545	34,3
334,071	32,67
334,597	38,85
335,122	29,77
335,648	36,63
336,173	35,31
336,698	36,64
337,223	30,03
337,748	30,53
338,272	36,3
338,797	32,69
339,322	26,58
339,846	31,25
340,37	32,6
340,894	33,56
341,419	36,58
341,942	36,24
342,466	35,49
342,99	30,46
343,514	30,84
344,037	22,95
344,56	33,54
345,084	27,76
345,607	35,56
346,13	34,15
346,653	32,39
347,175	32,26
347,698	25,3
348,221	31,98
348,743	29,15
349,265	27,38
349,787	29,43
350,309	31,96
350,831	24,48
351,353	32,54
351,875	27,81
352,397	28,93
352,918	33,62
353,439	31,71
353,961	29,01
354,482	30,9
355,003	27,61
355,524	30,87
356,044	29,82
356,565	34,66
357,086	29,52
357,606	27,95
358,126	27,74
358,646	23,13
359,167	31,45
359,687	29,48
360,206	24,34
360,726	23,85
361,246	30,12
361,765	30,04
362,285	23,7
362,804	22,22
363,323	25,46
363,842	27,62
364,361	27,49
364,88	27,43
365,398	30,68
365,917	33,68
366,435	25,75
366,954	24,45
367,472	28,14
367,99	25,67
368,508	30,08
369,026	23,26
369,544	25,45
370,061	28,3
370,579	25,52
371,096	24,27
371,613	24,95
372,131	25,53
372,648	26,9
373,165	30,68
373,681	23,64
374,198	25,57
374,715	26,56
375,231	23,37
375,747	25,79
376,264	24,12
376,78	27,11
377,296	22,63
377,812	23,15
378,327	23,85
378,843	24,96
379,359	22,9
379,874	23,63
380,389	28,75
380,905	23,34
381,42	22,85
381,935	24,67
382,449	26,94
382,964	27,65
383,479	23,88
383,993	23,8
384,508	23,54
385,022	25,79
385,536	23,04
386,05	22,41
386,564	24,45
387,078	21,05
387,592	25,83
388,105	23,01
388,619	20,94
389,132	22,24
389,645	22,81
390,158	22,4
390,671	22,57
391,184	21,61
391,697	19,51
392,21	22,87
392,722	20,37
393,235	19,72
393,747	21,73
394,259	21,5
394,771	19,31
395,283	18,63
395,795	19,02
396,307	18,44
396,818	18,99
397,33	17,62
397,841	19,8
398,353	18,28
398,864	18,19
399,375	16,52
399,886	19,18
400,397	16,19
400,907	15,55
401,418	15,61
401,928	15,98
402,439	15,58
402,949	15,26
403,459	15,54
403,969	15,17
404,479	14,03
404,989	14,32
405,498	14,39
406,008	12,41
406,517	12,65
407,027	13,47
407,536	12,09
408,045	12,17
408,554	11,79
409,063	10,61
409,572	11,38
410,08	11,36
410,589	10,36
411,097	10,13
411,606	10,51
412,114	9,53
412,622	9,33
413,13	9,42
413,638	9,01
414,145	8,05
414,653	8,38
415,16	8,21
415,668	8
416,175	8,13
416,682	7,99
417,189	7,35
417,696	7,7
418,203	7,24
418,71	7,76
419,216	7,62
419,723	7,6
420,229	7,07
420,735	6,85
421,242	7,34
421,748	7,92
422,254	6,57
422,759	6,96
423,265	6,81
423,771	6,57
424,276	6,57
424,781	7,01
425,287	6,62
425,792	6,74
426,297	6,98
426,802	6,31
427,306	6,24
427,811	6,19
428,316	6,76
428,82	6,39
429,324	6,35
429,829	6,47
430,333	6,22
430,837	6,28
431,34	6,26
431,844	6,3
432,348	5,51
432,851	6,17
433,355	5,81
433,858	5,66
434,361	5,97
434,864	5,75
435,367	6,28
435,87	5,63
436,373	5,83
436,876	5,87
437,378	5,92
437,88	6,01
438,383	6,4
438,885	5,91
439,387	5,7
439,889	5,91
440,391	5,91
440,892	5,71
441,394	5,97
441,896	5,86
442,397	5,65
442,898	5,61
443,399	6,05
443,9	5,99
444,401	6,05
444,902	6,16
445,403	5,62
445,903	5,89
446,404	5,76
446,904	5,91
447,405	6,01
447,905	6,17
448,405	6,22
448,905	6,04
449,404	5,99
449,904	5,64
450,404	5,97
450,903	5,83
451,403	6,07
451,902	6,15
452,401	6,07
452,9	5,92
453,399	6,08
453,898	6,2
454,396	5,99
454,895	5,83
455,393	5,8
455,892	6,02
456,39	6,1
456,888	5,89
457,386	6,12
457,884	6,11
458,382	5,96
458,879	6,13
459,377	6,19
459,874	6,05
460,372	5,87
460,869	6,07
461,366	6,12
461,863	6,05
462,36	6,12
462,857	6
463,353	5,91
463,85	5,86
464,346	6,03
464,843	6,19
465,339	6,12
465,835	6,19
466,331	6,12
466,827	5,99
467,323	6,09
467,818	5,88
468,314	6,02
468,809	5,81
469,305	6,02
469,8	6,12
470,295	6,07
470,79	6,13
471,285	5,74
471,78	6,05
472,274	5,9
472,769	5,82
473,263	5,96
473,758	6,4
474,252	6,03
474,746	6,11
475,24	5,84
475,734	6
476,228	5,99
476,721	5,92
477,215	5,78
477,708	6,25
478,202	5,85
478,695	6,14
479,188	6,17
479,681	6,26
480,174	6,13
480,667	6,23
481,159	6,13
481,652	6,2
482,144	6,16
482,637	5,97
483,129	6,03
483,621	6,07
484,113	6,19
484,605	6,31
485,097	5,98
485,588	6,07
486,08	6,2
486,571	6,27
487,063	6,28
487,554	6,35
488,045	6,35
488,536	6,12
489,027	6,21
489,518	6,29
490,008	6,48
490,499	6,38
490,989	6,18
491,48	6,47
491,97	6,25
492,46	6,31
492,95	6,39
493,44	6,54
493,93	6,49
494,419	6,65
494,909	6,53
495,398	6,56
495,888	6,6
496,377	6,61
496,866	6,42
497,355	6,59
497,844	6,78
498,333	6,77
498,821	6,72
499,31	6,96
499,798	6,91
500,287	6,99
500,775	7,01
501,263	7,11
501,751	7,04
502,239	7,24
502,727	7,43
503,215	7,44
503,702	7,56
504,19	7,51
504,677	7,4
505,164	7,72
505,651	7,77
506,139	7,88
506,625	7,91
507,112	7,8
507,599	8,11
508,086	8,13
508,572	8,36
509,058	8,52
509,545	8,66
510,031	8,89
510,517	8,89
511,003	9,06
511,489	9,31
511,974	9,33
512,46	9,82
512,946	9,8
513,431	9,8
513,916	10,04
514,401	10,23
514,887	10,42
515,371	10,68
515,856	11,06
516,341	11,11
516,826	11,49
517,31	11,62
517,795	11,6
518,279	11,99
518,763	12,04
519,247	12,25
519,731	12,85
520,215	13,05
520,699	13,42
521,182	13,5
521,666	13,6
522,149	14,17
522,633	14,37
523,116	14,46
523,599	14,85
524,082	15,02
524,565	15,26
525,048	15,21
525,53	15,65
526,013	15,76
526,495	16,29
526,978	16,43
527,46	16,95
527,942	16,8
528,424	16,69
528,906	17,19
529,388	17,26
529,87	17,74
530,351	17,22
530,833	17,94
531,314	17,97
531,795	18,04
532,277	18,11
532,758	18,19
533,238	18,62
533,719	18,47
534,2	18,84
534,681	18,66
535,161	19,12
535,642	18,8
536,122	18,99
536,602	19,16
537,082	18,89
537,562	19,29
538,042	19,14
538,522	19,35
539,001	19,26
539,481	19,28
539,96	19,42
540,44	19,66
540,919	19,66
541,398	19,56
541,877	19,91
542,356	19,97
542,835	19,82
543,313	19,75
543,792	20,11
544,27	19,92
544,749	19,83
545,227	19,74
545,705	19,91
546,183	20,19
546,661	19,97
547,139	20,32
547,616	20,31
548,094	20,34
548,571	20,1
549,049	20,28
549,526	20,15
550,003	20,51
550,48	20,27
550,957	20,6
551,434	20,43
551,911	20,29
552,387	20,28
552,864	20,67
553,34	20,3
553,817	20,69
554,293	20,29
554,769	20,35
555,245	20,56
555,721	20,53
556,197	20,52
556,672	20,31
557,148	20,09
557,623	20,33
558,099	20,58
558,574	20,13
559,049	20,26
559,524	20,24
559,999	19,96
560,474	19,73
560,948	19,86
561,423	19,68
561,897	19,76
562,372	19,81
562,846	19,81
563,32	19,81
563,794	19,59
564,268	19,1
564,742	19,24
565,216	19,36
565,69	18,99
566,163	19,18
566,636	18,92
567,11	18,64
567,583	18,57
568,056	18,41
568,529	18,18
569,002	18,22
569,475	17,82
569,947	17,97
570,42	17,8
570,892	17,45
571,365	17,48
571,837	17,3
572,309	17,22
572,781	17,04
573,253	16,68
573,725	16,62
574,197	16,55
574,668	16,33
575,14	16,43
575,611	15,88
576,082	16,12
576,554	15,91
577,025	15,86
577,496	15,61
577,967	15,77
578,437	15,36
578,908	15,31
579,379	15,21
579,849	15,18
580,319	15,23
580,79	14,87
581,26	15,06
581,73	14,78
582,2	14,62
582,669	14,9
583,139	14,57
583,609	14,23
584,078	14,26
584,548	14,19
585,017	14,05
585,486	13,97
585,955	13,76
586,424	14,07
586,893	13,8
587,362	13,66
587,83	13,73
588,299	13,72
588,767	13,86
589,236	13,47
589,704	13,45
590,172	13,64
590,64	13,24
591,108	13,27
591,576	13,41
592,043	13,2
592,511	13,24
592,978	13,06
593,446	13
593,913	13,21
594,38	13,13
594,847	12,98
595,314	12,86
595,781	12,94
596,248	12,85
596,715	12,7
597,181	12,69
597,647	12,8
598,114	12,72
598,58	12,78
599,046	12,72
599,512	12,79
599,978	12,71
600,444	12,68
600,91	12,59
601,375	12,63
601,841	12,64
602,306	12,5
602,771	12,51
603,236	12,56
603,702	12,48
604,167	12,42
604,631	12,21
605,096	12,26
605,561	12,3
606,025	12,17
606,49	12,14
606,954	12,05
607,418	11,94
607,882	11,78
608,347	11,86
608,81	11,85
609,274	11,81
609,738	11,67
610,202	11,62
610,665	11,51
611,128	11,58
611,592	11,5
612,055	11,34
612,518	11,32
612,981	11,27
613,444	11,07
613,907	10,98
614,369	11,05
614,832	10,76
615,294	10,75
615,757	10,73
616,219	10,82
616,681	10,64
617,143	10,65
617,605	10,47
618,067	10,48
618,529	10,41
618,99	10,36
619,452	10,53
619,913	10,25
620,375	10,19
620,836	10,26
621,297	10,11
621,758	10,04
622,219	9,99
622,68	10,1
623,14	10,13
623,601	9,9
624,061	9,92
624,522	9,96
624,982	10,02
625,442	9,81
625,902	9,95
626,362	9,83
626,822	9,77
627,282	9,8
627,742	9,68
628,201	9,87
628,661	9,67
629,12	9,78
629,579	9,84
630,038	9,62
630,497	9,61
630,956	9,72
631,415	9,67
631,874	9,53
632,332	9,66
632,791	9,47
633,249	9,61
633,708	9,41
634,166	9,52
634,624	9,38
635,082	9,47
635,54	9,48
635,998	9,33
636,455	9,27
636,913	9,14
637,37	9,1
637,828	9,05
638,285	9,07
638,742	8,92
639,199	8,84
639,656	8,75
640,113	8,55
640,57	8,63
641,027	8,63
641,483	8,56
641,94	8,37
642,396	8,21
642,852	8,34
643,309	8,19
643,765	7,95
644,221	7,96
644,676	8,08
645,132	7,82
645,588	7,76
646,043	7,62
646,499	7,67
646,954	7,56
647,409	7,33
647,864	7,35
648,319	7,32
648,774	7,27
649,229	7,28
649,684	7,26
650,139	7,1
650,593	7,07
651,047	7,19
651,502	7,04
651,956	6,98
652,41	6,87
652,864	7,05
653,318	7
653,772	6,85
654,225	6,85
654,679	6,84
655,133	6,82
655,586	6,76
656,039	6,65
656,492	6,68
656,946	6,74
657,399	6,59
657,851	6,6
658,304	6,64
658,757	6,56
659,209	6,47
659,662	6,47
660,114	6,49
660,567	6,3
661,019	6,37
661,471	6,22
661,923	6,18
662,375	6,21
662,826	6,19
663,278	6,08
663,73	6,12
664,181	6,05
664,632	6,04
665,084	6,04
665,535	6,02
665,986	6,04
666,437	6,02
666,888	6
667,338	6,04
667,789	5,97
668,24	6,01
668,69	6,1
669,14	6,03
669,591	6,03
670,041	6,1
670,491	6,1
670,941	6,1
671,391	6,04
671,84	6,15
672,29	6,16
672,74	6,23
673,189	6,27
673,638	6,26
674,088	6,43
674,537	6,38
674,986	6,39
675,435	6,51
675,883	6,54
676,332	6,53
676,781	6,54
677,229	6,61
677,678	6,66
678,126	6,72
678,574	6,81
679,022	6,8
679,47	6,95
679,918	6,99
680,366	7,04
680,814	7,11
681,261	7,18
681,709	7,26
682,156	7,26
682,604	7,44
683,051	7,42
683,498	7,39
683,945	7,58
684,392	7,7
684,839	7,72
685,286	7,74
685,732	7,94
686,179	7,93
686,625	7,89
687,071	8,1
687,518	8,18
687,964	8,37
688,41	8,38
688,856	8,59
689,301	8,75
689,747	8,96
690,193	9,03
690,638	9,22
691,084	9,49
691,529	9,77
691,974	10,13
692,419	10,43
692,864	10,61
693,309	10,96
693,754	11,28
694,199	11,78
694,643	12,2
695,088	12,43
695,532	12,91
695,977	13,31
696,421	13,68
696,865	14,17
697,309	14,57
697,753	15,14
698,197	15,5
698,64	16,03
699,084	16,21
699,527	16,74
699,971	17,16
700,414	17,8
700,857	18,09
701,3	18,45
701,743	18,83
702,186	19,54
702,629	19,91
703,072	20,32
703,515	20,73
703,957	21,28
704,399	21,73
704,842	21,93
705,284	22,45
705,726	22,78
706,168	23,17
706,61	23,61
707,052	24,05
707,494	24,32
707,935	24,57
708,377	25,15
708,818	25,51
709,26	25,76
709,701	25,92
710,142	26,45
710,583	26,79
711,024	27,08
711,465	27,25
711,905	27,8
712,346	27,92
712,787	28,42
713,227	28,82
713,667	28,96
714,108	29,44
714,548	29,65
714,988	30,06
715,428	30,05
715,868	30,72
716,307	30,65
716,747	31,28
717,186	31,46
717,626	31,64
718,065	31,83
718,504	31,83
718,944	32,42
719,383	32,51
719,822	32,88
720,261	33,09
720,699	33,34
721,138	33,56
721,576	33,77
722,015	34,02
722,453	34,25
722,892	34,6
723,33	34,47
723,768	34,91
724,206	35,04
724,644	35,03
725,081	35,38
725,519	35,59
725,957	35,83
726,394	35,93
726,832	35,89
727,269	36,09
727,706	36,5
728,143	36,51
728,58	36,71
729,017	36,76
729,454	36,81
729,89	36,9
730,327	36,9
730,764	37,11
731,2	37,41
731,636	37,37
732,072	37,41
732,509	37,73
732,945	37,86
733,38	37,48
733,816	37,64
734,252	37,76
734,688	37,86
735,123	37,82
735,559	38,09
735,994	38,05
736,429	38,03
736,864	38,06
737,299	38,13
737,734	38,47
738,169	38,45
738,604	38,49
739,038	38,58
739,473	38,64
739,907	38,47
740,342	38,25
740,776	38,66
741,21	38,5
741,644	38,51
742,078	38,77
742,512	38,69
742,946	38,49
743,379	38,67
743,813	38,68
744,246	38,6
744,68	38,77
745,113	38,57
745,546	38,48
745,979	38,59
746,412	38,46
746,845	38,52
747,278	38,24
747,711	38,69
748,143	38,55
748,576	38,63
749,008	38,48
749,441	38,65
749,873	38,44
750,305	38,41
750,737	38,04
751,169	38,39
751,601	38,76
752,032	38,17
752,464	38,32
752,896	38,41
753,327	38,31
753,758	38,47
754,19	38,39
754,621	38,17
755,052	38,16
755,483	38,06
755,914	38,07
756,344	38,12
756,775	38,05
757,206	38,28
757,636	38,09
758,066	38,28
758,497	38,2
758,927	38,08
759,357	37,94
759,787	38
760,217	37,84
760,647	37,82
761,076	37,87
761,506	37,84
761,935	37,84
762,365	37,74
762,794	37,63
763,223	37,79
763,653	37,98
764,082	37,65
764,51	37,64
764,939	37,76
765,368	37,62
765,797	37,72
766,225	37,78
766,654	37,86
767,082	37,78
767,51	37,6
767,938	37,79
768,367	37,23
768,795	37,46
769,222	37,55
769,65	37,25
770,078	37,41
770,505	37,31
770,933	37,59
771,36	37,1
771,788	37,23
772,215	37,32
772,642	37,24
773,069	37,38
773,496	37,22
773,923	37,23
774,349	37,42
774,776	37,06
775,203	36,9
775,629	37,19
776,055	37,14
776,482	37,17
776,908	37,05
777,334	37,09
777,76	36,92
778,186	37,08
778,611	37,08
779,037	37,06
779,463	37,1
779,888	36,98
780,314	37,27
780,739	36,88
781,164	37,06
781,589	36,94
782,014	36,92
782,439	36,84
782,864	36,83
783,289	37,09
783,713	36,9
784,138	36,81
784,562	37,11
784,987	36,7
785,411	36,5
785,835	36,72
786,259	36,6
786,683	37,04
787,107	36,79
787,531	36,85
787,954	36,93
788,378	36,71
788,802	36,82
789,225	36,5
789,648	36,92
790,071	36,79
790,495	36,59
790,918	36,7
791,34	36,9
791,763	36,94
792,186	36,66
792,609	36,77
793,031	36,79
793,454	36,67
793,876	36,91
794,298	36,61
794,721	36,59
795,143	36,89
795,565	36,35
795,986	36,58
796,408	36,76
796,83	36,52
797,252	36,42
797,673	36,59
798,094	36,79
798,516	36,71
798,937	36,43
799,358	36,61
799,779	36,8
800,2	36,54
800,621	36,35
801,042	36,67
801,462	36,7
801,883	36,38
802,303	36,6
802,724	36,36
803,144	36,5
803,564	36,6
803,984	36,54
804,404	36,51
804,824	36,63
805,244	36,62
805,664	36,56
806,084	36,5
806,503	36,49
806,923	36,53
807,342	36,53
807,761	36,46
808,18	36,5
808,599	36,24
809,018	36,54
809,437	36,49
809,856	36,51
810,275	36,58
810,693	36,41
811,112	36,48
811,53	36,71
811,949	36,44
812,367	36,3
812,785	36,29
813,203	36,28
813,621	36,5
814,039	36,25
814,457	36,54
814,874	36,37
815,292	36,49
815,709	36,24
816,127	36,01
816,544	36,61
816,961	36,29
817,378	36,49
817,795	36,55
818,212	36,25
818,629	36,45
819,046	36,38
819,462	36,18
819,879	36,22
820,295	36,19
820,712	36,27
821,128	36,25
821,544	36,23
821,96	36,31
822,376	36,3
822,792	36,28
823,208	36,12
823,624	36,18
824,039	36,27
824,455	36,57
824,87	36,43
825,286	36,23
825,701	36,32
826,116	36,21
826,531	36,33
826,946	36,29
827,361	36,56
827,776	36,26
828,19	36,17
828,605	36,38
829,02	36,18
829,434	36,28
829,848	35,93
830,263	36,11
830,677	35,87
831,091	36,09
831,505	36,46
831,919	36,24
832,332	36,08
832,746	36,24
833,16	35,76
833,573	36,11
833,987	36,01
834,4	36
834,813	36,13
835,226	35,94
835,639	35,9
836,052	36,35
836,465	36,13
836,878	36,15
837,29	35,97
837,703	36,14
838,116	36,18
838,528	36,1
838,94	36,24
839,352	36,03
839,765	35,87
840,177	36,02
840,589	35,89
841	36,21
841,412	35,93
841,824	35,88
842,235	36,01
842,647	35,89
843,058	36,21
843,47	35,9
