Data from E_2__Relative__0__00091.txt Node

Date: Mon Jan 29 18:18:28 CET 2024
User: diatiterra
Spectrometer: HDX00911
Trigger mode: 0
Integration Time (sec): 6,000000E-3
Scans to average: 2
Nonlinearity correction enabled: false
Boxcar width: 0
Storing dark spectrum: false
XAxis mode: Wavelengths
Number of Pixels in Spectrum: 2068
>>>>>Begin Spectral Data<<<<<
194,468	72,55
195,025	61,95
195,581	76,6
196,138	66,92
196,694	64,94
197,251	59,56
197,807	59,6
198,363	49,82
198,919	52,67
199,474	53,21
200,03	49,63
200,586	49,66
201,141	58,8
201,696	49,13
202,251	52,03
202,806	48,12
203,361	49,82
203,916	52,4
204,471	47,18
205,025	45
205,58	42,65
206,134	51,85
206,688	48,19
207,242	51,02
207,796	54,58
208,35	39,71
208,904	45,42
209,457	45,13
210,011	46,15
210,564	48,96
211,117	49,65
211,67	44,37
212,223	53,77
212,776	53,93
213,329	47,08
213,881	43,57
214,434	51,38
214,986	52,19
215,538	46,15
216,09	46,56
216,642	56,3
217,194	44,04
217,746	44,11
218,297	48,99
218,849	44,24
219,4	52,45
219,951	50,91
220,502	50,52
221,053	47,02
221,604	50
222,155	50,21
222,705	48,83
223,256	48,92
223,806	46,94
224,356	46,74
224,906	45,93
225,456	44,14
226,006	41,95
226,556	55,84
227,106	46,15
227,655	49,48
228,204	45,07
228,754	48,62
229,303	49,83
229,852	45,75
230,401	50,18
230,949	63,42
231,498	52,99
232,047	45,45
232,595	50,35
233,143	49,24
233,691	57,2
234,239	47,76
234,787	51,05
235,335	50,68
235,883	52,69
236,43	44,44
236,978	60
237,525	48,88
238,072	47,23
238,619	45,55
239,166	48,15
239,713	56,13
240,26	54,31
240,806	55,67
241,353	51,94
241,899	46,28
242,445	52,45
242,991	48,43
243,537	52,15
244,083	53,45
244,629	45,27
245,174	60,45
245,72	48,16
246,265	54,42
246,81	55,11
247,355	43,75
247,9	46,02
248,445	57,93
248,99	49,48
249,534	50,95
250,079	48,13
250,623	48,47
251,168	47,32
251,712	53,55
252,256	52,16
252,8	55,56
253,343	43,95
253,887	48,98
254,43	53,9
254,974	53,5
255,517	48,32
256,06	49,66
256,603	52,08
257,146	47,47
257,689	52,85
258,232	52,87
258,774	54,61
259,317	49,45
259,859	45,02
260,401	51,52
260,943	47,01
261,485	56,38
262,027	50
262,569	49,62
263,11	51,26
263,652	50,37
264,193	47,86
264,734	50,79
265,275	55,02
265,816	50,36
266,357	55,76
266,898	40,96
267,438	47,06
267,979	54,55
268,519	53,07
269,059	46,1
269,6	44,91
270,14	44,88
270,68	45,59
271,219	50,53
271,759	49,25
272,298	41,82
272,838	44,96
273,377	50,37
273,916	45,49
274,455	45,59
274,994	45,68
275,533	50,85
276,072	53,38
276,61	48,46
277,149	42,75
277,687	48,4
278,225	46,23
278,763	49,28
279,301	52,45
279,839	45,65
280,377	47,08
280,914	44,69
281,452	52,44
281,989	55,29
282,526	54,48
283,064	50,35
283,601	51,89
284,137	50,73
284,674	50,57
285,211	41,37
285,747	56,27
286,284	51,58
286,82	55,32
287,356	44,67
287,892	45,61
288,428	39,66
288,964	53,79
289,5	56,8
290,035	52,16
290,571	61,57
291,106	52,36
291,641	47,51
292,176	47,74
292,711	45,52
293,246	48,38
293,781	46,1
294,315	49,26
294,85	56,93
295,384	52,96
295,918	41,81
296,453	50,53
296,987	51,72
297,52	55,14
298,054	50,37
298,588	57,09
299,121	52,75
299,655	49,82
300,188	40,68
300,721	53,1
301,254	53,38
301,787	44,31
302,32	54,17
302,853	43,21
303,385	49,45
303,918	48,77
304,45	57,92
304,982	46,22
305,514	47,6
306,046	47,02
306,578	50,36
307,11	49,44
307,641	46,18
308,173	41,64
308,704	45,21
309,236	45,69
309,767	49,58
310,298	43,21
310,829	47,91
311,359	40,93
311,89	45,55
312,421	47,1
312,951	53,82
313,481	50,2
314,012	54,95
314,542	51,71
315,072	46,18
315,601	51,96
316,131	40,51
316,661	52,5
317,19	45,55
317,72	47,99
318,249	46,96
318,778	44,49
319,307	43,58
319,836	48,99
320,365	48,53
320,893	49,29
321,422	45,9
321,95	45,93
322,479	56,4
323,007	45,29
323,535	47,55
324,063	51,87
324,591	45,33
325,118	47,2
325,646	41,92
326,173	51,43
326,701	50,91
327,228	47,28
327,755	45,88
328,282	41,13
328,809	42,22
329,336	48,79
329,862	53,85
330,389	43
330,915	45,39
331,441	44,41
331,968	42,27
332,494	35,12
333,02	45,62
333,545	42,24
334,071	38,67
334,597	37,5
335,122	41,81
335,648	47,25
336,173	44,88
336,698	37,33
337,223	47,44
337,748	40,7
338,272	39,6
338,797	39,16
339,322	36,88
339,846	41,8
340,37	47,99
340,894	53,08
341,419	46,98
341,942	45,64
342,466	46,42
342,99	44,92
343,514	39,94
344,037	40,33
344,56	42,32
345,084	44,16
345,607	43,47
346,13	43,38
346,653	42,14
347,175	41,61
347,698	39,58
348,221	37,79
348,743	40,23
349,265	44,64
349,787	41,14
350,309	39,12
350,831	41,19
351,353	43,12
351,875	40,45
352,397	43,25
352,918	42,66
353,439	39,57
353,961	40,85
354,482	46,35
355,003	41,29
355,524	44,13
356,044	38,26
356,565	41,65
357,086	37,4
357,606	44,82
358,126	35,28
358,646	38,31
359,167	41,77
359,687	37,03
360,206	33,73
360,726	32,22
361,246	40,72
361,765	38,16
362,285	35,78
362,804	33,78
363,323	38,99
363,842	45
364,361	38,31
364,88	37,34
365,398	32,67
365,917	42,51
366,435	36,05
366,954	34,47
367,472	36,25
367,99	36,34
368,508	37,89
369,026	35,85
369,544	34,55
370,061	36,38
370,579	35,46
371,096	35,77
371,613	40,37
372,131	36,44
372,648	35,02
373,165	37,09
373,681	36,25
374,198	31,8
374,715	32,81
375,231	31,8
375,747	33,88
376,264	34,35
376,78	32,38
377,296	35,6
377,812	31,75
378,327	34,22
378,843	32,94
379,359	32,9
379,874	32,79
380,389	31,77
380,905	32,76
381,42	29,9
381,935	33,33
382,449	32,15
382,964	31,06
383,479	33,72
383,993	32,57
384,508	33,14
385,022	31,51
385,536	28,08
386,05	27,92
386,564	28,33
387,078	27,12
387,592	28,96
388,105	29,11
388,619	30,29
389,132	27,28
389,645	27,28
390,158	25,2
390,671	26,29
391,184	26,39
391,697	27,47
392,21	27,99
392,722	26,79
393,235	27,91
393,747	27,03
394,259	25,76
394,771	24,42
395,283	25,24
395,795	24,46
396,307	24,79
396,818	24,28
397,33	23,69
397,841	22,53
398,353	25,36
398,864	23,5
399,375	21,69
399,886	20,9
400,397	21,99
400,907	21,39
401,418	19,53
401,928	20,17
402,439	21,4
402,949	19,27
403,459	21,29
403,969	20,8
404,479	18,47
404,989	17,89
405,498	16,97
406,008	16,43
406,517	16,32
407,027	16,18
407,536	16,2
408,045	15,75
408,554	15,19
409,063	15,63
409,572	14,04
410,08	14,81
410,589	13,9
411,097	13,07
411,606	13,29
412,114	12,78
412,622	12,47
413,13	12,11
413,638	11,07
414,145	10,33
414,653	11,13
415,16	11,53
415,668	10,77
416,175	10,04
416,682	10,64
417,189	10,42
417,696	10,34
418,203	9,87
418,71	9,61
419,216	9,74
419,723	9,84
420,229	9,3
420,735	9,14
421,242	9,95
421,748	9,67
422,254	8,95
422,759	9,05
423,265	8,51
423,771	8,95
424,276	8,79
424,781	8,73
425,287	8,5
425,792	8,45
426,297	8,77
426,802	8,06
427,306	9,11
427,811	8,42
428,316	8,42
428,82	8,68
429,324	7,97
429,829	8,73
430,333	8,25
430,837	8,11
431,34	8,19
431,844	8,15
432,348	7,88
432,851	8,04
433,355	7,95
433,858	7,68
434,361	8,18
434,864	7,43
435,367	7,69
435,87	7,97
436,373	8,31
436,876	7,38
437,378	7,66
437,88	7,89
438,383	7,92
438,885	7,88
439,387	7,8
439,889	7,89
440,391	7,74
440,892	7,61
441,394	7,47
441,896	7,48
442,397	7,94
442,898	7,28
443,399	7,92
443,9	8,22
444,401	7,85
444,902	7,7
445,403	7,66
445,903	7,87
446,404	7,61
446,904	7,96
447,405	7,54
447,905	7,53
448,405	7,69
448,905	8,03
449,404	7,94
449,904	7,73
450,404	7,61
450,903	7,76
451,403	7,75
451,902	7,99
452,401	7,82
452,9	7,52
453,399	8,04
453,898	7,75
454,396	7,82
454,895	7,93
455,393	7,9
455,892	8,03
456,39	7,9
456,888	8,02
457,386	7,68
457,884	8
458,382	7,9
458,879	7,71
459,377	8,19
459,874	7,75
460,372	7,81
460,869	8,01
461,366	7,97
461,863	7,82
462,36	8,09
462,857	7,97
463,353	8,07
463,85	7,96
464,346	7,79
464,843	7,77
465,339	7,72
465,835	7,79
466,331	7,87
466,827	7,78
467,323	7,94
467,818	8,22
468,314	7,76
468,809	7,69
469,305	8,09
469,8	8,08
470,295	8,1
470,79	8,06
471,285	8,02
471,78	7,58
472,274	7,88
472,769	8,17
473,263	7,83
473,758	8,01
474,252	7,98
474,746	7,95
475,24	8,11
475,734	7,91
476,228	7,93
476,721	7,94
477,215	7,92
477,708	8,01
478,202	8,26
478,695	8,05
479,188	8,07
479,681	7,77
480,174	8,05
480,667	7,84
481,159	8,1
481,652	8,04
482,144	7,77
482,637	8,06
483,129	8,11
483,621	8,02
484,113	8,08
484,605	8,3
485,097	8,3
485,588	8,47
486,08	8,11
486,571	7,96
487,063	8,18
487,554	7,97
488,045	8,21
488,536	8,05
489,027	8,17
489,518	7,98
490,008	8,15
490,499	8,15
490,989	8,25
491,48	8,06
491,97	8,3
492,46	8,12
492,95	8,23
493,44	8,54
493,93	8,26
494,419	8,61
494,909	8,49
495,398	8,69
495,888	8,85
496,377	8,62
496,866	8,73
497,355	8,68
497,844	8,78
498,333	8,6
498,821	8,58
499,31	8,58
499,798	8,85
500,287	8,99
500,775	8,72
501,263	8,97
501,751	9,07
502,239	9,3
502,727	9,25
503,215	9,4
503,702	9,45
504,19	9,75
504,677	9,51
505,164	9,56
505,651	10,02
506,139	9,94
506,625	9,99
507,112	10,53
507,599	10,42
508,086	10,29
508,572	10,5
509,058	10,77
509,545	10,89
510,031	10,94
510,517	11,06
511,003	11,44
511,489	11,43
511,974	11,92
512,46	12,15
512,946	12,1
513,431	12,37
513,916	12,53
514,401	12,81
514,887	13,14
515,371	13,47
515,856	13,37
516,341	13,45
516,826	14,09
517,31	14,23
517,795	14,75
518,279	14,65
518,763	15,31
519,247	15,21
519,731	15,92
520,215	15,95
520,699	16,3
521,182	16,7
521,666	17,08
522,149	17,3
522,633	17,47
523,116	17,86
523,599	17,76
524,082	17,97
524,565	18,42
525,048	18,66
525,53	19,15
526,013	19,45
526,495	19,84
526,978	19,88
527,46	20,85
527,942	20,56
528,424	20,6
528,906	21,1
529,388	21,16
529,87	21,43
530,351	21,92
530,833	21,87
531,314	22,21
531,795	22,61
532,277	22,41
532,758	22,26
533,238	22,99
533,719	22,78
534,2	23,04
534,681	23,35
535,161	23,27
535,642	23,17
536,122	23,31
536,602	23,55
537,082	23,72
537,562	23,53
538,042	24,04
538,522	23,92
539,001	24,29
539,481	24,01
539,96	23,88
540,44	24,14
540,919	24,72
541,398	24,34
541,877	24,36
542,356	24,46
542,835	24,51
543,313	24,61
543,792	24,57
544,27	24,62
544,749	24,37
545,227	24,32
545,705	24,76
546,183	24,78
546,661	25,14
547,139	24,67
547,616	25,16
548,094	25,12
548,571	24,72
549,049	25,35
549,526	24,98
550,003	25,04
550,48	25,43
550,957	25,2
551,434	25,34
551,911	25,07
552,387	25,05
552,864	25,28
553,34	25,35
553,817	25,24
554,293	24,95
554,769	25,27
555,245	25,18
555,721	25,36
556,197	25,43
556,672	25,3
557,148	24,93
557,623	24,9
558,099	24,84
558,574	24,9
559,049	24,72
559,524	24,59
559,999	24,75
560,474	24,56
560,948	24,65
561,423	24,89
561,897	24,49
562,372	24,34
562,846	24,28
563,32	24,15
563,794	23,88
564,268	23,62
564,742	23,86
565,216	23,8
565,69	23,49
566,163	23,46
566,636	23,34
567,11	23,22
567,583	22,63
568,056	23,03
568,529	22,36
569,002	22,36
569,475	22,3
569,947	21,97
570,42	21,95
570,892	21,58
571,365	21,44
571,837	21,51
572,309	21,32
572,781	20,95
573,253	20,51
573,725	20,47
574,197	20,18
574,668	20,14
575,14	20,12
575,611	19,69
576,082	20,08
576,554	19,67
577,025	19,54
577,496	19,42
577,967	19,16
578,437	19
578,908	18,97
579,379	18,84
579,849	18,84
580,319	18,67
580,79	18,44
581,26	18,13
581,73	18,22
582,2	18,2
582,669	18,17
583,139	17,81
583,609	17,54
584,078	17,52
584,548	17,41
585,017	17,42
585,486	17,21
585,955	17,13
586,424	16,98
586,893	17,02
587,362	17,01
587,83	16,94
588,299	16,83
588,767	16,79
589,236	16,51
589,704	16,77
590,172	16,6
590,64	16,37
591,108	16,46
591,576	16,59
592,043	16,34
592,511	16,21
592,978	16,24
593,446	16,07
593,913	16,14
594,38	16,09
594,847	16,04
595,314	16,12
595,781	16,06
596,248	15,97
596,715	16,04
597,181	15,79
597,647	15,85
598,114	15,88
598,58	15,88
599,046	15,6
599,512	15,66
599,978	15,48
600,444	15,6
600,91	15,6
601,375	15,66
601,841	15,36
602,306	15,55
602,771	15,49
603,236	15,37
603,702	15,42
604,167	15,3
604,631	15,15
605,096	15,16
605,561	15,08
606,025	14,93
606,49	14,91
606,954	14,92
607,418	14,74
607,882	14,83
608,347	14,73
608,81	14,62
609,274	14,59
609,738	14,59
610,202	14,51
610,665	14,21
611,128	14,31
611,592	13,99
612,055	14,03
612,518	13,97
612,981	13,72
613,444	13,7
613,907	13,77
614,369	13,33
614,832	13,58
615,294	13,44
615,757	13,16
616,219	13,09
616,681	13,18
617,143	12,97
617,605	13,11
618,067	12,91
618,529	12,91
618,99	12,7
619,452	12,76
619,913	12,82
620,375	12,59
620,836	12,58
621,297	12,62
621,758	12,38
622,219	12,4
622,68	12,38
623,14	12,42
623,601	12,33
624,061	12,32
624,522	12,35
624,982	12,36
625,442	12,33
625,902	12,24
626,362	12,17
626,822	12,12
627,282	12,06
627,742	12
628,201	12,17
628,661	12,07
629,12	11,91
629,579	12,14
630,038	12,06
630,497	11,82
630,956	12,17
631,415	11,91
631,874	12,04
632,332	11,82
632,791	11,97
633,249	11,74
633,708	11,7
634,166	11,68
634,624	11,75
635,082	11,51
635,54	11,46
635,998	11,56
636,455	11,52
636,913	11,45
637,37	11,31
637,828	11,21
638,285	11,09
638,742	10,81
639,199	11
639,656	10,96
640,113	10,81
640,57	10,55
641,027	10,69
641,483	10,67
641,94	10,32
642,396	10,37
642,852	10,39
643,309	10,1
643,765	10,08
644,221	9,98
644,676	9,95
645,132	9,91
645,588	9,8
646,043	9,78
646,499	9,62
646,954	9,52
647,409	9,44
647,864	9,36
648,319	9,25
648,774	9,29
649,229	9,23
649,684	9,22
650,139	8,97
650,593	9,01
651,047	9,13
651,502	8,98
651,956	8,96
652,41	8,82
652,864	8,93
653,318	8,84
653,772	8,78
654,225	8,86
654,679	8,78
655,133	8,67
655,586	8,64
656,039	8,54
656,492	8,61
656,946	8,47
657,399	8,45
657,851	8,6
658,304	8,31
658,757	8,39
659,209	8,42
659,662	8,31
660,114	8,23
660,567	8,25
661,019	8,11
661,471	8,12
661,923	8,09
662,375	8,09
662,826	8,04
663,278	7,88
663,73	7,98
664,181	7,93
664,632	7,87
665,084	7,96
665,535	7,78
665,986	7,9
666,437	7,88
666,888	7,86
667,338	7,85
667,789	7,96
668,24	7,93
668,69	7,93
669,14	7,91
669,591	7,88
670,041	7,93
670,491	8,02
670,941	8,05
671,391	8,01
671,84	8,13
672,29	8,12
672,74	8,25
673,189	8,28
673,638	8,37
674,088	8,33
674,537	8,37
674,986	8,6
675,435	8,54
675,883	8,52
676,332	8,54
676,781	8,86
677,229	8,71
677,678	8,87
678,126	8,98
678,574	9,01
679,022	9,2
679,47	9,23
679,918	9,33
680,366	9,26
680,814	9,44
681,261	9,55
681,709	9,75
682,156	9,7
682,604	9,86
683,051	9,75
683,498	9,96
683,945	10,16
684,392	10,28
684,839	10,18
685,286	10,16
685,732	10,45
686,179	10,44
686,625	10,62
687,071	10,71
687,518	10,67
687,964	10,91
688,41	11,1
688,856	11,15
689,301	11,36
689,747	11,35
690,193	11,61
690,638	11,8
691,084	12,19
691,529	12,38
691,974	12,76
692,419	13,14
692,864	13,5
693,309	13,81
693,754	14,28
694,199	14,7
694,643	15,2
695,088	15,47
695,532	16,11
695,977	16,66
696,421	17,22
696,865	17,63
697,309	18,24
697,753	18,76
698,197	19,31
698,64	19,73
699,084	20,35
699,527	20,85
699,971	21,63
700,414	22,23
700,857	22,75
701,3	23,31
701,743	23,77
702,186	24,33
702,629	25,1
703,072	25,74
703,515	26,08
703,957	26,91
704,399	27,38
704,842	27,79
705,284	28,34
705,726	28,78
706,168	29,47
706,61	29,83
707,052	30,56
707,494	31
707,935	31,46
708,377	31,78
708,818	32,39
709,26	33,11
709,701	33,63
710,142	33,97
710,583	34,24
711,024	35,09
711,465	35,36
711,905	35,79
712,346	36,19
712,787	36,89
713,227	37,23
713,667	37,67
714,108	38,18
714,548	38,62
714,988	38,97
715,428	39,57
715,868	39,73
716,307	40,34
716,747	40,78
717,186	41,42
717,626	41,61
718,065	41,83
718,504	42,14
718,944	42,65
719,383	42,86
719,822	43,42
720,261	43,89
720,699	44,28
721,138	44,49
721,576	44,86
722,015	45,17
722,453	45,28
722,892	45,93
723,33	46,03
723,768	46,63
724,206	46,64
724,644	47,02
725,081	47,36
725,519	47,23
725,957	47,79
726,394	48,03
726,832	48,19
727,269	48,67
727,706	48,86
728,143	49,21
728,58	49,23
729,017	49,57
729,454	49,43
729,89	49,59
730,327	50,04
730,764	50,22
731,2	50,48
731,636	50,46
732,072	50,35
732,509	50,81
732,945	51,1
733,38	51,33
733,816	50,96
734,252	51,41
734,688	51,56
735,123	51,5
735,559	51,65
735,994	51,81
736,429	52
736,864	52,03
737,299	52,27
737,734	52,43
738,169	52,52
738,604	52,49
739,038	52,41
739,473	52,54
739,907	52,6
740,342	52,76
740,776	52,8
741,21	52,56
741,644	52,72
742,078	52,81
742,512	53,26
742,946	52,75
743,379	53,21
743,813	52,77
744,246	53,08
744,68	52,89
745,113	53,16
745,546	53,01
745,979	52,99
746,412	53,13
746,845	52,77
747,278	52,97
747,711	53,14
748,143	53,3
748,576	53,08
749,008	53,07
749,441	53,11
749,873	52,9
750,305	53,22
750,737	52,9
751,169	52,81
751,601	53,11
752,032	53,16
752,464	52,67
752,896	53,04
753,327	53,01
753,758	53,05
754,19	52,85
754,621	52,69
755,052	52,67
755,483	52,86
755,914	52,94
756,344	52,69
756,775	52,83
757,206	52,61
757,636	52,71
758,066	52,73
758,497	52,79
758,927	52,74
759,357	52,69
759,787	52,73
760,217	52,2
760,647	52,41
761,076	52,62
761,506	52,46
761,935	52,63
762,365	52,27
762,794	52,17
763,223	52,25
763,653	52,46
764,082	52,02
764,51	52,34
764,939	52,06
765,368	52,01
765,797	51,88
766,225	52,11
766,654	52,3
767,082	52,46
767,51	51,93
767,938	52,07
768,367	51,92
768,795	51,62
769,222	52,14
769,65	51,83
770,078	51,85
770,505	52,05
770,933	51,9
771,36	51,57
771,788	51,67
772,215	51,6
772,642	52,06
773,069	51,85
773,496	51,68
773,923	51,64
774,349	51,85
774,776	51,23
775,203	51,24
775,629	51,69
776,055	51,42
776,482	51,72
776,908	51,33
777,334	51,4
777,76	51,48
778,186	51,52
778,611	51,23
779,037	51,59
779,463	51,47
779,888	51,49
780,314	51,75
780,739	51,19
781,164	51,26
781,589	51,47
782,014	51,44
782,439	51,34
782,864	51,42
783,289	51,36
783,713	51,15
784,138	51,36
784,562	51,26
784,987	51,21
785,411	51,15
785,835	51,56
786,259	51,06
786,683	51,13
787,107	51,47
787,531	51,04
787,954	51,02
788,378	51,36
788,802	51,2
789,225	51,08
789,648	51,61
790,071	51,27
790,495	51,09
790,918	50,88
791,34	51,11
791,763	51,41
792,186	50,97
792,609	51,11
793,031	51,41
793,454	50,97
793,876	51,26
794,298	51,09
794,721	51
795,143	51,14
795,565	50,79
795,986	50,94
796,408	51,47
796,83	51,14
797,252	50,93
797,673	51,01
798,094	51,07
798,516	51,16
798,937	50,65
799,358	51,17
799,779	51,2
800,2	50,95
800,621	50,73
801,042	51,18
801,462	50,89
801,883	51,03
802,303	50,84
802,724	50,67
803,144	51,3
803,564	50,91
803,984	50,92
804,404	50,79
804,824	50,6
805,244	50,86
805,664	50,93
806,084	50,96
806,503	51,02
806,923	50,85
807,342	51,1
807,761	50,68
808,18	50,88
808,599	50,79
809,018	50,85
809,437	50,88
809,856	50,64
810,275	51,13
810,693	50,9
811,112	50,73
811,53	50,83
811,949	50,81
812,367	50,72
812,785	50,65
813,203	50,7
813,621	51
814,039	50,6
814,457	50,98
814,874	50,95
815,292	51
815,709	50,84
816,127	50,38
816,544	50,97
816,961	50,81
817,378	50,82
817,795	50,62
818,212	50,93
818,629	50,83
819,046	50,99
819,462	50,74
819,879	50,66
820,295	50,58
820,712	50,84
821,128	50,76
821,544	50,48
821,96	50,71
822,376	50,53
822,792	50,89
823,208	50,56
823,624	50,56
824,039	50,74
824,455	51,21
824,87	50,84
825,286	50,69
825,701	50,71
826,116	50,93
826,531	50,92
826,946	50,69
827,361	50,64
827,776	50,79
828,19	50,71
828,605	50,7
829,02	50,56
829,434	50,6
829,848	50,52
830,263	50,81
830,677	50,5
831,091	51,12
831,505	50,69
831,919	50,96
832,332	50,7
832,746	50,7
833,16	50,3
833,573	50,72
833,987	50,39
834,4	50,52
834,813	50,73
835,226	50,62
835,639	50,43
836,052	50,63
836,465	50,91
836,878	50,56
837,29	50,34
837,703	50,46
838,116	50,44
838,528	50,3
838,94	50,34
839,352	50,38
839,765	50,61
840,177	50,41
840,589	50,52
841	50,69
841,412	50,66
