Data from E_4__Relative__8__00109.txt Node

Date: Mon Jan 29 18:20:16 CET 2024
User: diatiterra
Spectrometer: HDX00911
Trigger mode: 0
Integration Time (sec): 6,000000E-3
Scans to average: 2
Nonlinearity correction enabled: false
Boxcar width: 0
Storing dark spectrum: false
XAxis mode: Wavelengths
Number of Pixels in Spectrum: 2068
>>>>>Begin Spectral Data<<<<<
194,468	62,75
195,025	50,44
195,581	76,6
196,138	39,23
196,694	66,67
197,251	50,67
197,807	45,6
198,363	44
198,919	48,04
199,474	46,79
200,03	38,6
200,586	49,32
201,141	45,69
201,696	41,87
202,251	49,08
202,806	46,62
203,361	54,39
203,916	49,66
204,471	48,94
205,025	51,79
205,58	42,29
206,134	48,89
206,688	48,55
207,242	51,36
207,796	45,76
208,35	44,04
208,904	47,12
209,457	48,01
210,011	42,66
210,564	50,35
211,117	44,01
211,67	47,54
212,223	45,55
212,776	48,69
213,329	40,89
213,881	46,43
214,434	53,79
214,986	46,46
215,538	45,05
216,09	44,92
216,642	49,26
217,194	41,72
217,746	37,71
218,297	42,95
218,849	36,76
219,4	62,59
219,951	52,36
220,502	48,78
221,053	36,68
221,604	51,01
222,155	52,67
222,705	41,47
223,256	50,36
223,806	44,22
224,356	53,26
224,906	49,26
225,456	42,07
226,006	38,93
226,556	49,27
227,106	50,35
227,655	47,39
228,204	49,67
228,754	37,93
229,303	50,17
229,852	41,18
230,401	46,24
230,949	61,48
231,498	48,88
232,047	40,74
232,595	48,58
233,143	46,97
233,691	52
234,239	47,76
234,787	53,5
235,335	49,32
235,883	46,24
236,43	47,41
236,978	52
237,525	54,1
238,072	44,65
238,619	37,33
239,166	45,79
239,713	55,39
240,26	50,56
240,806	52,13
241,353	51,24
241,899	44,34
242,445	43,01
242,991	57,14
243,537	47,85
244,083	48
244,629	52,03
245,174	58,21
245,72	40,13
246,265	53,36
246,81	49,27
247,355	47,06
247,9	44,98
248,445	55,86
248,99	46,71
249,534	45,57
250,079	48,88
250,623	47,8
251,168	50,34
251,712	60,64
252,256	51,16
252,8	59,38
253,343	53,5
253,887	51,02
254,43	52,04
254,974	46,15
255,517	52,35
256,06	50,34
256,603	59,25
257,146	47,14
257,689	44,94
258,232	46,36
258,774	57,2
259,317	61,17
259,859	44,28
260,401	56,44
260,943	48,88
261,485	53,9
262,027	51,03
262,569	51,5
263,11	58,48
263,652	49,63
264,193	45
264,734	51,19
265,275	51,81
265,816	50,36
266,357	44,24
266,898	42,32
267,438	49,41
267,979	51,64
268,519	47,65
269,059	56,38
269,6	54,04
270,14	47,52
270,68	47,89
271,219	44,56
271,759	51,12
272,298	46,18
272,838	52,71
273,377	40,37
273,916	43,32
274,455	44,06
274,994	54,68
275,533	47,78
276,072	47,74
276,61	40,27
277,149	41,3
277,687	49,11
278,225	43,84
278,763	50,72
279,301	49,06
279,839	50
280,377	45,26
280,914	47,25
281,452	52,03
281,989	48,81
282,526	54,48
283,064	47,57
283,601	55,68
284,137	43,07
284,674	56,23
285,211	37,41
285,747	48,47
286,284	44,56
286,82	49,29
287,356	40,89
287,892	45,26
288,428	45,42
288,964	48,01
289,5	55,44
290,035	43,17
290,571	48,13
291,106	42,55
291,641	44,83
292,176	50,38
292,711	49,31
293,246	49,46
293,781	48,7
294,315	49,63
294,85	52,92
295,384	52,22
295,918	48,43
296,453	48,06
296,987	52,41
297,52	53,77
298,054	43,01
298,588	46,46
299,121	46,15
299,655	42,81
300,188	47,53
300,721	49,66
301,254	47,69
301,787	42,28
302,32	55,68
302,853	42,51
303,385	51,28
303,918	48,07
304,45	51,35
304,982	51,79
305,514	46,13
306,046	44,21
306,578	47,5
307,11	43,49
307,641	54,91
308,173	49,44
308,704	55,94
309,236	51,31
309,767	48,75
310,298	46,34
310,829	53,99
311,359	47,69
311,89	44,84
312,421	52,9
312,951	57,82
313,481	52,21
314,012	45,05
314,542	45,55
315,072	49,45
315,601	48,4
316,131	44,53
316,661	51,25
317,19	46,62
317,72	45,05
318,249	44,59
318,778	47,53
319,307	47,97
319,836	50
320,365	49,84
320,893	46,45
321,422	52,61
321,95	44,44
322,479	53,63
323,007	39,13
323,535	46,79
324,063	53,36
324,591	40,33
325,118	45,8
325,646	42,69
326,173	53,57
326,701	45,82
327,228	46,01
327,755	42,65
328,282	51,7
328,809	45,93
329,336	40,48
329,862	56,15
330,389	38,91
330,915	43,62
331,441	41,36
331,968	38,49
332,494	41,14
333,02	35,4
333,545	38,99
334,071	42,67
334,597	48,31
335,122	44,15
335,648	46,89
336,173	47,85
336,698	44,18
337,223	52,22
337,748	40
338,272	29,37
338,797	34,95
339,322	33,89
339,846	35,16
340,37	44,32
340,894	46,58
341,419	41,95
341,942	44,63
342,466	39,25
342,99	37,85
343,514	38,64
344,037	35,74
344,56	34,8
345,084	41,32
345,607	38,3
346,13	37,54
346,653	41,51
347,175	41,29
347,698	33,93
348,221	41,28
348,743	41,98
349,265	36,01
349,787	39,43
350,309	34,16
350,831	37,31
351,353	40,74
351,875	39,04
352,397	38,84
352,918	33,62
353,439	43,09
353,961	41,13
354,482	37,92
355,003	40,21
355,524	40,05
356,044	41,16
356,565	41,65
357,086	36,9
357,606	40,48
358,126	39,17
358,646	34,08
359,167	39,31
359,687	40,57
360,206	35,42
360,726	28,03
361,246	38,31
361,765	32,89
362,285	37,2
362,804	31,11
363,323	34,63
363,842	39,29
364,361	33,55
364,88	36,08
365,398	34,66
365,917	38,6
366,435	30,47
366,954	32,26
367,472	34,54
367,99	38,19
368,508	34,96
369,026	35,85
369,544	34,18
370,061	34,8
370,579	35,46
371,096	33,03
371,613	33,03
372,131	33,27
372,648	34,84
373,165	33,62
373,681	33,27
374,198	36,23
374,715	36,28
375,231	32,27
375,747	34,05
376,264	34,35
376,78	34,29
377,296	35,76
377,812	30,86
378,327	30,22
378,843	32,64
379,359	33,62
379,874	34,97
380,389	34,53
380,905	31,17
381,42	32,51
381,935	34,67
382,449	33,67
382,964	30,33
383,479	32,18
383,993	33,17
384,508	30,09
385,022	30,46
385,536	30,98
386,05	30,24
386,564	32
387,078	29,74
387,592	28,65
388,105	30,58
388,619	30,88
389,132	26,71
389,645	30,82
390,158	25,63
390,671	28,01
391,184	27
391,697	25,46
392,21	28,74
392,722	26,14
393,235	28,72
393,747	25,58
394,259	26,57
394,771	24,83
395,283	24,92
395,795	26,32
396,307	24,86
396,818	23,9
397,33	22,95
397,841	26,1
398,353	21,22
398,864	24,71
399,375	22,32
399,886	22,88
400,397	22,68
400,907	20,92
401,418	21,14
401,928	21,49
402,439	20,58
402,949	21,33
403,459	20,58
403,969	20,96
404,479	19,66
404,989	18,52
405,498	18,47
406,008	17,87
406,517	17,06
407,027	16,23
407,536	15,1
408,045	16,66
408,554	15,79
409,063	15,4
409,572	14,41
410,08	14,45
410,589	13,83
411,097	14,03
411,606	13,45
412,114	13,24
412,622	12,29
413,13	11,13
413,638	12,57
414,145	11,63
414,653	11,68
415,16	10,58
415,668	10,7
416,175	10,68
416,682	10,29
417,189	10,17
417,696	10,28
418,203	10,08
418,71	10,3
419,216	9,33
419,723	10,15
420,229	9,2
420,735	9,56
421,242	9,78
421,748	10,25
422,254	9,42
422,759	9,34
423,265	9,11
423,771	8,64
424,276	9,53
424,781	9,16
425,287	8,7
425,792	9,03
426,297	8,41
426,802	9,09
427,306	9,02
427,811	8,25
428,316	8,78
428,82	8,84
429,324	8,28
429,829	8,84
430,333	8,25
430,837	8,18
431,34	8,56
431,844	7,9
432,348	8,13
432,851	8,26
433,355	7,98
433,858	8,24
434,361	8,36
434,864	8,33
435,367	7,89
435,87	8,48
436,373	8,43
436,876	8,39
437,378	7,85
437,88	8,04
438,383	8
438,885	7,88
439,387	8,06
439,889	7,87
440,391	8,1
440,892	7,96
441,394	7,99
441,896	8,05
442,397	7,85
442,898	8,29
443,399	8,03
443,9	8,26
444,401	8,32
444,902	8,06
445,403	8
445,903	7,9
446,404	8,13
446,904	8,31
447,405	8,32
447,905	8,36
448,405	8,12
448,905	8,49
449,404	8,47
449,904	8,06
450,404	8
450,903	8,5
451,403	8,24
451,902	8,24
452,401	8,3
452,9	8,34
453,399	8,42
453,898	8,21
454,396	7,93
454,895	8,32
455,393	8,17
455,892	8,41
456,39	8,44
456,888	8,1
457,386	7,96
457,884	8,3
458,382	8,34
458,879	8,49
459,377	8,46
459,874	8,31
460,372	8,24
460,869	8,48
461,366	8,22
461,863	8,75
462,36	8,72
462,857	8,52
463,353	8,17
463,85	8,32
464,346	8,51
464,843	8,13
465,339	8,17
465,835	8,43
466,331	8,35
466,827	8,28
467,323	8,11
467,818	8,35
468,314	8,5
468,809	8,33
469,305	8,2
469,8	8,34
470,295	8,45
470,79	8,39
471,285	8,19
471,78	8,14
472,274	7,91
472,769	8,34
473,263	8,33
473,758	8,54
474,252	8,12
474,746	8,45
475,24	8,2
475,734	8,27
476,228	8,36
476,721	8,21
477,215	8,48
477,708	8,45
478,202	8,56
478,695	8,09
479,188	8,24
479,681	8,28
480,174	8,61
480,667	8,51
481,159	8,4
481,652	8,53
482,144	8,51
482,637	8,6
483,129	8,62
483,621	8,04
484,113	8,5
484,605	8,46
485,097	8,61
485,588	8,49
486,08	9,1
486,571	8,73
487,063	8,91
487,554	8,66
488,045	8,7
488,536	8,68
489,027	8,57
489,518	8,79
490,008	8,77
490,499	8,63
490,989	8,69
491,48	8,69
491,97	8,72
492,46	8,61
492,95	8,92
493,44	9,11
493,93	8,92
494,419	8,97
494,909	8,94
495,398	8,86
495,888	9,29
496,377	9,28
496,866	9,16
497,355	9,39
497,844	9,52
498,333	9,28
498,821	9,36
499,31	9,66
499,798	9,51
500,287	9,28
500,775	9,51
501,263	9,61
501,751	9,5
502,239	9,67
502,727	9,84
503,215	10,22
503,702	10,39
504,19	10,42
504,677	10,21
505,164	10,52
505,651	10,44
506,139	10,88
506,625	10,89
507,112	10,85
507,599	10,86
508,086	11,05
508,572	11,24
509,058	11,56
509,545	11,67
510,031	11,93
510,517	11,8
511,003	12,12
511,489	12,32
511,974	12,52
512,46	12,73
512,946	13,25
513,431	13,02
513,916	13,32
514,401	13,45
514,887	13,85
515,371	14,02
515,856	14,33
516,341	14,58
516,826	15,17
517,31	15,1
517,795	15,31
518,279	15,7
518,763	16,11
519,247	16,33
519,731	17,01
520,215	16,96
520,699	17,33
521,182	17,42
521,666	17,65
522,149	17,76
522,633	18,46
523,116	18,58
523,599	19,01
524,082	19,01
524,565	19,49
525,048	19,72
525,53	20,21
526,013	20,43
526,495	20,09
526,978	20,88
527,46	21,02
527,942	21,3
528,424	21,53
528,906	21,58
529,388	21,6
529,87	21,81
530,351	22,17
530,833	22,79
531,314	22,75
531,795	22,89
532,277	22,81
532,758	23,28
533,238	23,62
533,719	23,54
534,2	23,75
534,681	23,52
535,161	24,1
535,642	23,83
536,122	23,85
536,602	23,93
537,082	24,34
537,562	24,11
538,042	24,47
538,522	24,49
539,001	24,44
539,481	24,65
539,96	24,28
540,44	24,98
540,919	25
541,398	25,02
541,877	24,88
542,356	25,11
542,835	25,41
543,313	24,82
543,792	25,2
544,27	25,11
544,749	25,01
545,227	25,03
545,705	25,39
546,183	24,98
546,661	25,33
547,139	25,39
547,616	25,07
548,094	25,42
548,571	25,59
549,049	25,52
549,526	25,36
550,003	25,67
550,48	25,63
550,957	25,62
551,434	25,52
551,911	25,61
552,387	25,53
552,864	25,76
553,34	25,88
553,817	25,84
554,293	25,73
554,769	25,53
555,245	25,77
555,721	25,4
556,197	26
556,672	25,87
557,148	25,53
557,623	25,52
558,099	25,72
558,574	25,59
559,049	25,31
559,524	25,44
559,999	25,53
560,474	25,4
560,948	25,27
561,423	25,41
561,897	25,22
562,372	25,04
562,846	24,73
563,32	24,75
563,794	24,6
564,268	24,29
564,742	24,5
565,216	23,94
565,69	24,38
566,163	23,98
566,636	23,92
567,11	23,58
567,583	23,23
568,056	23,41
568,529	22,95
569,002	23,16
569,475	23
569,947	22,58
570,42	22,39
570,892	22,33
571,365	22,09
571,837	22,35
572,309	22,07
572,781	21,99
573,253	21,39
573,725	21,12
574,197	21,22
574,668	21,23
575,14	20,8
575,611	20,68
576,082	20,55
576,554	20,43
577,025	20,29
577,496	20,18
577,967	19,9
578,437	20,01
578,908	19,62
579,379	19,44
579,849	19,69
580,319	19,4
580,79	19,36
581,26	19,02
581,73	19,26
582,2	18,97
582,669	18,73
583,139	18,39
583,609	18,54
584,078	18,53
584,548	18,28
585,017	18,32
585,486	18,03
585,955	17,97
586,424	18,03
586,893	18,03
587,362	17,68
587,83	17,73
588,299	17,71
588,767	17,85
589,236	17,46
589,704	17,5
590,172	17,51
590,64	17,34
591,108	17,14
591,576	17,17
592,043	17,07
592,511	17,02
592,978	17
593,446	17,09
593,913	16,92
594,38	17,05
594,847	16,94
595,314	16,75
595,781	16,7
596,248	16,75
596,715	16,66
597,181	16,67
597,647	16,93
598,114	16,54
598,58	16,71
599,046	16,39
599,512	16,71
599,978	16,56
600,444	16,72
600,91	16,47
601,375	16,41
601,841	16,43
602,306	16,3
602,771	16,22
603,236	16,24
603,702	16,04
604,167	16,06
604,631	15,92
605,096	16,01
605,561	15,98
606,025	15,77
606,49	15,79
606,954	15,77
607,418	15,6
607,882	15,62
608,347	15,46
608,81	15,59
609,274	15,37
609,738	15,32
610,202	15,22
610,665	15,22
611,128	15,04
611,592	14,92
612,055	14,87
612,518	14,91
612,981	14,69
613,444	14,55
613,907	14,43
614,369	14,37
614,832	14,24
615,294	14,34
615,757	14,14
616,219	14,2
616,681	14,1
617,143	13,97
617,605	14,01
618,067	13,97
618,529	13,62
618,99	13,55
619,452	13,9
619,913	13,64
620,375	13,65
620,836	13,42
621,297	13,48
621,758	13,24
622,219	13,29
622,68	13,56
623,14	13,5
623,601	13,42
624,061	13,12
624,522	13,29
624,982	13
625,442	13,26
625,902	13,09
626,362	13,14
626,822	13,04
627,282	13,01
627,742	13,01
628,201	12,85
628,661	13
629,12	12,89
629,579	12,73
630,038	12,83
630,497	12,79
630,956	12,92
631,415	12,78
631,874	12,6
632,332	12,65
632,791	12,79
633,249	12,59
633,708	12,67
634,166	12,51
634,624	12,43
635,082	12,6
635,54	12,39
635,998	12,36
636,455	12,38
636,913	12,16
637,37	12,14
637,828	12,19
638,285	12,03
638,742	11,92
639,199	11,8
639,656	11,61
640,113	11,54
640,57	11,55
641,027	11,47
641,483	11,49
641,94	11,18
642,396	11,22
642,852	11,26
643,309	11,01
643,765	10,92
644,221	10,88
644,676	10,89
645,132	10,73
645,588	10,51
646,043	10,52
646,499	10,31
646,954	10,33
647,409	10,2
647,864	10,08
648,319	10,08
648,774	9,87
649,229	10,02
649,684	10
650,139	9,79
650,593	9,69
651,047	9,79
651,502	9,73
651,956	9,72
652,41	9,61
652,864	9,62
653,318	9,55
653,772	9,5
654,225	9,5
654,679	9,42
655,133	9,4
655,586	9,33
656,039	9,3
656,492	9,25
656,946	9,3
657,399	9,26
657,851	9,27
658,304	9,1
658,757	9,23
659,209	8,99
659,662	9,01
660,114	8,9
660,567	8,78
661,019	8,78
661,471	8,78
661,923	8,77
662,375	8,7
662,826	8,6
663,278	8,5
663,73	8,61
664,181	8,56
664,632	8,44
665,084	8,4
665,535	8,53
665,986	8,56
666,437	8,44
666,888	8,45
667,338	8,51
667,789	8,48
668,24	8,47
668,69	8,6
669,14	8,48
669,591	8,53
670,041	8,48
670,491	8,65
670,941	8,77
671,391	8,63
671,84	8,69
672,29	8,85
672,74	8,82
673,189	8,87
673,638	8,8
674,088	9,07
674,537	8,96
674,986	9,16
675,435	9,17
675,883	9,32
676,332	9,32
676,781	9,4
677,229	9,46
677,678	9,55
678,126	9,67
678,574	9,81
679,022	9,74
679,47	9,84
679,918	10
680,366	9,96
680,814	10,08
681,261	10,17
681,709	10,29
682,156	10,3
682,604	10,55
683,051	10,6
683,498	10,6
683,945	10,85
684,392	10,74
684,839	10,94
685,286	11,08
685,732	11,18
686,179	11,18
686,625	11,17
687,071	11,35
687,518	11,43
687,964	11,58
688,41	11,76
688,856	11,77
689,301	12
689,747	12,15
690,193	12,38
690,638	12,74
691,084	12,89
691,529	13,13
691,974	13,44
692,419	13,82
692,864	14,3
693,309	14,6
693,754	14,95
694,199	15,46
694,643	15,94
695,088	16,28
695,532	16,79
695,977	17,22
696,421	17,64
696,865	18,33
697,309	18,89
697,753	19,34
698,197	19,86
698,64	20,54
699,084	20,93
699,527	21,45
699,971	22,06
700,414	22,71
700,857	23,39
701,3	23,75
701,743	24,17
702,186	24,63
702,629	25,46
703,072	26,01
703,515	26,49
703,957	27
704,399	27,44
704,842	27,93
705,284	28,62
705,726	28,95
706,168	29,48
706,61	29,88
707,052	30,72
707,494	30,78
707,935	31,39
708,377	31,96
708,818	32,45
709,26	32,8
709,701	33,22
710,142	33,66
710,583	34,07
711,024	34,66
711,465	34,98
711,905	35,47
712,346	35,8
712,787	36,08
713,227	36,7
713,667	36,94
714,108	37,55
714,548	38,11
714,988	38,32
715,428	38,67
715,868	38,79
716,307	39,65
716,747	40,09
717,186	40,13
717,626	40,75
718,065	40,9
718,504	41,12
718,944	41,79
719,383	41,99
719,822	42,27
720,261	42,83
720,699	43,02
721,138	43,33
721,576	43,95
722,015	43,89
722,453	44,22
722,892	45,03
723,33	44,82
723,768	44,93
724,206	45,2
724,644	45,6
725,081	46
725,519	45,79
725,957	45,87
726,394	46,32
726,832	46,81
727,269	46,89
727,706	47,3
728,143	47,54
728,58	47,61
729,017	47,83
729,454	47,81
729,89	47,79
730,327	48,16
730,764	48,13
731,2	48,49
731,636	48,4
732,072	48,77
732,509	48,92
732,945	49,45
733,38	49,39
733,816	49,25
734,252	49,34
734,688	49,43
735,123	49,45
735,559	49,59
735,994	49,88
736,429	49,91
736,864	49,94
737,299	49,92
737,734	50,28
738,169	50,51
738,604	50,24
739,038	50,24
739,473	50,31
739,907	50,54
740,342	50,31
740,776	50,53
741,21	50,58
741,644	50,51
742,078	50,54
742,512	50,97
742,946	50,75
743,379	50,76
743,813	50,56
744,246	50,7
744,68	50,54
745,113	51,15
745,546	50,99
745,979	50,66
746,412	50,82
746,845	50,86
747,278	50,58
747,711	50,9
748,143	50,42
748,576	50,78
749,008	50,67
749,441	50,85
749,873	50,29
750,305	50,8
750,737	50,38
751,169	50,4
751,601	50,62
752,032	50,49
752,464	50,47
752,896	50,4
753,327	50,41
753,758	50,46
754,19	50,41
754,621	50,29
755,052	50,19
755,483	50,2
755,914	50,24
756,344	50,41
756,775	50,15
757,206	50,39
757,636	50,34
758,066	50,16
758,497	50,2
758,927	49,99
759,357	50,26
759,787	50,06
760,217	49,94
760,647	49,8
761,076	50,08
761,506	49,83
761,935	49,85
762,365	50,01
762,794	49,79
763,223	49,81
763,653	50,09
764,082	49,62
764,51	49,68
764,939	49,48
765,368	49,66
765,797	49,49
766,225	49,72
766,654	49,47
767,082	49,81
767,51	49,48
767,938	49,39
768,367	49,39
768,795	49,14
769,222	49,52
769,65	49,49
770,078	49,32
770,505	49,22
770,933	49,41
771,36	49,03
771,788	49,17
772,215	49,27
772,642	49,46
773,069	49,27
773,496	49,28
773,923	49,03
774,349	49,28
774,776	49,04
775,203	48,85
775,629	49,15
776,055	49,04
776,482	49,3
776,908	48,95
777,334	49,27
777,76	49,12
778,186	48,65
778,611	49,05
779,037	48,98
779,463	48,96
779,888	48,92
780,314	49,06
780,739	48,89
781,164	48,93
781,589	48,78
782,014	49,35
782,439	48,79
782,864	48,84
783,289	48,82
783,713	48,64
784,138	48,73
784,562	48,92
784,987	48,88
785,411	48,31
785,835	48,82
786,259	48,52
786,683	48,77
787,107	49,01
787,531	48,62
787,954	48,8
788,378	48,7
788,802	48,6
789,225	48,6
789,648	48,97
790,071	48,72
790,495	48,8
790,918	48,56
791,34	48,79
791,763	48,68
792,186	48,59
792,609	48,59
793,031	48,89
793,454	48,66
793,876	48,9
794,298	48,52
794,721	48,27
795,143	48,59
795,565	48,64
795,986	48,46
796,408	48,7
796,83	48,47
797,252	48,69
797,673	48,4
798,094	48,86
798,516	48,47
798,937	48,39
799,358	48,48
799,779	48,43
800,2	48,51
800,621	48,28
801,042	49,01
801,462	48,52
801,883	48,58
802,303	48,3
802,724	48,36
803,144	48,43
803,564	48,33
803,984	48,18
804,404	48,18
804,824	48,51
805,244	48,5
805,664	48,65
806,084	48,51
806,503	48,46
806,923	48,59
807,342	48,47
807,761	48,22
808,18	48,51
808,599	48,18
809,018	48,39
809,437	48,54
809,856	48,41
810,275	48,58
810,693	48,46
811,112	48,39
811,53	48,74
811,949	48,13
812,367	47,9
812,785	48,08
813,203	48,29
813,621	48,48
814,039	48,09
814,457	48,28
814,874	48,35
815,292	48,62
815,709	48,5
816,127	48,06
816,544	48,47
816,961	48,42
817,378	48,28
817,795	48,42
818,212	48,27
818,629	48,28
819,046	48,7
819,462	48,17
819,879	48,18
820,295	48,13
820,712	48,14
821,128	48,49
821,544	48,4
821,96	48,25
822,376	48,26
822,792	48,34
823,208	48,23
823,624	48,19
824,039	48,31
824,455	48,47
824,87	48,41
825,286	48,21
825,701	48,28
826,116	48,28
826,531	47,97
826,946	48,26
827,361	48,27
827,776	48,48
828,19	48,05
828,605	48,46
829,02	47,99
829,434	47,95
829,848	48,16
830,263	48,19
830,677	48,31
831,091	48,52
831,505	47,97
831,919	48,51
832,332	48,06
832,746	48,06
833,16	48,05
833,573	48,06
833,987	48
834,4	48,09
834,813	48,2
835,226	48,31
835,639	48,07
836,052	48,14
836,465	48,47
836,878	48,05
837,29	48,25
837,703	48,17
838,116	48,13
838,528	47,81
838,94	48,14
839,352	48,06
839,765	47,93
840,177	47,88
840,589	48,01
841	48,04
841,412	48,03
