Data from E_4__Relative__6__00107.txt Node

Date: Mon Jan 29 18:19:59 CET 2024
User: diatiterra
Spectrometer: HDX00911
Trigger mode: 0
Integration Time (sec): 6,000000E-3
Scans to average: 2
Nonlinearity correction enabled: false
Boxcar width: 0
Storing dark spectrum: false
XAxis mode: Wavelengths
Number of Pixels in Spectrum: 2068
>>>>>Begin Spectral Data<<<<<
194,468	49,02
195,025	38,05
195,581	70,21
196,138	48,46
196,694	44,83
197,251	34,22
197,807	43,2
198,363	34,55
198,919	39,86
199,474	34,29
200,03	25,37
200,586	28,91
201,141	39,33
201,696	38,75
202,251	35,42
202,806	35,34
203,361	37,54
203,916	43,49
204,471	34,15
205,025	34,29
205,58	32,97
206,134	32,59
206,688	34,42
207,242	34,01
207,796	33,22
208,35	31,77
208,904	28,81
209,457	40,43
210,011	34,97
210,564	36,11
211,117	34,51
211,67	33,8
212,223	32,53
212,776	36,33
213,329	30,24
213,881	31,07
214,434	32,76
214,986	28,62
215,538	37,36
216,09	27,21
216,642	38,89
217,194	36,09
217,746	38,38
218,297	34,56
218,849	35,2
219,4	36,71
219,951	38,91
220,502	30,31
221,053	32,29
221,604	39,93
222,155	27,98
222,705	38,8
223,256	35,61
223,806	36,73
224,356	37,32
224,906	37,41
225,456	35,17
226,006	33,22
226,556	33,21
227,106	38,46
227,655	34,15
228,204	29,28
228,754	35,86
229,303	34,58
229,852	40,52
230,401	32,97
230,949	39,3
231,498	38,43
232,047	41,75
232,595	43,26
233,143	41,29
233,691	43,2
234,239	35,07
234,787	34,27
235,335	31,97
235,883	43,01
236,43	37,04
236,978	36,73
237,525	47,39
238,072	36,9
238,619	28,77
239,166	40,07
239,713	43,87
240,26	54,68
240,806	43,97
241,353	39,22
241,899	39,48
242,445	37,76
242,991	41,11
243,537	43,89
244,083	38,55
244,629	34,8
245,174	47,39
245,72	40,47
246,265	34,63
246,81	40,51
247,355	29,04
247,9	38,41
248,445	46,55
248,99	37,02
249,534	40,19
250,079	47,39
250,623	39,32
251,168	38,59
251,712	50,71
252,256	38,54
252,8	42,01
253,343	39,81
253,887	35,71
254,43	43,87
254,974	40,21
255,517	40,94
256,06	39,04
256,603	41,89
257,146	40,74
257,689	37,34
258,232	39,46
258,774	37,64
259,317	41,03
259,859	39,11
260,401	39,02
260,943	42,54
261,485	41,84
262,027	34,48
262,569	48,5
263,11	40,79
263,652	36,03
264,193	43,21
264,734	42,06
265,275	40,56
265,816	46,4
266,357	36,33
266,898	35,15
267,438	39,61
267,979	40,73
268,519	42,6
269,059	45,04
269,6	38,6
270,14	38,28
270,68	34,48
271,219	44,21
271,759	36,57
272,298	34,55
272,838	35,27
273,377	40
273,916	35,74
274,455	34,87
274,994	34,17
275,533	40,61
276,072	36,09
276,61	41,64
277,149	30,8
277,687	42,7
278,225	35,27
278,763	40,22
279,301	33,58
279,839	39,13
280,377	37,23
280,914	35,16
281,452	45,93
281,989	47,1
282,526	41,58
283,064	38,89
283,601	36,74
284,137	41,24
284,674	36,6
285,211	37,05
285,747	44,07
286,284	33,33
286,82	36,88
287,356	37,11
287,892	42,81
288,428	29,49
288,964	34,66
289,5	43,2
290,035	41,37
290,571	37,31
291,106	42,18
291,641	36,02
292,176	38,35
292,711	38,28
293,246	39,71
293,781	38,66
294,315	31,99
294,85	32,48
295,384	36,67
295,918	31,71
296,453	39,22
296,987	35,86
297,52	34,25
298,054	33,09
298,588	41,73
299,121	37,36
299,655	36,14
300,188	32,7
300,721	40,34
301,254	38,08
301,787	34,55
302,32	40,53
302,853	35,54
303,385	33,7
303,918	37,89
304,45	39,77
304,982	34,66
305,514	38,01
306,046	26,67
306,578	36,43
307,11	39,03
307,641	29,82
308,173	34,57
308,704	37,55
309,236	42,32
309,767	38,75
310,298	37,63
310,829	35,74
311,359	33,81
311,89	32,38
312,421	35,14
312,951	34,18
313,481	39,76
314,012	36,63
314,542	28,42
315,072	40
315,601	37,72
316,131	33,58
316,661	37,08
317,19	35,23
317,72	38,1
318,249	36,15
318,778	36,5
319,307	32,09
319,836	35,23
320,365	32,25
320,893	38,65
321,422	28,73
321,95	30
322,479	38,41
323,007	35,14
323,535	41,89
324,063	39,18
324,591	35,67
325,118	29,37
325,646	36,15
326,173	42,14
326,701	27,64
327,228	34,82
327,755	40,86
328,282	37,74
328,809	36,67
329,336	38,75
329,862	41,54
330,389	37,54
330,915	34,4
331,441	32,2
331,968	36,43
332,494	35,12
333,02	32,12
333,545	30,69
334,071	34,67
334,597	39,53
335,122	28,43
335,648	37,36
336,173	32,67
336,698	34,93
337,223	35,15
337,748	28,77
338,272	39,93
338,797	35,92
339,322	28,9
339,846	28,52
340,37	35,16
340,894	36,99
341,419	39,26
341,942	33,89
342,466	32,76
342,99	27,69
343,514	29,87
344,037	36,72
344,56	33,54
345,084	25,87
345,607	28,88
346,13	32
346,653	31,13
347,175	34,84
347,698	28,57
348,221	36,63
348,743	30,03
349,265	25,89
349,787	28,29
350,309	29,2
350,831	28,66
351,353	30,69
351,875	28,65
352,397	29,2
352,918	32,2
353,439	39,02
353,961	31,55
354,482	29,21
355,003	30,29
355,524	27,81
356,044	31,93
356,565	29,68
357,086	29,01
357,606	26,02
358,126	23,6
358,646	27,11
359,167	25,06
359,687	30,66
360,206	24,58
360,726	26,57
361,246	27,23
361,765	28,73
362,285	23,7
362,804	28,44
363,323	25,23
363,842	28,33
364,361	25,54
364,88	31,86
365,398	25,83
365,917	28,95
366,435	28,54
366,954	26,05
367,472	28,36
367,99	26,08
368,508	23,63
369,026	21,51
369,544	23,27
370,061	27,07
370,579	23,83
371,096	25
371,613	26,79
372,131	28,17
372,648	23,65
373,165	28,94
373,681	22,59
374,198	25,08
374,715	25,87
375,231	22,58
375,747	24,79
376,264	26,68
376,78	23,29
377,296	26,9
377,812	24,63
378,327	21,19
378,843	25,85
379,359	22,32
379,874	25,96
380,389	26,69
380,905	24,01
381,42	23,63
381,935	25,33
382,449	23,13
382,964	23,26
383,479	23,88
383,993	18,75
384,508	23,3
385,022	23,1
385,536	21,14
386,05	20,31
386,564	21,51
387,078	17,17
387,592	21,98
388,105	18,39
388,619	18,98
389,132	20,63
389,645	23,09
390,158	17,85
390,671	19,95
391,184	19,18
391,697	18,2
392,21	18,33
392,722	18,51
393,235	17,84
393,747	18,73
394,259	19,57
394,771	16,42
395,283	18,07
395,795	17
396,307	16,42
396,818	17,32
397,33	14,51
397,841	16,16
398,353	16,18
398,864	16,12
399,375	14,63
399,886	15,74
400,397	15,06
400,907	14,85
401,418	13,88
401,928	13,68
402,439	14,94
402,949	14,92
403,459	12,89
403,969	13,32
404,479	13,43
404,989	13,27
405,498	12,49
406,008	11,48
406,517	11,76
407,027	11,61
407,536	11,28
408,045	10,93
408,554	11,23
409,063	9,84
409,572	9,53
410,08	9,45
410,589	9,1
411,097	9,14
411,606	9,15
412,114	8,52
412,622	8,11
413,13	7,93
413,638	7,48
414,145	7,05
414,653	6,54
415,16	7,35
415,668	7,56
416,175	6,93
416,682	6,85
417,189	6,79
417,696	6,22
418,203	6,79
418,71	6,3
419,216	6,29
419,723	6,63
420,229	6,43
420,735	6,37
421,242	5,96
421,748	6,7
422,254	5,75
422,759	6,33
423,265	5,86
423,771	5,45
424,276	6,03
424,781	5,34
425,287	5,35
425,792	5,92
426,297	6,03
426,802	5,23
427,306	5,34
427,811	5,49
428,316	5,83
428,82	5,43
429,324	5,71
429,829	5,61
430,333	4,98
430,837	5,19
431,34	5,37
431,844	5,37
432,348	4,97
432,851	4,99
433,355	5,16
433,858	5
434,361	5,35
434,864	5,25
435,367	4,96
435,87	4,89
436,373	5,17
436,876	4,88
437,378	4,91
437,88	5,2
438,383	5,22
438,885	5,03
439,387	4,76
439,889	5,01
440,391	5,24
440,892	4,72
441,394	4,69
441,896	4,95
442,397	5,1
442,898	4,48
443,399	5,18
443,9	5,44
444,401	4,85
444,902	4,67
445,403	4,61
445,903	4,74
446,404	5,25
446,904	5,09
447,405	5,12
447,905	4,9
448,405	5,06
448,905	5,21
449,404	4,82
449,904	5,4
450,404	4,93
450,903	4,92
451,403	4,93
451,902	5,2
452,401	5,24
452,9	5,11
453,399	5,56
453,898	5,32
454,396	4,94
454,895	5,22
455,393	5,09
455,892	5,09
456,39	5,17
456,888	5,18
457,386	5,25
457,884	5,12
458,382	5
458,879	5,33
459,377	5,15
459,874	4,9
460,372	5,1
460,869	5,23
461,366	5,28
461,863	5,15
462,36	5,24
462,857	5,09
463,353	4,95
463,85	5,27
464,346	5,03
464,843	5,24
465,339	4,87
465,835	5,35
466,331	5,1
466,827	5,08
467,323	4,94
467,818	5,25
468,314	5,29
468,809	5,13
469,305	5,21
469,8	5,16
470,295	5,13
470,79	5,31
471,285	5,18
471,78	5,33
472,274	5,06
472,769	5,2
473,263	5,17
473,758	5,24
474,252	5,06
474,746	5,05
475,24	5
475,734	5,12
476,228	4,92
476,721	5,26
477,215	4,94
477,708	5,04
478,202	5,25
478,695	4,96
479,188	5,1
479,681	5,29
480,174	5,16
480,667	5,08
481,159	4,94
481,652	5,22
482,144	5,19
482,637	5,02
483,129	5,14
483,621	5,11
484,113	5,48
484,605	5,2
485,097	5,51
485,588	5,34
486,08	5,42
486,571	5,46
487,063	5,28
487,554	5,44
488,045	5,42
488,536	5,4
489,027	5,44
489,518	5,31
490,008	5,61
490,499	5,4
490,989	5,36
491,48	5,38
491,97	5,53
492,46	5,48
492,95	5,74
493,44	5,54
493,93	5,74
494,419	5,68
494,909	5,78
495,398	5,64
495,888	5,74
496,377	5,8
496,866	5,87
497,355	5,78
497,844	5,85
498,333	6,14
498,821	5,81
499,31	6,14
499,798	6,37
500,287	6,44
500,775	6,4
501,263	6,51
501,751	6,48
502,239	6,45
502,727	6,63
503,215	6,78
503,702	6,87
504,19	6,95
504,677	6,81
505,164	7,13
505,651	7,33
506,139	7,55
506,625	7,6
507,112	7,61
507,599	7,65
508,086	7,7
508,572	8,07
509,058	8,15
509,545	8,46
510,031	8,47
510,517	8,58
511,003	8,81
511,489	8,99
511,974	8,87
512,46	9,46
512,946	9,46
513,431	9,53
513,916	9,89
514,401	10,18
514,887	10,29
515,371	10,67
515,856	10,73
516,341	10,83
516,826	11,33
517,31	11,32
517,795	11,81
518,279	12,03
518,763	12,49
519,247	12,3
519,731	12,62
520,215	12,8
520,699	13,33
521,182	13,3
521,666	13,84
522,149	14,12
522,633	13,85
523,116	14,44
523,599	14,92
524,082	14,95
524,565	15,34
525,048	15,06
525,53	15,72
526,013	15,58
526,495	15,87
526,978	16,25
527,46	16,75
527,942	16,75
528,424	16,92
528,906	17,14
529,388	17,15
529,87	17,53
530,351	17,34
530,833	17,82
531,314	18,08
531,795	18,22
532,277	18,31
532,758	18,09
533,238	18,45
533,719	18,44
534,2	18,78
534,681	18,81
535,161	18,93
535,642	18,74
536,122	18,68
536,602	18,94
537,082	19,22
537,562	19,3
538,042	19,13
538,522	19,35
539,001	19,29
539,481	19,19
539,96	19,14
540,44	19,3
540,919	19,45
541,398	19,46
541,877	19,49
542,356	19,56
542,835	19,47
543,313	19,6
543,792	19,79
544,27	19,8
544,749	19,92
545,227	19,69
545,705	19,81
546,183	20,02
546,661	19,93
547,139	19,7
547,616	19,76
548,094	20,24
548,571	20,05
549,049	20,14
549,526	20,09
550,003	20,25
550,48	20,11
550,957	20,31
551,434	20,29
551,911	20,29
552,387	19,89
552,864	20,28
553,34	20,09
553,817	20,19
554,293	19,93
554,769	20,32
555,245	20,19
555,721	19,93
556,197	19,96
556,672	20,07
557,148	19,88
557,623	20,08
558,099	20,07
558,574	19,87
559,049	20,01
559,524	20,15
559,999	20,02
560,474	19,69
560,948	19,94
561,423	19,73
561,897	19,61
562,372	19,87
562,846	19,86
563,32	19,68
563,794	19,31
564,268	19,15
564,742	19,06
565,216	19,12
565,69	18,84
566,163	18,95
566,636	18,89
567,11	18,52
567,583	18,49
568,056	18,38
568,529	18,44
569,002	18,24
569,475	17,97
569,947	17,64
570,42	17,73
570,892	17,46
571,365	17,29
571,837	17,35
572,309	17,16
572,781	16,9
573,253	16,85
573,725	16,51
574,197	16,76
574,668	16,32
575,14	16,47
575,611	16,06
576,082	16,26
576,554	16,02
577,025	15,99
577,496	15,73
577,967	15,68
578,437	15,5
578,908	15,27
579,379	15,19
579,849	15,31
580,319	15,11
580,79	15
581,26	15,03
581,73	14,95
582,2	14,55
582,669	14,83
583,139	14,59
583,609	14,46
584,078	14,32
584,548	14,07
585,017	14,08
585,486	14,03
585,955	14,03
586,424	13,99
586,893	13,97
587,362	13,69
587,83	13,84
588,299	13,84
588,767	13,67
589,236	13,5
589,704	13,42
590,172	13,45
590,64	13,35
591,108	13,26
591,576	13,39
592,043	13,11
592,511	13,27
592,978	13,23
593,446	13,05
593,913	13,11
594,38	13,02
594,847	13,01
595,314	12,98
595,781	13,01
596,248	12,72
596,715	12,84
597,181	12,77
597,647	12,79
598,114	12,76
598,58	12,87
599,046	12,66
599,512	12,58
599,978	12,84
600,444	12,6
600,91	12,42
601,375	12,59
601,841	12,73
602,306	12,5
602,771	12,45
603,236	12,58
603,702	12,39
604,167	12,22
604,631	12,26
605,096	12,41
605,561	12,07
606,025	12,05
606,49	12,12
606,954	11,95
607,418	12,11
607,882	11,86
608,347	11,78
608,81	11,91
609,274	11,66
609,738	11,79
610,202	11,82
610,665	11,58
611,128	11,4
611,592	11,4
612,055	11,39
612,518	11,23
612,981	11,2
613,444	11
613,907	11,1
614,369	10,87
614,832	10,94
615,294	10,95
615,757	10,6
616,219	10,72
616,681	10,55
617,143	10,54
617,605	10,43
618,067	10,53
618,529	10,37
618,99	10,37
619,452	10,42
619,913	10,35
620,375	10,21
620,836	10,16
621,297	10,05
621,758	10,08
622,219	9,95
622,68	10,01
623,14	9,84
623,601	9,89
624,061	9,93
624,522	9,79
624,982	9,82
625,442	9,77
625,902	9,81
626,362	9,61
626,822	9,85
627,282	9,74
627,742	9,88
628,201	9,7
628,661	9,45
629,12	9,68
629,579	9,68
630,038	9,68
630,497	9,59
630,956	9,62
631,415	9,75
631,874	9,46
632,332	9,51
632,791	9,5
633,249	9,34
633,708	9,48
634,166	9,36
634,624	9,21
635,082	9,36
635,54	9,23
635,998	9,14
636,455	9,11
636,913	9,04
637,37	9,05
637,828	8,86
638,285	8,97
638,742	8,73
639,199	8,65
639,656	8,65
640,113	8,57
640,57	8,41
641,027	8,4
641,483	8,27
641,94	8,15
642,396	8,17
642,852	8,03
643,309	7,98
643,765	7,78
644,221	7,8
644,676	7,8
645,132	7,6
645,588	7,55
646,043	7,43
646,499	7,28
646,954	7,22
647,409	7,17
647,864	7,15
648,319	7,06
648,774	7,02
649,229	6,94
649,684	6,93
650,139	6,77
650,593	6,73
651,047	6,81
651,502	6,73
651,956	6,8
652,41	6,67
652,864	6,7
653,318	6,56
653,772	6,59
654,225	6,56
654,679	6,52
655,133	6,47
655,586	6,38
656,039	6,38
656,492	6,28
656,946	6,33
657,399	6,25
657,851	6,12
658,304	6,06
658,757	6,13
659,209	6,06
659,662	5,98
660,114	5,98
660,567	5,77
661,019	5,92
661,471	5,79
661,923	5,76
662,375	5,68
662,826	5,59
663,278	5,58
663,73	5,64
664,181	5,51
664,632	5,65
665,084	5,5
665,535	5,53
665,986	5,55
666,437	5,54
666,888	5,46
667,338	5,58
667,789	5,44
668,24	5,47
668,69	5,63
669,14	5,56
669,591	5,56
670,041	5,52
670,491	5,56
670,941	5,62
671,391	5,69
671,84	5,5
672,29	5,8
672,74	5,72
673,189	5,66
673,638	5,81
674,088	5,89
674,537	5,99
674,986	5,98
675,435	6,09
675,883	6,1
676,332	6,08
676,781	6,18
677,229	6,41
677,678	6,36
678,126	6,43
678,574	6,63
679,022	6,62
679,47	6,75
679,918	6,8
680,366	6,92
680,814	7
681,261	7,02
681,709	7,13
682,156	7,28
682,604	7,36
683,051	7,4
683,498	7,54
683,945	7,61
684,392	7,65
684,839	7,77
685,286	7,87
685,732	8,05
686,179	8,06
686,625	8,15
687,071	8,22
687,518	8,43
687,964	8,61
688,41	8,74
688,856	8,87
689,301	9,04
689,747	9,32
690,193	9,37
690,638	9,75
691,084	9,85
691,529	10,39
691,974	10,54
692,419	10,7
692,864	11,26
693,309	11,67
693,754	11,97
694,199	12,24
694,643	12,62
695,088	13,16
695,532	13,5
695,977	13,91
696,421	14,42
696,865	14,87
697,309	15,31
697,753	15,73
698,197	16,16
698,64	16,59
699,084	16,92
699,527	17,43
699,971	17,92
700,414	18,24
700,857	18,7
701,3	19,15
701,743	19,47
702,186	19,96
702,629	20,42
703,072	20,75
703,515	21,16
703,957	21,66
704,399	21,85
704,842	22,33
705,284	22,85
705,726	23,07
706,168	23,54
706,61	23,82
707,052	24,23
707,494	24,46
707,935	24,89
708,377	25,21
708,818	25,59
709,26	25,96
709,701	26,3
710,142	26,56
710,583	26,65
711,024	26,98
711,465	27,35
711,905	27,8
712,346	28,01
712,787	28,41
713,227	28,57
713,667	28,85
714,108	29,12
714,548	29,53
714,988	29,85
715,428	30,1
715,868	30,46
716,307	30,93
716,747	31
717,186	31,15
717,626	31,46
718,065	31,61
718,504	31,78
718,944	32,01
719,383	32,49
719,822	32,52
720,261	32,95
720,699	33,09
721,138	33,2
721,576	33,47
722,015	33,67
722,453	33,93
722,892	34,38
723,33	34,15
723,768	34,43
724,206	34,57
724,644	34,76
725,081	35,06
725,519	35,07
725,957	35,11
726,394	35,46
726,832	35,75
727,269	35,67
727,706	35,86
728,143	36,25
728,58	36,03
729,017	35,88
729,454	36,45
729,89	36,28
730,327	36,5
730,764	36,6
731,2	36,95
731,636	36,79
732,072	36,72
732,509	36,95
732,945	37,32
733,38	37,01
733,816	37,08
734,252	37,22
734,688	37,55
735,123	37,44
735,559	37,54
735,994	37,83
736,429	37,62
736,864	37,86
737,299	37,69
737,734	37,79
738,169	37,69
738,604	37,96
739,038	37,92
739,473	38,13
739,907	37,93
740,342	37,83
740,776	38
741,21	37,82
741,644	38,25
742,078	38,11
742,512	38,25
742,946	37,87
743,379	38,24
743,813	38,06
744,246	38,08
744,68	38,08
745,113	38,15
745,546	38,29
745,979	38,18
746,412	38,01
746,845	38,09
747,278	37,93
747,711	37,96
748,143	37,97
748,576	38,15
749,008	38,01
749,441	37,94
749,873	37,93
750,305	37,94
750,737	37,54
751,169	37,59
751,601	37,83
752,032	37,92
752,464	37,82
752,896	37,73
753,327	37,86
753,758	37,7
754,19	37,56
754,621	37,53
755,052	37,88
755,483	37,52
755,914	37,75
756,344	37,52
756,775	37,5
757,206	37,64
757,636	37,58
758,066	37,67
758,497	37,52
758,927	37,54
759,357	37,59
759,787	37,48
760,217	37,34
760,647	37,5
761,076	37,14
761,506	37,31
761,935	37,44
762,365	37,12
762,794	37,16
763,223	37,28
763,653	37,39
764,082	37,3
764,51	36,98
764,939	36,81
765,368	36,9
765,797	36,94
766,225	36,86
766,654	36,89
767,082	37,29
767,51	36,99
767,938	36,89
768,367	36,69
768,795	36,8
769,222	36,98
769,65	36,71
770,078	36,76
770,505	36,89
770,933	36,74
771,36	36,58
771,788	36,65
772,215	36,86
772,642	36,75
773,069	36,69
773,496	36,44
773,923	36,62
774,349	36,98
774,776	36,31
775,203	36,59
775,629	36,46
776,055	36,53
776,482	36,6
776,908	36,42
777,334	36,68
777,76	36,4
778,186	36,37
778,611	36,42
779,037	36,62
779,463	36,23
779,888	36,55
780,314	36,37
780,739	36,43
781,164	36,43
781,589	36,5
782,014	36,45
782,439	36,37
782,864	36,29
783,289	36,46
783,713	36,03
784,138	36,14
784,562	36,44
784,987	36,15
785,411	35,94
785,835	36,37
786,259	36,31
786,683	36,02
787,107	36,31
787,531	36,03
787,954	36,12
788,378	36,11
788,802	36,14
789,225	36,13
789,648	36,12
790,071	36,35
790,495	36,33
790,918	36,05
791,34	36,08
791,763	36,15
792,186	36,2
792,609	36,17
793,031	35,99
793,454	35,95
793,876	36,07
794,298	36,18
794,721	35,82
795,143	36,34
795,565	35,95
795,986	36,17
796,408	36,11
796,83	36,19
797,252	36,02
797,673	36,08
798,094	35,92
798,516	35,94
798,937	35,84
799,358	35,88
799,779	35,99
800,2	35,97
800,621	35,9
801,042	36,08
801,462	35,91
801,883	35,92
802,303	35,89
802,724	35,96
803,144	36,06
803,564	35,8
803,984	35,69
804,404	35,51
804,824	35,91
805,244	35,89
805,664	35,95
806,084	35,68
806,503	35,99
806,923	35,87
807,342	35,97
807,761	35,72
808,18	35,95
808,599	35,65
809,018	35,96
809,437	35,67
809,856	35,67
810,275	35,84
810,693	36,09
811,112	35,9
811,53	35,87
811,949	35,8
812,367	35,65
812,785	35,71
813,203	35,49
813,621	35,77
814,039	35,84
814,457	35,92
814,874	35,69
815,292	35,91
815,709	35,86
816,127	35,52
816,544	35,78
816,961	35,78
817,378	35,9
817,795	35,73
818,212	35,73
818,629	35,93
819,046	35,97
819,462	35,82
819,879	35,76
820,295	35,74
820,712	35,9
821,128	35,86
821,544	35,6
821,96	35,77
822,376	35,8
822,792	35,65
823,208	35,77
823,624	35,53
824,039	35,4
824,455	35,96
824,87	35,82
825,286	35,82
825,701	35,6
826,116	35,72
826,531	35,58
826,946	35,47
827,361	35,94
827,776	35,81
828,19	35,58
828,605	35,58
829,02	35,74
829,434	35,49
829,848	35,47
830,263	35,6
830,677	35,45
831,091	35,78
831,505	35,72
831,919	35,45
832,332	35,48
832,746	35,6
833,16	35,59
833,573	35,21
833,987	35,55
834,4	35,38
834,813	35,49
835,226	35,85
835,639	35,44
836,052	35,58
836,465	35,54
836,878	35,65
837,29	35,49
837,703	35,46
838,116	35,55
838,528	35,69
838,94	35,43
839,352	35,56
839,765	35,57
840,177	35,46
840,589	35,45
841	35,58
841,412	35,4
841,824	35,49
842,235	35,76
842,647	35,35
843,058	35,52
843,47	35,51
843,881	35,14
