Data from E_6__Relative__9__00120.txt Node

Date: Mon Jan 29 18:21:15 CET 2024
User: diatiterra
Spectrometer: HDX00911
Trigger mode: 0
Integration Time (sec): 6,000000E-3
Scans to average: 2
Nonlinearity correction enabled: false
Boxcar width: 0
Storing dark spectrum: false
XAxis mode: Wavelengths
Number of Pixels in Spectrum: 2068
>>>>>Begin Spectral Data<<<<<
194,468	56,86
195,025	38,94
195,581	51,06
196,138	43,08
196,694	35,06
197,251	39,56
197,807	36
198,363	30,55
198,919	34,88
199,474	28,21
200,03	29,41
200,586	35,03
201,141	36,7
201,696	34,6
202,251	34,32
202,806	34,96
203,361	35,44
203,916	38,01
204,471	29,93
205,025	33,93
205,58	31,54
206,134	32,22
206,688	32,61
207,242	32,99
207,796	32,88
208,35	34,3
208,904	30,17
209,457	37,18
210,011	35,66
210,564	34,03
211,117	36,62
211,67	39,08
212,223	34,25
212,776	35,58
213,329	28,18
213,881	30,71
214,434	39,31
214,986	34,01
215,538	33,33
216,09	32,13
216,642	37,04
217,194	37,42
217,746	35,69
218,297	31,21
218,849	27,41
219,4	37,41
219,951	44,36
220,502	35,19
221,053	35,11
221,604	40,6
222,155	37,04
222,705	30,77
223,256	35,61
223,806	32,65
224,356	42,39
224,906	33,33
225,456	36,21
226,006	28,86
226,556	39,05
227,106	35,31
227,655	36,59
228,204	31,91
228,754	35,17
229,303	34,24
229,852	36,27
230,401	32,97
230,949	41,63
231,498	39,55
232,047	36,03
232,595	44,33
233,143	38,26
233,691	32,8
234,239	31,34
234,787	34,62
235,335	36,05
235,883	30,47
236,43	40,74
236,978	39,27
237,525	32,84
238,072	36,16
238,619	29,45
239,166	35,35
239,713	31,6
240,26	46,07
240,806	34,75
241,353	38,87
241,899	33,33
242,445	37,41
242,991	34,49
243,537	38,28
244,083	30,91
244,629	34,8
245,174	43,28
245,72	35,12
246,265	36,75
246,81	39,78
247,355	32,72
247,9	37,72
248,445	38,97
248,99	26,64
249,534	34,18
250,079	40,67
250,623	35,93
251,168	39,6
251,712	37,94
252,256	34,88
252,8	39,58
253,343	38,85
253,887	30,61
254,43	36,43
254,974	40,21
255,517	41,28
256,06	26,37
256,603	33,96
257,146	39,39
257,689	38,29
258,232	31,03
258,774	43,91
259,317	30,77
259,859	39,11
260,401	40,15
260,943	41,79
261,485	46,81
262,027	34,14
262,569	42,48
263,11	40,43
263,652	35,29
264,193	40
264,734	36,9
265,275	36,55
265,816	40,65
266,357	42,81
266,898	30,72
267,438	39,61
267,979	38,91
268,519	46,93
269,059	39,01
269,6	44,56
270,14	33,33
270,68	39,08
271,219	38,25
271,759	39,55
272,298	33,82
272,838	37,21
273,377	41,48
273,916	34,3
274,455	43,3
274,994	35,25
275,533	40,27
276,072	43,98
276,61	37,88
277,149	29,71
277,687	38,43
278,225	35,27
278,763	42,39
279,301	42,64
279,839	39,49
280,377	40,15
280,914	36,63
281,452	46,75
281,989	38,91
282,526	42,65
283,064	40,97
283,601	39,77
284,137	42,7
284,674	42,26
285,211	35,61
285,747	38,98
286,284	34,74
286,82	42,91
287,356	38,49
287,892	41,4
288,428	33,56
288,964	40,79
289,5	43,2
290,035	39,21
290,571	39,55
291,106	33,09
291,641	38,7
292,176	40,6
292,711	46,55
293,246	37,91
293,781	41,26
294,315	34,56
294,85	36,86
295,384	40,74
295,918	37,63
296,453	40,64
296,987	40,34
297,52	44,52
298,054	42,28
298,588	44,88
299,121	40,29
299,655	36,14
300,188	34,22
300,721	46,55
301,254	37,37
301,787	32,11
302,32	40,53
302,853	38,33
303,385	45,42
303,918	33,68
304,45	37,07
304,982	35,46
305,514	40,96
306,046	38,25
306,578	44,29
307,11	40,89
307,641	36,73
308,173	39,03
308,704	38,7
309,236	43,82
309,767	33,33
310,298	33,1
310,829	40,3
311,359	37,01
311,89	38,79
312,421	38,41
312,951	36,73
313,481	42,97
314,012	35,9
314,542	44,18
315,072	44,36
315,601	37,72
316,131	32,12
316,661	40,83
317,19	30,6
317,72	34,8
318,249	37,16
318,778	41,44
319,307	37,16
319,836	40,27
320,365	35,83
320,893	37,23
321,422	39,55
321,95	33,7
322,479	44,98
323,007	37,32
323,535	40,38
324,063	39,93
324,591	32,67
325,118	38,81
325,646	43,08
326,173	45
326,701	34,18
327,228	40,26
327,755	36,2
328,282	39,62
328,809	41,85
329,336	43,6
329,862	37,69
330,389	39,93
330,915	36,52
331,441	32,88
331,968	34,71
332,494	34,78
333,02	39,05
333,545	32,85
334,071	33
334,597	33,11
335,122	32,11
335,648	42,49
336,173	37,29
336,698	36,3
337,223	39,59
337,748	25,61
338,272	31,68
338,797	31,39
339,322	31,89
339,846	30,08
340,37	36,26
340,894	38,7
341,419	36,58
341,942	35,91
342,466	35,84
342,99	35,08
343,514	28,57
344,037	27,54
344,56	31,97
345,084	28,71
345,607	32,22
346,13	37,23
346,653	33,96
347,175	33,55
347,698	29,76
348,221	25
348,743	28,57
349,265	33,93
349,787	29,71
350,309	30,58
350,831	29,55
351,353	30,42
351,875	26,4
352,397	28,93
352,918	27,12
353,439	37,13
353,961	24,23
354,482	35,67
355,003	27,35
355,524	29,34
356,044	31,13
356,565	31,17
357,086	32,32
357,606	25,06
358,126	25,06
358,646	25,62
359,167	30,71
359,687	27,59
360,206	28,19
360,726	24,69
361,246	28,67
361,765	25,66
362,285	24,88
362,804	28
363,323	26,83
363,842	29,52
364,361	25,54
364,88	27,85
365,398	25,83
365,917	28,34
366,435	26,39
366,954	30,26
367,472	25,8
367,99	26,9
368,508	25,2
369,026	25,39
369,544	23,82
370,061	25,13
370,579	28,52
371,096	27,37
371,613	24,22
372,131	25,18
372,648	25,09
373,165	26,52
373,681	25,04
374,198	24,26
374,715	24,31
375,231	20,83
375,747	26,78
376,264	22,68
376,78	25,2
377,296	21,52
377,812	23
378,327	24,59
378,843	23,93
379,359	22,03
379,874	25,41
380,389	25,58
380,905	22,94
381,42	22,58
381,935	22
382,449	24,14
382,964	23,14
383,479	24,27
383,993	21,39
384,508	23,77
385,022	24,5
385,536	20,13
386,05	21,74
386,564	20,36
387,078	18,12
387,592	21,25
388,105	18,98
388,619	18,98
389,132	20,44
389,645	22,07
390,158	17,41
390,671	19,4
391,184	19,1
391,697	17,59
392,21	19,08
392,722	18,99
393,235	18,74
393,747	18,39
394,259	19
394,771	16,75
395,283	18,31
395,795	16,38
396,307	16,03
396,818	17,7
397,33	14,58
397,841	15,78
398,353	15,2
398,864	15,47
399,375	14,98
399,886	13,29
400,397	13,74
400,907	15,2
401,418	11,98
401,928	13,51
402,439	13,6
402,949	13,81
403,459	13,05
403,969	13,65
404,479	11,43
404,989	11,75
405,498	12,4
406,008	9,52
406,517	11,16
407,027	11,38
407,536	10,94
408,045	9,1
408,554	9,39
409,063	8,62
409,572	8,2
410,08	9,35
410,589	8,05
411,097	8,28
411,606	7,99
412,114	8,09
412,622	7,51
413,13	7,27
413,638	7,09
414,145	6,97
414,653	6,38
415,16	6,76
415,668	5,74
416,175	6,1
416,682	6,33
417,189	5,76
417,696	5,36
418,203	5,92
418,71	5,42
419,216	4,83
419,723	5,58
420,229	5,94
420,735	4,68
421,242	5,71
421,748	5,34
422,254	4,94
422,759	5,21
423,265	4,82
423,771	5,07
424,276	5,37
424,781	4,71
425,287	5
425,792	4,97
426,297	4,98
426,802	4,69
427,306	4,24
427,811	4,21
428,316	4,97
428,82	4,66
429,324	4,64
429,829	5,11
430,333	4,34
430,837	4,74
431,34	4,43
431,844	4,29
432,348	4,21
432,851	4,14
433,355	4,31
433,858	4,04
434,361	4,19
434,864	4,31
435,367	3,78
435,87	4,3
436,373	4,63
436,876	4,18
437,378	4,04
437,88	4,43
438,383	4,07
438,885	4,44
439,387	4,24
439,889	4,05
440,391	4,15
440,892	3,96
441,394	4,01
441,896	4,01
442,397	3,7
442,898	3,91
443,399	4,45
443,9	4,34
444,401	4,43
444,902	4,26
445,403	4,26
445,903	4,29
446,404	4,61
446,904	4,31
447,405	4,08
447,905	4,45
448,405	4,56
448,905	4,41
449,404	4,46
449,904	4,62
450,404	4,62
450,903	4,6
451,403	4,89
451,902	4,7
452,401	4,63
452,9	4,78
453,399	4,83
453,898	4,78
454,396	4,9
454,895	4,89
455,393	4,64
455,892	4,95
456,39	4,9
456,888	4,81
457,386	5,01
457,884	5,14
458,382	5,26
458,879	4,93
459,377	5,05
459,874	4,9
460,372	4,83
460,869	5,15
461,366	4,92
461,863	5,3
462,36	5,23
462,857	4,89
463,353	5,06
463,85	5,19
464,346	5,12
464,843	5,03
465,339	5,11
465,835	5,08
466,331	5,17
466,827	4,88
467,323	5,01
467,818	4,71
468,314	5,12
468,809	5,06
469,305	4,89
469,8	4,98
470,295	4,81
470,79	5,04
471,285	4,93
471,78	4,87
472,274	4,83
472,769	4,91
473,263	5,01
473,758	5,35
474,252	4,95
474,746	5,13
475,24	4,87
475,734	4,92
476,228	5,03
476,721	4,96
477,215	4,9
477,708	5,23
478,202	5,22
478,695	5,21
479,188	5,08
479,681	5,18
480,174	5,29
480,667	5,25
481,159	5
481,652	5,26
482,144	4,8
482,637	5,1
483,129	5,48
483,621	5,26
484,113	5,42
484,605	5,29
485,097	5,16
485,588	5,35
486,08	5,45
486,571	5,41
487,063	5,61
487,554	5,4
488,045	5,32
488,536	5,32
489,027	5,59
489,518	5,62
490,008	5,74
490,499	5,61
490,989	5,63
491,48	5,79
491,97	5,83
492,46	5,89
492,95	5,96
493,44	6,03
493,93	5,74
494,419	6,35
494,909	6,32
495,398	6,18
495,888	6,35
496,377	6,48
496,866	6,5
497,355	6,68
497,844	6,77
498,333	6,74
498,821	6,79
499,31	6,89
499,798	7,29
500,287	7,18
500,775	7,45
501,263	7,55
501,751	7,58
502,239	7,88
502,727	7,68
503,215	7,83
503,702	8,06
504,19	8,61
504,677	8,47
505,164	8,65
505,651	8,72
506,139	9,22
506,625	9,14
507,112	9,64
507,599	9,76
508,086	9,77
508,572	9,99
509,058	10,06
509,545	10,14
510,031	10,46
510,517	10,72
511,003	11,05
511,489	11,13
511,974	11,42
512,46	11,67
512,946	11,69
513,431	11,82
513,916	12,58
514,401	12,68
514,887	12,86
515,371	13,1
515,856	13,32
516,341	13,72
516,826	14,13
517,31	14,52
517,795	14,59
518,279	14,85
518,763	15,31
519,247	15
519,731	15,65
520,215	15,92
520,699	16,45
521,182	16,41
521,666	16,68
522,149	16,83
522,633	17,05
523,116	17,86
523,599	17,99
524,082	18,17
524,565	18,1
525,048	18,35
525,53	18,65
526,013	19,1
526,495	19,11
526,978	19,35
527,46	19,78
527,942	19,95
528,424	19,97
528,906	20,22
529,388	20,33
529,87	20,53
530,351	20,65
530,833	20,72
531,314	21,2
531,795	21,25
532,277	21,23
532,758	21,29
533,238	21,55
533,719	21,71
534,2	22,21
534,681	21,53
535,161	21,95
535,642	21,98
536,122	21,86
536,602	22,27
537,082	22,38
537,562	22,25
538,042	22,45
538,522	22,42
539,001	22,34
539,481	22,12
539,96	22,18
540,44	22,67
540,919	22,64
541,398	22,5
541,877	22,68
542,356	22,26
542,835	22,68
543,313	22,88
543,792	22,6
544,27	22,96
544,749	22,85
545,227	22,93
545,705	23
546,183	23,08
546,661	23,01
547,139	22,71
547,616	23,17
548,094	23,22
548,571	23,17
549,049	23,18
549,526	23,09
550,003	23,2
550,48	23,39
550,957	23,1
551,434	23,28
551,911	23,39
552,387	23,11
552,864	23,11
553,34	23,2
553,817	23,49
554,293	23,29
554,769	23,28
555,245	23,41
555,721	23,21
556,197	23,56
556,672	23,39
557,148	23,08
557,623	23,43
558,099	23,25
558,574	23,17
559,049	23,52
559,524	23,06
559,999	22,98
560,474	22,82
560,948	23,28
561,423	22,91
561,897	22,94
562,372	22,84
562,846	22,69
563,32	22,48
563,794	22,6
564,268	22,08
564,742	22,19
565,216	22,44
565,69	21,9
566,163	22,23
566,636	22,23
567,11	22,04
567,583	21,54
568,056	21,63
568,529	21,62
569,002	21,34
569,475	21,33
569,947	21,05
570,42	20,77
570,892	20,95
571,365	20,62
571,837	20,59
572,309	20,82
572,781	20,28
573,253	20,04
573,725	20,06
574,197	20,02
574,668	19,66
575,14	19,9
575,611	19,44
576,082	19,31
576,554	19,45
577,025	19,32
577,496	18,9
577,967	18,86
578,437	18,81
578,908	18,65
579,379	18,5
579,849	18,56
580,319	18,28
580,79	18,15
581,26	18,33
581,73	18,05
582,2	17,95
582,669	17,85
583,139	17,74
583,609	17,5
584,078	17,57
584,548	17,25
585,017	17,54
585,486	17,34
585,955	17,18
586,424	17,22
586,893	17,17
587,362	17,1
587,83	17,09
588,299	17,03
588,767	16,84
589,236	16,67
589,704	16,52
590,172	16,59
590,64	16,39
591,108	16,45
591,576	16,65
592,043	16,2
592,511	16,25
592,978	16,32
593,446	16,1
593,913	15,91
594,38	16,11
594,847	16,16
595,314	16,03
595,781	15,91
596,248	16,04
596,715	15,92
597,181	15,96
597,647	15,84
598,114	15,75
598,58	15,81
599,046	15,66
599,512	15,76
599,978	15,7
600,444	15,91
600,91	15,72
601,375	15,65
601,841	15,64
602,306	15,73
602,771	15,55
603,236	15,58
603,702	15,58
604,167	15,42
604,631	15,35
605,096	15,27
605,561	15,35
606,025	15,23
606,49	14,97
606,954	15,02
607,418	15,19
607,882	14,83
608,347	14,95
608,81	14,56
609,274	14,67
609,738	14,67
610,202	14,7
610,665	14,57
611,128	14,39
611,592	14,24
612,055	14,2
612,518	14,25
612,981	13,84
613,444	13,87
613,907	13,56
614,369	13,66
614,832	13,62
615,294	13,59
615,757	13,41
616,219	13,59
616,681	13,42
617,143	13,23
617,605	13,05
618,067	13,25
618,529	13,01
618,99	12,98
619,452	12,93
619,913	13
620,375	12,72
620,836	12,66
621,297	12,82
621,758	12,52
622,219	12,5
622,68	12,62
623,14	12,48
623,601	12,57
624,061	12,5
624,522	12,44
624,982	12,63
625,442	12,35
625,902	12,33
626,362	12,3
626,822	12,28
627,282	12,24
627,742	12,28
628,201	12,18
628,661	12,11
629,12	12,11
629,579	12,18
630,038	12,17
630,497	12,25
630,956	12,06
631,415	12,15
631,874	12,03
632,332	11,9
632,791	12,09
633,249	11,89
633,708	11,81
634,166	11,88
634,624	11,81
635,082	11,86
635,54	11,71
635,998	11,71
636,455	11,56
636,913	11,39
637,37	11,34
637,828	11,34
638,285	11,05
638,742	11,11
639,199	10,97
639,656	10,95
640,113	10,8
640,57	10,51
641,027	10,54
641,483	10,5
641,94	10,33
642,396	10,33
642,852	10,2
643,309	9,98
643,765	9,87
644,221	9,81
644,676	9,6
645,132	9,5
645,588	9,42
646,043	9,42
646,499	9,09
646,954	9,06
647,409	8,91
647,864	8,89
648,319	8,67
648,774	8,52
649,229	8,64
649,684	8,6
650,139	8,38
650,593	8,33
651,047	8,33
651,502	8,27
651,956	8,1
652,41	8,09
652,864	8,14
653,318	8,21
653,772	8,08
654,225	7,95
654,679	7,86
655,133	7,81
655,586	7,8
656,039	7,64
656,492	7,63
656,946	7,46
657,399	7,49
657,851	7,46
658,304	7,32
658,757	7,12
659,209	7,06
659,662	7,13
660,114	6,96
660,567	6,74
661,019	6,71
661,471	6,66
661,923	6,48
662,375	6,47
662,826	6,31
663,278	6,23
663,73	6,22
664,181	6,04
664,632	6,02
665,084	5,96
665,535	5,85
665,986	5,8
666,437	5,77
666,888	5,65
667,338	5,62
667,789	5,49
668,24	5,53
668,69	5,55
669,14	5,43
669,591	5,38
670,041	5,41
670,491	5,42
670,941	5,47
671,391	5,46
671,84	5,43
672,29	5,45
672,74	5,43
673,189	5,46
673,638	5,51
674,088	5,52
674,537	5,47
674,986	5,68
675,435	5,66
675,883	5,66
676,332	5,7
676,781	5,73
677,229	5,86
677,678	5,94
678,126	6,05
678,574	6,06
679,022	6,24
679,47	6,31
679,918	6,29
680,366	6,39
680,814	6,52
681,261	6,6
681,709	6,75
682,156	6,78
682,604	7,03
683,051	7,11
683,498	7,25
683,945	7,27
684,392	7,44
684,839	7,68
685,286	7,88
685,732	8,02
686,179	8,26
686,625	8,54
687,071	8,63
687,518	8,87
687,964	9,01
688,41	9,4
688,856	9,77
689,301	9,99
689,747	10,41
690,193	10,66
690,638	11,01
691,084	11,33
691,529	11,94
691,974	12,39
692,419	12,55
692,864	12,97
693,309	13,61
693,754	13,85
694,199	14,45
694,643	14,94
695,088	15,29
695,532	15,83
695,977	16,33
696,421	16,79
696,865	17,23
697,309	17,95
697,753	18,31
698,197	18,75
698,64	19,18
699,084	19,71
699,527	19,87
699,971	20,55
700,414	21,13
700,857	21,42
701,3	21,76
701,743	22,08
702,186	22,37
702,629	23
703,072	23,36
703,515	23,65
703,957	24,02
704,399	24,19
704,842	24,62
705,284	24,88
705,726	25,3
706,168	25,63
706,61	25,95
707,052	26,3
707,494	26,51
707,935	26,95
708,377	27,37
708,818	27,42
709,26	27,6
709,701	27,79
710,142	28,22
710,583	28,45
711,024	28,74
711,465	28,89
711,905	29,44
712,346	29,2
712,787	29,75
713,227	30,09
713,667	30,31
714,108	30,45
714,548	30,6
714,988	30,85
715,428	30,9
715,868	31,08
716,307	31,29
716,747	31,6
717,186	31,87
717,626	32,06
718,065	31,99
718,504	32,28
718,944	32,48
719,383	32,6
719,822	33,02
720,261	32,99
720,699	33,44
721,138	33,26
721,576	33,48
722,015	33,68
722,453	33,65
722,892	33,86
723,33	34
723,768	34,19
724,206	34,39
724,644	34,31
725,081	34,72
725,519	34,68
725,957	34,73
726,394	34,75
726,832	35,23
727,269	34,92
727,706	35,03
728,143	35,21
728,58	35,2
729,017	35,04
729,454	35,37
729,89	35,54
730,327	35,53
730,764	35,4
731,2	35,41
731,636	35,48
732,072	35,61
732,509	35,9
732,945	36,02
733,38	35,99
733,816	35,87
734,252	35,96
734,688	36,01
735,123	35,9
735,559	36,23
735,994	36,38
736,429	36,07
736,864	36,13
737,299	36,01
737,734	36,37
738,169	36,42
738,604	36,27
739,038	36,1
739,473	36,42
739,907	36,33
740,342	36,33
740,776	36,24
741,21	36,13
741,644	36,47
742,078	36,29
742,512	36,62
742,946	36,26
743,379	36,29
743,813	36,14
744,246	36,45
744,68	36,31
745,113	36,21
745,546	36,32
745,979	36,31
746,412	36,27
746,845	36,3
747,278	36,12
747,711	36,4
748,143	36,06
748,576	36,35
749,008	36,04
749,441	36,26
749,873	36,01
750,305	36,16
750,737	35,98
751,169	36,21
751,601	36,09
752,032	36,08
752,464	36,2
752,896	35,97
753,327	36,05
753,758	36,04
754,19	35,82
754,621	35,93
755,052	35,83
755,483	35,87
755,914	35,96
756,344	35,77
756,775	35,59
757,206	35,82
757,636	35,69
758,066	35,92
758,497	35,77
758,927	35,74
759,357	36,03
759,787	35,88
760,217	35,63
760,647	35,67
761,076	35,67
761,506	35,69
761,935	35,74
762,365	35,5
762,794	35,55
763,223	35,43
763,653	35,51
764,082	35,4
764,51	35,47
764,939	35,38
765,368	35,35
765,797	35,33
766,225	35,38
766,654	35,07
767,082	35,56
767,51	35,19
767,938	35,4
768,367	35,1
768,795	35,17
769,222	35,42
769,65	35,05
770,078	35,24
770,505	35,3
770,933	35,21
771,36	34,92
771,788	35,2
772,215	35,11
772,642	35,22
773,069	35,14
773,496	35,2
773,923	35,2
774,349	35,4
774,776	34,88
775,203	34,67
775,629	35,22
776,055	35
776,482	34,98
776,908	34,93
777,334	34,94
777,76	34,97
778,186	34,91
778,611	35
779,037	34,87
779,463	34,98
779,888	35,02
780,314	35,06
780,739	34,71
781,164	34,71
781,589	34,91
782,014	34,88
782,439	34,97
782,864	34,89
783,289	34,66
783,713	34,68
784,138	34,72
784,562	34,84
784,987	34,7
785,411	34,7
785,835	34,79
786,259	34,53
786,683	34,87
787,107	34,88
787,531	34,73
787,954	34,86
788,378	34,8
788,802	34,68
789,225	34,57
789,648	34,57
790,071	34,81
790,495	34,79
790,918	34,48
791,34	34,81
791,763	34,86
792,186	34,6
792,609	34,52
793,031	34,64
793,454	34,61
793,876	34,65
794,298	34,76
794,721	34,79
795,143	34,58
795,565	34,35
795,986	34,52
796,408	34,39
796,83	34,63
797,252	34,58
797,673	34,62
798,094	34,73
798,516	34,56
798,937	34,78
799,358	34,59
799,779	34,67
800,2	34,39
800,621	34,52
801,042	34,64
801,462	34,64
801,883	34,49
802,303	34,5
802,724	34,39
803,144	34,7
803,564	34,67
803,984	34,48
804,404	34,38
804,824	34,39
805,244	34,32
805,664	34,74
806,084	34,65
806,503	34,33
806,923	34,64
807,342	34,64
807,761	34,44
808,18	34,39
808,599	34,37
809,018	34,55
809,437	34,57
809,856	34,4
810,275	34,58
810,693	34,57
811,112	34,42
811,53	34,49
811,949	34,32
812,367	34,41
812,785	34,49
813,203	34,18
813,621	34,52
814,039	34,44
814,457	34,35
814,874	34,34
815,292	34,6
815,709	34,36
816,127	34,12
816,544	34,37
816,961	34,37
817,378	34,38
817,795	34,31
818,212	34,38
818,629	34,18
819,046	34,54
819,462	34,43
819,879	34,3
820,295	34,24
820,712	34,24
821,128	34,33
821,544	34,43
821,96	34,4
822,376	34,24
822,792	34,49
823,208	34,47
823,624	34,34
824,039	34,3
824,455	34,25
824,87	34,36
825,286	34,43
825,701	34,28
826,116	34,55
826,531	34,44
826,946	34,25
827,361	34,52
827,776	34,5
828,19	34,31
828,605	34,32
829,02	34,39
829,434	34,27
829,848	34,19
830,263	34,27
830,677	34,16
831,091	34,41
831,505	34,58
831,919	34,31
832,332	34,18
832,746	34,48
833,16	34,11
833,573	34,19
833,987	33,99
834,4	33,89
834,813	34,56
835,226	34,25
835,639	34,13
836,052	34,21
836,465	34,02
836,878	34,2
837,29	34,12
837,703	34,42
838,116	34,37
838,528	33,99
838,94	34,01
839,352	34,02
839,765	34,32
840,177	34,01
840,589	34,25
841	34,13
841,412	34,01
841,824	34,21
842,235	34,38
842,647	34
843,058	34,33
843,47	34,12
