Data from E_6__Relative__0__00111.txt Node

Date: Mon Jan 29 18:20:37 CET 2024
User: diatiterra
Spectrometer: HDX00911
Trigger mode: 0
Integration Time (sec): 6,000000E-3
Scans to average: 2
Nonlinearity correction enabled: false
Boxcar width: 0
Storing dark spectrum: false
XAxis mode: Wavelengths
Number of Pixels in Spectrum: 2068
>>>>>Begin Spectral Data<<<<<
194,468	62,75
195,025	37,17
195,581	72,34
196,138	49,23
196,694	45,4
197,251	34,22
197,807	45,2
198,363	43,64
198,919	40,57
199,474	30,71
200,03	27,94
200,586	35,71
201,141	35,58
201,696	39,1
202,251	29,89
202,806	33,46
203,361	31,93
203,916	42,12
204,471	35,92
205,025	33,21
205,58	31,54
206,134	39,26
206,688	28,99
207,242	36,05
207,796	33,9
208,35	35,38
208,904	26,78
209,457	34,3
210,011	39,16
210,564	34,72
211,117	32,39
211,67	36,62
212,223	31,85
212,776	32,21
213,329	24,05
213,881	23,93
214,434	28,28
214,986	33,33
215,538	30,04
216,09	31,8
216,642	36,67
217,194	31,46
217,746	30,64
218,297	26,85
218,849	30,53
219,4	35,31
219,951	37,45
220,502	30,31
221,053	31,97
221,604	32,21
222,155	29,22
222,705	33,11
223,256	39,21
223,806	32,65
224,356	38,41
224,906	29,63
225,456	27,24
226,006	26,85
226,556	33,94
227,106	32,87
227,655	26,48
228,204	28,29
228,754	29,31
229,303	29,83
229,852	36,27
230,401	30,11
230,949	38,91
231,498	33,21
232,047	23,91
232,595	32,62
233,143	34,09
233,691	40
234,239	30,22
234,787	33,22
235,335	28,23
235,883	28,67
236,43	28,89
236,978	35,64
237,525	39,55
238,072	28,78
238,619	29,45
239,166	33,33
239,713	33,09
240,26	42,32
240,806	31,21
241,353	39,58
241,899	34,95
242,445	40,91
242,991	42,16
243,537	30,69
244,083	35,27
244,629	30,07
245,174	39,93
245,72	37,12
246,265	32,51
246,81	35,04
247,355	32,72
247,9	26,99
248,445	36,21
248,99	32,18
249,534	34,49
250,079	35,45
250,623	32,54
251,168	37,92
251,712	39,01
252,256	31,23
252,8	37,15
253,343	38,22
253,887	31,29
254,43	36,8
254,974	33,22
255,517	40,6
256,06	34,93
256,603	36,6
257,146	30,3
257,689	36,39
258,232	30,65
258,774	30,26
259,317	36,63
259,859	29,15
260,401	34,47
260,943	29,48
261,485	36,52
262,027	35,52
262,569	31,95
263,11	35,02
263,652	33,82
264,193	36,07
264,734	38,1
265,275	36,95
265,816	37,41
266,357	31,65
266,898	34,13
267,438	30,59
267,979	38,91
268,519	29,96
269,059	38,65
269,6	38,25
270,14	33,66
270,68	33,72
271,219	36,14
271,759	26,12
272,298	32
272,838	30,62
273,377	30,74
273,916	29,24
274,455	36,78
274,994	28,06
275,533	34,81
276,072	32,33
276,61	39,93
277,149	24,64
277,687	38,08
278,225	37,33
278,763	32,25
279,301	38,11
279,839	33,7
280,377	28,1
280,914	24,54
281,452	38,21
281,989	35,15
282,526	39,43
283,064	30,21
283,601	36,36
284,137	34,67
284,674	36,98
285,211	26,98
285,747	37,29
286,284	28,77
286,82	35,82
287,356	35,05
287,892	30,53
288,428	28,14
288,964	32,49
289,5	39,8
290,035	33,45
290,571	27,61
291,106	32,36
291,641	31,03
292,176	34,21
292,711	32,76
293,246	36,1
293,781	36,06
294,315	30,51
294,85	33,21
295,384	41,11
295,918	31,01
296,453	34,98
296,987	35,86
297,52	32,88
298,054	30,51
298,588	28,35
299,121	31,14
299,655	33,68
300,188	36,12
300,721	36,55
301,254	29,89
301,787	23,98
302,32	35,23
302,853	31,36
303,385	35,9
303,918	26,67
304,45	34,75
304,982	37,45
305,514	33,21
306,046	30,88
306,578	39,64
307,11	37,92
307,641	32,36
308,173	29,37
308,704	32,18
309,236	34,46
309,767	30,42
310,298	26,13
310,829	36,88
311,359	34,52
311,89	30,96
312,421	37,68
312,951	33,82
313,481	32,93
314,012	37,36
314,542	34,59
315,072	36,73
315,601	33,45
316,131	35,4
316,661	43,75
317,19	28,11
317,72	37,73
318,249	34,12
318,778	35,74
319,307	36,15
319,836	41,61
320,365	38,44
320,893	39,36
321,422	29,1
321,95	35,93
322,479	39,1
323,007	34,06
323,535	40,38
324,063	43,66
324,591	29
325,118	34,97
325,646	34,62
326,173	40,36
326,701	38,91
327,228	31,63
327,755	35,84
328,282	36,98
328,809	34,81
329,336	34,26
329,862	32,69
330,389	28,33
330,915	28,72
331,441	31,86
331,968	32,99
332,494	26,09
333,02	29,2
333,545	26,71
334,071	32,67
334,597	34,46
335,122	31,1
335,648	36,63
336,173	27,72
336,698	26,71
337,223	24,57
337,748	30,18
338,272	26,07
338,797	33,66
339,322	21,59
339,846	25,39
340,37	27,11
340,894	31,85
341,419	26,85
341,942	30,87
342,466	29,01
342,99	26,15
343,514	23,05
344,037	25,57
344,56	24,76
345,084	24,61
345,607	28,27
346,13	25,85
346,653	23,9
347,175	30
347,698	22,92
348,221	27,33
348,743	30,03
349,265	21,13
349,787	23,71
350,309	20,66
350,831	24,78
351,353	27,51
351,875	25,84
352,397	23,42
352,918	20,9
353,439	26,56
353,961	20,56
354,482	23,88
355,003	26,27
355,524	28,06
356,044	20,84
356,565	24,44
357,086	20,1
357,606	24,82
358,126	21,41
358,646	25,87
359,167	23,59
359,687	23,35
360,206	21,45
360,726	20,29
361,246	23,86
361,765	16,67
362,285	23,22
362,804	22
363,323	21,56
363,842	20,71
364,361	22,73
364,88	22,78
365,398	19,65
365,917	21,97
366,435	23,18
366,954	20,44
367,472	23,67
367,99	18,89
368,508	25,39
369,026	20,54
369,544	21,64
370,061	19,86
370,579	17,45
371,096	19,16
371,613	20,18
372,131	23,42
372,648	21,66
373,165	24,09
373,681	19,96
374,198	17,87
374,715	19,62
375,231	20,99
375,747	21,16
376,264	17,57
376,78	21,85
377,296	16,46
377,812	18,55
378,327	14,52
378,843	20,68
379,359	17,68
379,874	17,35
380,389	18,71
380,905	19,36
381,42	17,62
381,935	16,67
382,449	18,17
382,964	17,3
383,479	17,37
383,993	16,11
384,508	18,97
385,022	18,09
385,536	14,99
386,05	16,56
386,564	18,15
387,078	15,6
387,592	17,71
388,105	15,04
388,619	14,85
389,132	16,44
389,645	17,04
390,158	15,22
390,671	15,05
391,184	16,58
391,697	15,05
392,21	16,43
392,722	13,88
393,235	14,48
393,747	14,63
394,259	15,7
394,771	12,13
395,283	12,18
395,795	13,28
396,307	14,18
396,818	14,45
397,33	13,32
397,841	14,11
398,353	12,34
398,864	11,53
399,375	12,18
399,886	11,44
400,397	11,15
400,907	11,4
401,418	10,48
401,928	10,17
402,439	11,74
402,949	10,52
403,459	11,56
403,969	10,26
404,479	10,56
404,989	9,29
405,498	10,4
406,008	8,82
406,517	8,97
407,027	7,83
407,536	8,52
408,045	7,73
408,554	7,47
409,063	6,4
409,572	7,65
410,08	7,19
410,589	7,07
411,097	6,4
411,606	5,72
412,114	5,95
412,622	5,98
413,13	5,7
413,638	5,28
414,145	5,54
414,653	6,15
415,16	5,48
415,668	4,93
416,175	4,89
416,682	4,65
417,189	4,7
417,696	4,19
418,203	4,59
418,71	4,77
419,216	3,78
419,723	4,18
420,229	4,12
420,735	4,45
421,242	4,29
421,748	3,94
422,254	4,72
422,759	3,71
423,265	3,9
423,771	3,55
424,276	3,93
424,781	3,91
425,287	3,56
425,792	3,91
426,297	4,17
426,802	3,7
427,306	3,89
427,811	3,93
428,316	3,81
428,82	3,73
429,324	3,45
429,829	3,87
430,333	3,35
430,837	3,56
431,34	3,3
431,844	3,28
432,348	3,24
432,851	3,2
433,355	3,37
433,858	2,92
434,361	3,47
434,864	3,11
435,367	2,99
435,87	3,12
436,373	3,18
436,876	2,94
437,378	3,09
437,88	3,31
438,383	3,27
438,885	3,13
439,387	2,86
439,889	3,06
440,391	3,15
440,892	2,93
441,394	3,05
441,896	3,08
442,397	2,96
442,898	2,98
443,399	3,41
443,9	3,3
444,401	3,41
444,902	3,27
445,403	3,23
445,903	3,11
446,404	3,33
446,904	3,14
447,405	3,07
447,905	3,46
448,405	3,39
448,905	3,46
449,404	3,4
449,904	3,47
450,404	3,25
450,903	3,35
451,403	3,45
451,902	3,69
452,401	3,85
452,9	3,75
453,399	3,77
453,898	3,49
454,396	3,52
454,895	3,77
455,393	3,6
455,892	3,72
456,39	3,77
456,888	3,72
457,386	3,63
457,884	3,72
458,382	3,88
458,879	4,01
459,377	3,6
459,874	3,59
460,372	3,63
460,869	3,9
461,366	4,08
461,863	3,95
462,36	3,82
462,857	3,67
463,353	3,68
463,85	3,8
464,346	3,82
464,843	3,97
465,339	3,89
465,835	3,57
466,331	3,73
466,827	3,72
467,323	3,47
467,818	3,88
468,314	3,85
468,809	3,85
469,305	3,63
469,8	3,87
470,295	3,67
470,79	3,88
471,285	3,8
471,78	3,68
472,274	3,82
472,769	3,89
473,263	3,81
473,758	3,81
474,252	3,69
474,746	3,98
475,24	3,69
475,734	3,98
476,228	3,97
476,721	3,93
477,215	4,1
477,708	3,87
478,202	4,03
478,695	3,62
479,188	3,88
479,681	3,75
480,174	3,86
480,667	3,89
481,159	3,84
481,652	4,01
482,144	3,82
482,637	3,93
483,129	4,03
483,621	3,91
484,113	4,3
484,605	4,05
485,097	3,94
485,588	3,98
486,08	4,13
486,571	3,97
487,063	4,22
487,554	4,28
488,045	4,32
488,536	4,06
489,027	4,14
489,518	4,15
490,008	4,28
490,499	4,3
490,989	4,32
491,48	4,38
491,97	4,53
492,46	4,47
492,95	4,55
493,44	4,51
493,93	4,67
494,419	4,85
494,909	4,72
495,398	4,89
495,888	5,01
496,377	4,84
496,866	5,36
497,355	5,34
497,844	5,26
498,333	5,53
498,821	5,5
499,31	5,6
499,798	5,59
500,287	5,8
500,775	5,92
501,263	6,17
501,751	6,05
502,239	6,33
502,727	6,52
503,215	6,5
503,702	6,69
504,19	6,88
504,677	6,85
505,164	7,16
505,651	7,33
506,139	7,16
506,625	7,42
507,112	7,85
507,599	8,03
508,086	8,06
508,572	8,31
509,058	8,37
509,545	8,84
510,031	9,03
510,517	9,2
511,003	9,34
511,489	9,27
511,974	9,52
512,46	10,17
512,946	10,16
513,431	10,11
513,916	10,67
514,401	11,01
514,887	11,13
515,371	11,41
515,856	11,81
516,341	12,03
516,826	12,16
517,31	12,2
517,795	12,62
518,279	12,86
518,763	13,29
519,247	13,29
519,731	13,48
520,215	13,86
520,699	13,94
521,182	14,34
521,666	14,59
522,149	14,76
522,633	14,78
523,116	15,23
523,599	15,56
524,082	15,75
524,565	15,86
525,048	15,92
525,53	16,38
526,013	16,38
526,495	16,88
526,978	16,91
527,46	17,25
527,942	17,31
528,424	17,7
528,906	18,02
529,388	17,92
529,87	18,08
530,351	18,17
530,833	18,28
531,314	18,58
531,795	18,61
532,277	18,66
532,758	18,65
533,238	19,11
533,719	19,08
534,2	19,38
534,681	18,87
535,161	19,43
535,642	19,18
536,122	19,34
536,602	19,55
537,082	19,57
537,562	19,69
538,042	19,48
538,522	19,73
539,001	19,67
539,481	19,85
539,96	19,77
540,44	19,94
540,919	19,87
541,398	20,15
541,877	19,75
542,356	19,96
542,835	20,14
543,313	20,11
543,792	20,36
544,27	19,64
544,749	20,36
545,227	20,4
545,705	20,21
546,183	20,13
546,661	20,12
547,139	20,4
547,616	20,33
548,094	20,41
548,571	20,5
549,049	20,48
549,526	20,42
550,003	20,58
550,48	20,6
550,957	20,51
551,434	20,65
551,911	20,73
552,387	20,34
552,864	20,66
553,34	20,55
553,817	20,71
554,293	20,48
554,769	20,51
555,245	20,24
555,721	20,46
556,197	20,79
556,672	20,58
557,148	20,21
557,623	20,31
558,099	20,4
558,574	20,6
559,049	20,62
559,524	20,48
559,999	20,47
560,474	20,07
560,948	20,43
561,423	20,3
561,897	20,32
562,372	19,96
562,846	20,12
563,32	20,1
563,794	19,95
564,268	19,82
564,742	19,72
565,216	19,8
565,69	19,35
566,163	19,64
566,636	19,54
567,11	19,27
567,583	19,05
568,056	19,17
568,529	19,1
569,002	18,77
569,475	18,89
569,947	18,79
570,42	18,55
570,892	18,47
571,365	18,05
571,837	17,94
572,309	18,13
572,781	18,03
573,253	17,65
573,725	17,51
574,197	17,68
574,668	17,25
575,14	17,11
575,611	17,04
576,082	16,81
576,554	16,87
577,025	16,86
577,496	16,61
577,967	16,6
578,437	16,77
578,908	16,43
579,379	16,23
579,849	16,18
580,319	15,87
580,79	15,9
581,26	16,06
581,73	15,93
582,2	15,67
582,669	15,6
583,139	15,61
583,609	15,62
584,078	15,31
584,548	15,09
585,017	15,16
585,486	14,97
585,955	15,23
586,424	15,11
586,893	15,11
587,362	15,07
587,83	14,96
588,299	14,8
588,767	14,82
589,236	14,57
589,704	14,66
590,172	14,65
590,64	14,36
591,108	14,23
591,576	14,61
592,043	14,2
592,511	14,22
592,978	14,14
593,446	14,12
593,913	14,13
594,38	14,21
594,847	14
595,314	14,04
595,781	13,86
596,248	14
596,715	13,97
597,181	13,87
597,647	13,95
598,114	13,64
598,58	13,82
599,046	13,72
599,512	13,84
599,978	13,68
600,444	13,75
600,91	13,59
601,375	13,75
601,841	13,71
602,306	13,43
602,771	13,62
603,236	13,71
603,702	13,48
604,167	13,42
604,631	13,37
605,096	13,28
605,561	13,29
606,025	13,24
606,49	13,1
606,954	13,08
607,418	13,01
607,882	13,03
608,347	12,84
608,81	12,9
609,274	12,98
609,738	12,63
610,202	12,77
610,665	12,68
611,128	12,5
611,592	12,39
612,055	12,41
612,518	12,45
612,981	12,17
613,444	12,07
613,907	11,92
614,369	11,92
614,832	11,88
615,294	11,81
615,757	11,54
616,219	11,73
616,681	11,33
617,143	11,61
617,605	11,5
618,067	11,42
618,529	11,22
618,99	11,4
619,452	11,22
619,913	11,27
620,375	10,94
620,836	11,01
621,297	11,09
621,758	10,93
622,219	10,95
622,68	10,78
623,14	10,88
623,601	10,77
624,061	10,82
624,522	10,76
624,982	10,69
625,442	10,61
625,902	10,73
626,362	10,73
626,822	10,72
627,282	10,53
627,742	10,46
628,201	10,69
628,661	10,55
629,12	10,4
629,579	10,43
630,038	10,48
630,497	10,48
630,956	10,56
631,415	10,36
631,874	10,48
632,332	10,34
632,791	10,36
633,249	10,44
633,708	10,25
634,166	10,41
634,624	10,33
635,082	10,2
635,54	10,18
635,998	10,11
636,455	10,01
636,913	9,89
637,37	9,87
637,828	9,85
638,285	9,64
638,742	9,66
639,199	9,49
639,656	9,34
640,113	9,22
640,57	9,09
641,027	9,08
641,483	9,06
641,94	8,96
642,396	8,81
642,852	8,64
643,309	8,65
643,765	8,39
644,221	8,27
644,676	8,18
645,132	8,09
645,588	8,14
646,043	7,98
646,499	7,86
646,954	7,71
647,409	7,62
647,864	7,54
648,319	7,34
648,774	7,23
649,229	7,19
649,684	7,2
650,139	6,99
650,593	7,04
651,047	7,04
651,502	6,87
651,956	6,87
652,41	6,9
652,864	6,8
653,318	6,83
653,772	6,84
654,225	6,69
654,679	6,64
655,133	6,56
655,586	6,52
656,039	6,46
656,492	6,34
656,946	6,34
657,399	6,22
657,851	6,21
658,304	6,11
658,757	6,08
659,209	5,95
659,662	5,85
660,114	5,79
660,567	5,67
661,019	5,6
661,471	5,48
661,923	5,42
662,375	5,34
662,826	5,22
663,278	5,05
663,73	5,03
664,181	4,91
664,632	4,9
665,084	4,82
665,535	4,72
665,986	4,68
666,437	4,64
666,888	4,59
667,338	4,49
667,789	4,53
668,24	4,5
668,69	4,44
669,14	4,41
669,591	4,35
670,041	4,37
670,491	4,34
670,941	4,39
671,391	4,37
671,84	4,33
672,29	4,4
672,74	4,38
673,189	4,4
673,638	4,47
674,088	4,45
674,537	4,51
674,986	4,55
675,435	4,61
675,883	4,59
676,332	4,67
676,781	4,76
677,229	4,77
677,678	4,99
678,126	4,89
678,574	5,05
679,022	5,08
679,47	5,19
679,918	5,2
680,366	5,4
680,814	5,43
681,261	5,57
681,709	5,67
682,156	5,77
682,604	5,86
683,051	5,96
683,498	6,06
683,945	6,28
684,392	6,52
684,839	6,5
685,286	6,65
685,732	6,9
686,179	7,1
686,625	7,42
687,071	7,36
687,518	7,81
687,964	8,04
688,41	8,15
688,856	8,62
689,301	8,81
689,747	9,15
690,193	9,4
690,638	9,73
691,084	10,11
691,529	10,41
691,974	10,98
692,419	11,21
692,864	11,76
693,309	12,04
693,754	12,52
694,199	12,94
694,643	13,21
695,088	13,88
695,532	14,21
695,977	14,71
696,421	15,01
696,865	15,46
697,309	16,12
697,753	16,39
698,197	16,92
698,64	17,17
699,084	17,77
699,527	18
699,971	18,39
700,414	18,79
700,857	19,22
701,3	19,63
701,743	19,96
702,186	20,25
702,629	20,52
703,072	20,9
703,515	21,52
703,957	21,72
704,399	21,84
704,842	22,2
705,284	22,67
705,726	22,86
706,168	23,13
706,61	23,42
707,052	23,74
707,494	24,05
707,935	24,13
708,377	24,62
708,818	24,8
709,26	25,1
709,701	25,33
710,142	25,59
710,583	25,6
711,024	25,94
711,465	26,2
711,905	26,29
712,346	26,37
712,787	26,93
713,227	27
713,667	27,21
714,108	27,29
714,548	27,56
714,988	28,03
715,428	27,99
715,868	28,21
716,307	28,54
716,747	28,73
717,186	28,99
717,626	29,18
718,065	28,96
718,504	28,99
718,944	29,42
719,383	29,41
719,822	29,62
720,261	29,81
720,699	30,22
721,138	30,22
721,576	30,33
722,015	30,38
722,453	30,47
722,892	30,92
723,33	30,4
723,768	31,11
724,206	30,92
724,644	31,21
725,081	31,37
725,519	31,48
725,957	31,33
726,394	31,45
726,832	31,36
727,269	31,55
727,706	31,85
728,143	31,76
728,58	32,12
729,017	32,04
729,454	32,14
729,89	31,97
730,327	32,2
730,764	32,05
731,2	32,33
731,636	32,29
732,072	32,46
732,509	32,45
732,945	32,56
733,38	32,66
733,816	32,53
734,252	32,8
734,688	32,79
735,123	32,65
735,559	32,87
735,994	32,74
736,429	32,78
736,864	32,88
737,299	32,95
737,734	32,9
738,169	32,98
738,604	32,93
739,038	32,96
739,473	33,11
739,907	32,85
740,342	32,99
740,776	33,23
741,21	33,04
741,644	33,13
742,078	32,79
742,512	33,33
742,946	33,04
743,379	32,78
743,813	33
744,246	33,13
744,68	33,02
745,113	32,89
745,546	33,18
745,979	32,9
746,412	33,02
746,845	32,94
747,278	32,9
747,711	33,01
748,143	33,02
748,576	33,04
749,008	33
749,441	33,16
749,873	32,88
750,305	32,76
750,737	32,77
751,169	32,83
751,601	32,92
752,032	32,83
752,464	32,63
752,896	32,77
753,327	32,62
753,758	32,71
754,19	32,75
754,621	32,68
755,052	32,51
755,483	32,6
755,914	32,61
756,344	32,59
756,775	32,75
757,206	32,68
757,636	32,32
758,066	32,69
758,497	32,57
758,927	32,61
759,357	32,54
759,787	32,44
760,217	32,37
760,647	32,26
761,076	32,53
761,506	32,45
761,935	32,48
762,365	32,24
762,794	32,26
763,223	32,08
763,653	32,32
764,082	32,29
764,51	32,08
764,939	32,06
765,368	31,92
765,797	32,12
766,225	32,18
766,654	32,16
767,082	32,23
767,51	32,06
767,938	32,23
768,367	32,07
768,795	31,91
769,222	31,99
769,65	32,11
770,078	31,89
770,505	31,85
770,933	32,06
771,36	31,94
771,788	31,99
772,215	31,77
772,642	32,01
773,069	32,04
773,496	31,87
773,923	31,87
774,349	31,81
774,776	31,98
775,203	31,7
775,629	32,07
776,055	31,63
776,482	31,74
776,908	31,7
777,334	31,72
777,76	31,61
778,186	31,73
778,611	31,66
779,037	31,75
779,463	31,68
779,888	31,76
780,314	31,64
780,739	31,8
781,164	31,72
781,589	31,63
782,014	31,89
782,439	31,57
782,864	31,55
783,289	31,64
783,713	31,65
784,138	31,64
784,562	31,78
784,987	31,43
785,411	31,29
785,835	31,67
786,259	31,43
786,683	31,7
787,107	31,61
787,531	31,57
787,954	31,52
788,378	31,57
788,802	31,51
789,225	31,53
789,648	31,58
790,071	31,52
790,495	31,64
790,918	31,53
791,34	31,67
791,763	31,37
792,186	31,31
792,609	31,51
793,031	31,37
793,454	31,61
793,876	31,5
794,298	31,32
794,721	31,38
795,143	31,26
795,565	31,44
795,986	31,32
796,408	31,6
796,83	31,43
797,252	31,42
797,673	31,52
798,094	31,48
798,516	31,08
798,937	31,24
799,358	31,5
799,779	31,35
800,2	31,28
800,621	31,32
801,042	31,4
801,462	31,36
801,883	31,39
802,303	31,22
802,724	31,24
803,144	31,22
803,564	31,41
803,984	31,38
804,404	31,42
804,824	31,39
805,244	31,28
805,664	31,37
806,084	31,08
806,503	31,35
806,923	31,27
807,342	31,18
807,761	31,03
808,18	31,46
808,599	31,07
809,018	31,26
809,437	31,09
809,856	31,2
810,275	31,28
810,693	31,26
811,112	31,39
811,53	31,33
811,949	31,15
812,367	31,29
812,785	31,14
813,203	31,18
813,621	31,33
814,039	31,01
814,457	31,36
814,874	31,08
815,292	31,4
815,709	31,21
816,127	30,95
816,544	31,31
816,961	31,48
817,378	31,28
817,795	31,13
818,212	31,47
818,629	31,29
819,046	31,19
819,462	31,26
819,879	31,21
820,295	31,27
820,712	31,18
821,128	31,26
821,544	31,04
821,96	31,13
822,376	31,11
822,792	31,08
823,208	31,13
823,624	31,03
824,039	31,24
824,455	31,32
824,87	31,11
825,286	30,9
825,701	31,18
826,116	31,11
826,531	31,03
826,946	31,1
827,361	31,27
827,776	31,11
828,19	30,97
828,605	31
829,02	31,05
829,434	31,1
829,848	30,94
830,263	31,06
830,677	30,95
831,091	31,37
831,505	31,07
831,919	31,28
832,332	31,17
832,746	31,2
833,16	30,83
833,573	31,38
833,987	30,85
834,4	31,02
834,813	31,33
835,226	31,16
835,639	31,05
836,052	31,13
836,465	31,19
836,878	30,88
837,29	31,21
837,703	30,96
838,116	30,97
838,528	30,84
838,94	31,15
839,352	31,11
839,765	31,03
840,177	31,07
840,589	30,9
841	31,07
841,412	31,27
841,824	31,07
842,235	31,18
842,647	30,91
843,058	30,89
