Data from G_4__Relative__7__00155.txt Node

Date: Mon Jan 29 18:26:06 CET 2024
User: diatiterra
Spectrometer: HDX00911
Trigger mode: 0
Integration Time (sec): 6,000000E-3
Scans to average: 2
Nonlinearity correction enabled: false
Boxcar width: 0
Storing dark spectrum: false
XAxis mode: Wavelengths
Number of Pixels in Spectrum: 2068
>>>>>Begin Spectral Data<<<<<
194,468	63,73
195,025	38,05
195,581	61,7
196,138	48,46
196,694	58,62
197,251	53,78
197,807	53,6
198,363	51,27
198,919	48,04
199,474	51,43
200,03	51,84
200,586	42,86
201,141	54,68
201,696	41,18
202,251	48,71
202,806	55,64
203,361	52,28
203,916	52,4
204,471	44,01
205,025	55
205,58	47,31
206,134	50
206,688	40,94
207,242	47,96
207,796	47,46
208,35	47,65
208,904	47,46
209,457	49,82
210,011	46,15
210,564	42,71
211,117	50,7
211,67	45,42
212,223	45,55
212,776	51,31
213,329	43,64
213,881	50,36
214,434	52,76
214,986	50,51
215,538	48,35
216,09	47,54
216,642	51,85
217,194	48,01
217,746	41,08
218,297	36,91
218,849	47,04
219,4	52,1
219,951	49,82
220,502	43,21
221,053	42,32
221,604	53,69
222,155	57,61
222,705	45,48
223,256	54,68
223,806	51,7
224,356	51,45
224,906	47,78
225,456	47,24
226,006	52,35
226,556	48,91
227,106	48,25
227,655	44,6
228,204	50
228,754	44,14
229,303	45,76
229,852	46,41
230,401	47,67
230,949	59,14
231,498	51,87
232,047	46,46
232,595	51,06
233,143	50,38
233,691	47,2
234,239	48,51
234,787	42,31
235,335	47,62
235,883	49,82
236,43	49,63
236,978	49,45
237,525	55,22
238,072	39,11
238,619	44,18
239,166	48,48
239,713	52,42
240,26	52,81
240,806	45,74
241,353	49,82
241,899	47,57
242,445	59,79
242,991	58,89
243,537	42,24
244,083	52,36
244,629	43,58
245,174	58,58
245,72	45,82
246,265	48,76
246,81	51,82
247,355	47,06
247,9	48,44
248,445	55,86
248,99	48,1
249,534	51,27
250,079	56,72
250,623	47,12
251,168	46,64
251,712	55,67
252,256	51,83
252,8	52,78
253,343	45,22
253,887	44,56
254,43	57,25
254,974	44,41
255,517	47,65
256,06	44,86
256,603	49,81
257,146	45,12
257,689	43,99
258,232	53,26
258,774	44,28
259,317	53,11
259,859	49,08
260,401	48,48
260,943	46,64
261,485	57,09
262,027	51,72
262,569	56,77
263,11	56,32
263,652	57,35
264,193	48,57
264,734	50,4
265,275	54,62
265,816	50
266,357	58,27
266,898	49,15
267,438	45,49
267,979	54,18
268,519	50,9
269,059	47,87
269,6	54,04
270,14	44,55
270,68	43,68
271,219	48,42
271,759	47,01
272,298	48,36
272,838	45,74
273,377	46,67
273,916	52,35
274,455	53,64
274,994	47,84
275,533	47,78
276,072	47,37
276,61	45,39
277,149	34,06
277,687	48,75
278,225	49,66
278,763	47,1
279,301	49,43
279,839	52,9
280,377	50
280,914	51,28
281,452	57,32
281,989	58,02
282,526	54,48
283,064	56,25
283,601	54,92
284,137	43,8
284,674	54,34
285,211	46,4
285,747	47,12
286,284	51,58
286,82	56,38
287,356	52,58
287,892	52,98
288,428	41,36
288,964	52,71
289,5	53,4
290,035	48,92
290,571	45,9
291,106	53,09
291,641	56,32
292,176	59,02
292,711	49,31
293,246	50,9
293,781	48,7
294,315	49,63
294,85	48,54
295,384	58,89
295,918	54,7
296,453	50,18
296,987	51,38
297,52	47,95
298,054	48,9
298,588	57,87
299,121	49,82
299,655	45,61
300,188	41,83
300,721	43,1
301,254	49,47
301,787	47,56
302,32	57,58
302,853	42,86
303,385	45,42
303,918	52,63
304,45	52,9
304,982	43,03
305,514	48,71
306,046	43,86
306,578	53,21
307,11	41,64
307,641	52,73
308,173	43,49
308,704	47,51
309,236	43,45
309,767	46,67
310,298	34,84
310,829	55,13
311,359	46,62
311,89	47,33
312,421	43,12
312,951	48
313,481	51,41
314,012	54,21
314,542	45,21
315,072	51,27
315,601	46,26
316,131	45,62
316,661	58,33
317,19	47,69
317,72	49,08
318,249	47,97
318,778	53,23
319,307	40,88
319,836	48,99
320,365	42,35
320,893	43,26
321,422	49,25
321,95	40
322,479	49,48
323,007	47,83
323,535	51,32
324,063	52,24
324,591	44,33
325,118	38,81
325,646	45,38
326,173	51,79
326,701	43,27
327,228	43,77
327,755	48,39
328,282	43,4
328,809	45,56
329,336	40,48
329,862	52,31
330,389	45,73
330,915	42,91
331,441	41,69
331,968	49,48
332,494	43,81
333,02	40,88
333,545	38,99
334,071	47,67
334,597	41,55
335,122	38,46
335,648	46,52
336,173	45,21
336,698	47,6
337,223	52,9
337,748	38,6
338,272	40,26
338,797	42,39
339,322	40,53
339,846	46,09
340,37	41,39
340,894	46,23
341,419	45,3
341,942	45,3
342,466	45,73
342,99	38,46
343,514	35,71
344,037	39,67
344,56	44,2
345,084	44,48
345,607	43,47
346,13	43,69
346,653	37,42
347,175	55,81
347,698	38,1
348,221	40,41
348,743	36,15
349,265	41,96
349,787	39,14
350,309	46,28
350,831	37,61
351,353	47,09
351,875	43,54
352,397	41,32
352,918	35,31
353,439	46,88
353,961	38,03
354,482	49,44
355,003	42,63
355,524	44,39
356,044	40,37
356,565	44,89
357,086	37,4
357,606	40,72
358,126	36,25
358,646	45,02
359,167	41,28
359,687	41,51
360,206	42,41
360,726	37,24
361,246	41,2
361,765	40,35
362,285	39,1
362,804	42,44
363,323	39,22
363,842	43,33
364,361	40,48
364,88	41,77
365,398	41,72
365,917	43,94
366,435	42,27
366,954	35,67
367,472	46,06
367,99	39,63
368,508	41,8
369,026	37,98
369,544	38,36
370,061	39,89
370,579	39,77
371,096	39,96
371,613	39,63
372,131	39,26
372,648	41,52
373,165	42,29
373,681	39,58
374,198	37,54
374,715	39,58
375,231	39,27
375,747	38,68
376,264	35,62
376,78	41,63
377,296	38,29
377,812	37,98
378,327	33,78
378,843	39,29
379,359	36,67
379,874	38,52
380,389	38,79
380,905	38,46
381,42	36,81
381,935	39,73
382,449	37,48
382,964	38,37
383,479	39,72
383,993	39,3
384,508	37,82
385,022	36,52
385,536	35,68
386,05	35,1
386,564	34,63
387,078	32,36
387,592	34,79
388,105	31,96
388,619	33,43
389,132	34,32
389,645	34,17
390,158	32,72
390,671	34,27
391,184	32,29
391,697	31,06
392,21	30,47
392,722	31,25
393,235	29,05
393,747	32,08
394,259	32,05
394,771	31,77
395,283	31,13
395,795	28,11
396,307	29,36
396,818	29,27
397,33	25,68
397,841	30,27
398,353	27,01
398,864	27,01
399,375	26,1
399,886	25,33
400,397	26,15
400,907	27
401,418	23,96
401,928	26,21
402,439	25,93
402,949	23,72
403,459	23,12
403,969	23,64
404,479	22,7
404,989	21,25
405,498	21,24
406,008	19,93
406,517	20,04
407,027	19,34
407,536	19,51
408,045	19,44
408,554	18,86
409,063	15,97
409,572	16,93
410,08	15,89
410,589	16,03
411,097	14,95
411,606	14,75
412,114	14,71
412,622	13,61
413,13	14,17
413,638	13,35
414,145	13,27
414,653	12,64
415,16	12,6
415,668	13,03
416,175	11,77
416,682	11,92
417,189	11,64
417,696	10,89
418,203	10,85
418,71	11,16
419,216	10,48
419,723	10,65
420,229	10,28
420,735	10,34
421,242	10,81
421,748	10,41
422,254	9,88
422,759	10,14
423,265	10,29
423,771	9,51
424,276	9,81
424,781	9,6
425,287	9,69
425,792	9,85
426,297	9,79
426,802	9,38
427,306	9,59
427,811	9,56
428,316	9,62
428,82	9,48
429,324	9,11
429,829	9,67
430,333	8,88
430,837	9,29
431,34	8,8
431,844	9,14
432,348	8,7
432,851	8,71
433,355	9,07
433,858	8,5
434,361	9,01
434,864	9,06
435,367	8,61
435,87	8,92
436,373	8,52
436,876	8,46
437,378	8,54
437,88	8,36
438,383	9,17
438,885	8,44
439,387	8,51
439,889	8,65
440,391	8,85
440,892	8,34
441,394	8,44
441,896	8,59
442,397	8,55
442,898	8,37
443,399	8,75
443,9	8,52
444,401	8,88
444,902	8,7
445,403	8,69
445,903	8,99
446,404	9,5
446,904	8,85
447,405	9,11
447,905	9,14
448,405	9,36
448,905	9,35
449,404	9,25
449,904	9,23
450,404	9,29
450,903	8,99
451,403	9,53
451,902	9,71
452,401	9,33
452,9	9,79
453,399	10,01
453,898	9,96
454,396	9,34
454,895	9,96
455,393	9,41
455,892	9,68
456,39	10,14
456,888	9,93
457,386	9,99
457,884	10,07
458,382	9,82
458,879	9,92
459,377	10,01
459,874	9,99
460,372	10,04
460,869	9,84
461,366	10,23
461,863	9,95
462,36	10,17
462,857	10,2
463,353	10,13
463,85	10,18
464,346	9,84
464,843	10,02
465,339	10
465,835	10,15
466,331	10,2
466,827	10,24
467,323	10
467,818	10,2
468,314	9,93
468,809	9,76
469,305	10,33
469,8	9,95
470,295	10,29
470,79	10,08
471,285	10,2
471,78	10,08
472,274	9,79
472,769	10,38
473,263	10,01
473,758	10,16
474,252	10
474,746	10,34
475,24	10,21
475,734	10,28
476,228	10,32
476,721	10
477,215	10,38
477,708	10,21
478,202	10,02
478,695	10,34
479,188	10,23
479,681	10,28
480,174	10,15
480,667	10,25
481,159	10,41
481,652	10,51
482,144	10,36
482,637	10,35
483,129	10,44
483,621	10,16
484,113	10,55
484,605	10,73
485,097	10,51
485,588	10,57
486,08	10,58
486,571	10,82
487,063	11,15
487,554	10,8
488,045	11,14
488,536	10,88
489,027	10,79
489,518	11,2
490,008	11,09
490,499	11,24
490,989	11,17
491,48	11,51
491,97	11,65
492,46	11,13
492,95	11,66
493,44	12,14
493,93	11,85
494,419	11,71
494,909	11,83
495,398	12,2
495,888	12,3
496,377	12,24
496,866	12,52
497,355	12,94
497,844	12,78
498,333	12,9
498,821	13,04
499,31	13,44
499,798	13,62
500,287	13,6
500,775	13,92
501,263	13,89
501,751	14,15
502,239	14,33
502,727	14,62
503,215	14,85
503,702	15,32
504,19	15,65
504,677	15,25
505,164	15,75
505,651	15,92
506,139	16,25
506,625	16,77
507,112	16,75
507,599	17,41
508,086	17,06
508,572	17,75
509,058	17,99
509,545	18,08
510,031	18,75
510,517	18,84
511,003	19,33
511,489	19,38
511,974	19,8
512,46	20,3
512,946	20,75
513,431	20,47
513,916	21,12
514,401	21,24
514,887	22,41
515,371	22,29
515,856	22,32
516,341	22,94
516,826	23,13
517,31	23,49
517,795	23,88
518,279	24,35
518,763	24,68
519,247	24,72
519,731	25,43
520,215	26,02
520,699	26,39
521,182	26,33
521,666	27,09
522,149	27,5
522,633	27,67
523,116	28,1
523,599	27,83
524,082	28,09
524,565	29,23
525,048	29,14
525,53	29,42
526,013	29,79
526,495	29,74
526,978	30,37
527,46	31,16
527,942	30,97
528,424	31,01
528,906	31,47
529,388	31,66
529,87	31,88
530,351	31,8
530,833	32,62
531,314	32,48
531,795	32,54
532,277	33,06
532,758	32,88
533,238	32,92
533,719	33,43
534,2	33,31
534,681	33,32
535,161	33,73
535,642	33,45
536,122	33,53
536,602	34,09
537,082	33,68
537,562	34,16
538,042	33,88
538,522	34,35
539,001	34,36
539,481	34,09
539,96	34,36
540,44	34,13
540,919	34,42
541,398	34,36
541,877	34,55
542,356	34,12
542,835	34,29
543,313	34,63
543,792	34,69
544,27	34,39
544,749	34,97
545,227	34,94
545,705	34,71
546,183	34,56
546,661	35
547,139	35,1
547,616	35,17
548,094	35,62
548,571	35,12
549,049	35,38
549,526	35,16
550,003	35,35
550,48	35,09
550,957	35,22
551,434	35,37
551,911	35,17
552,387	34,82
552,864	35,54
553,34	35,42
553,817	35,46
554,293	35,48
554,769	35,72
555,245	35,45
555,721	35,57
556,197	35,75
556,672	35,75
557,148	35,07
557,623	35,31
558,099	35,05
558,574	35,32
559,049	35,45
559,524	35,29
559,999	35,3
560,474	34,91
560,948	35,06
561,423	34,9
561,897	35,01
562,372	35,02
562,846	34,73
563,32	34,77
563,794	34,71
564,268	33,78
564,742	34,32
565,216	34,48
565,69	33,78
566,163	33,85
566,636	34,04
567,11	33,75
567,583	33
568,056	33,51
568,529	33,08
569,002	33,33
569,475	33,11
569,947	32,95
570,42	32,52
570,892	32,05
571,365	32,25
571,837	31,93
572,309	32,08
572,781	31,73
573,253	31,36
573,725	30,99
574,197	31,2
574,668	30,45
575,14	30,88
575,611	30,37
576,082	30,2
576,554	30,14
577,025	30,25
577,496	29,87
577,967	29,73
578,437	29,71
578,908	29,39
579,379	29,07
579,849	29,62
580,319	29,2
580,79	28,67
581,26	28,97
581,73	28,49
582,2	28,57
582,669	28,43
583,139	28,34
583,609	28,17
584,078	28,05
584,548	27,76
585,017	27,92
585,486	27,63
585,955	27,51
586,424	27,25
586,893	27,26
587,362	27,43
587,83	27,2
588,299	26,87
588,767	27,2
589,236	26,82
589,704	26,79
590,172	26,74
590,64	26,57
591,108	26,63
591,576	26,45
592,043	26,17
592,511	26,43
592,978	26,22
593,446	26,24
593,913	26,05
594,38	26,05
594,847	25,87
595,314	25,88
595,781	26,04
596,248	25,85
596,715	25,77
597,181	25,79
597,647	25,96
598,114	25,41
598,58	25,71
599,046	25,5
599,512	25,59
599,978	25,56
600,444	25,45
600,91	25,49
601,375	25,5
601,841	25,35
602,306	25,33
602,771	25,26
603,236	25,24
603,702	25,15
604,167	25,16
604,631	24,98
605,096	25,01
605,561	24,69
606,025	24,85
606,49	24,56
606,954	24,49
607,418	24,32
607,882	24,57
608,347	24,19
608,81	23,96
609,274	23,98
609,738	24,03
610,202	23,95
610,665	23,81
611,128	23,68
611,592	23,63
612,055	23,47
612,518	23,35
612,981	23,05
613,444	23,11
613,907	22,84
614,369	22,91
614,832	22,6
615,294	22,67
615,757	22,59
616,219	22,56
616,681	22,47
617,143	22,24
617,605	22,13
618,067	21,86
618,529	21,92
618,99	22,12
619,452	21,96
619,913	21,8
620,375	21,64
620,836	21,63
621,297	21,74
621,758	21,31
622,219	21,43
622,68	21,34
623,14	21,01
623,601	21,15
624,061	21,24
624,522	21,11
624,982	20,94
625,442	21,11
625,902	20,92
626,362	20,86
626,822	21,04
627,282	20,66
627,742	20,84
628,201	20,94
628,661	20,76
629,12	20,63
629,579	20,56
630,038	20,72
630,497	20,71
630,956	20,67
631,415	20,73
631,874	20,55
632,332	20,48
632,791	20,39
633,249	20,45
633,708	20,2
634,166	20,17
634,624	20,29
635,082	20,04
635,54	19,81
635,998	19,7
636,455	19,88
636,913	19,71
637,37	19,37
637,828	19,51
638,285	19,12
638,742	18,97
639,199	18,85
639,656	18,92
640,113	18,45
640,57	18,15
641,027	18,33
641,483	18,15
641,94	17,77
642,396	17,72
642,852	17,74
643,309	17,55
643,765	17,07
644,221	17,07
644,676	16,8
645,132	16,69
645,588	16,59
646,043	16,5
646,499	16,05
646,954	16,09
647,409	15,63
647,864	15,76
648,319	15,66
648,774	15,21
649,229	15,26
649,684	15,35
650,139	15,05
650,593	14,86
651,047	14,89
651,502	14,91
651,956	14,76
652,41	14,68
652,864	14,54
653,318	14,56
653,772	14,38
654,225	14,31
654,679	14,23
655,133	14,34
655,586	14,21
656,039	13,98
656,492	13,89
656,946	13,74
657,399	13,64
657,851	13,78
658,304	13,56
658,757	13,39
659,209	13,28
659,662	13,16
660,114	12,92
660,567	12,73
661,019	12,7
661,471	12,61
661,923	12,3
662,375	12,22
662,826	11,96
663,278	11,82
663,73	11,73
664,181	11,7
664,632	11,44
665,084	11,53
665,535	11,16
665,986	11,14
666,437	11,08
666,888	11,05
667,338	10,95
667,789	10,83
668,24	10,81
668,69	10,72
669,14	10,73
669,591	10,58
670,041	10,61
670,491	10,51
670,941	10,63
671,391	10,56
671,84	10,36
672,29	10,52
672,74	10,63
673,189	10,67
673,638	10,63
674,088	10,64
674,537	10,76
674,986	10,61
675,435	10,79
675,883	10,81
676,332	10,82
676,781	10,95
677,229	11,12
677,678	11,19
678,126	11,25
678,574	11,42
679,022	11,45
679,47	11,61
679,918	11,77
680,366	11,85
680,814	11,91
681,261	12,26
681,709	12,36
682,156	12,51
682,604	12,68
683,051	12,82
683,498	13,07
683,945	13,11
684,392	13,56
684,839	13,82
685,286	14,02
685,732	14,37
686,179	14,63
686,625	14,77
687,071	15,34
687,518	15,68
687,964	16,22
688,41	16,41
688,856	16,96
689,301	17,42
689,747	18
690,193	18,44
690,638	19,01
691,084	19,62
691,529	20,06
691,974	20,68
692,419	21,28
692,864	21,96
693,309	22,65
693,754	23,14
694,199	23,81
694,643	24,43
695,088	24,98
695,532	25,69
695,977	26,41
696,421	27,01
696,865	27,64
697,309	28,35
697,753	28,93
698,197	29,59
698,64	30,19
699,084	30,38
699,527	30,99
699,971	31,77
700,414	32,43
700,857	32,56
701,3	33,2
701,743	33,6
702,186	34,04
702,629	34,77
703,072	35,14
703,515	35,59
703,957	36,02
704,399	36,5
704,842	36,62
705,284	37,31
705,726	37,79
706,168	37,91
706,61	38,53
707,052	38,91
707,494	38,89
707,935	39,3
708,377	39,94
708,818	39,96
709,26	40,31
709,701	40,73
710,142	41,09
710,583	41,22
711,024	41,48
711,465	42,01
711,905	42,04
712,346	42,26
712,787	42,55
713,227	42,79
713,667	43,09
714,108	43,44
714,548	43,73
714,988	44,07
715,428	44
715,868	44,31
716,307	44,57
716,747	45,15
717,186	44,98
717,626	45,22
718,065	45,38
718,504	45,57
718,944	45,79
719,383	45,75
719,822	46,11
720,261	46,23
720,699	46,48
721,138	46,7
721,576	46,95
722,015	46,93
722,453	46,92
722,892	47,62
723,33	47,26
723,768	47,84
724,206	47,79
724,644	48,05
725,081	48,12
725,519	48,1
725,957	48,35
726,394	48,33
726,832	48,65
727,269	48,48
727,706	48,63
728,143	48,93
728,58	48,72
729,017	48,64
729,454	48,91
729,89	48,67
730,327	49,02
730,764	49,04
731,2	49,37
731,636	49,1
732,072	49,2
732,509	49,43
732,945	49,43
733,38	49,4
733,816	49,34
734,252	49,44
734,688	49,57
735,123	49,39
735,559	49,62
735,994	49,74
736,429	49,67
736,864	49,9
737,299	49,83
737,734	49,97
738,169	49,7
738,604	49,96
739,038	49,89
739,473	50,02
739,907	49,76
740,342	50,16
740,776	49,9
741,21	49,52
741,644	49,67
742,078	49,59
742,512	49,99
742,946	49,4
743,379	49,81
743,813	49,7
744,246	49,75
744,68	49,76
745,113	49,62
745,546	49,85
745,979	49,65
746,412	49,85
746,845	49,64
747,278	49,75
747,711	49,61
748,143	49,46
748,576	49,65
749,008	49,72
749,441	49,5
749,873	49,43
750,305	49,54
750,737	49,1
751,169	49,46
751,601	49,53
752,032	49,21
752,464	49,03
752,896	49,31
753,327	49,29
753,758	49,25
754,19	49,18
754,621	49,19
755,052	49
755,483	48,97
755,914	48,98
756,344	48,94
756,775	48,92
757,206	49,2
757,636	48,97
758,066	49,17
758,497	48,9
758,927	48,88
759,357	49,04
759,787	48,9
760,217	48,84
760,647	48,57
761,076	48,88
761,506	48,7
761,935	48,79
762,365	48,56
762,794	48,22
763,223	48,62
763,653	48,87
764,082	48,41
764,51	48,4
764,939	48,4
765,368	48,29
765,797	48,1
766,225	48,33
766,654	48,47
767,082	48,54
767,51	48,2
767,938	48,01
768,367	48,1
768,795	47,69
769,222	48,28
769,65	47,84
770,078	47,94
770,505	47,85
770,933	48,17
771,36	47,82
771,788	47,85
772,215	47,65
772,642	47,79
773,069	48,23
773,496	47,92
773,923	47,88
774,349	47,64
774,776	47,52
775,203	47,54
775,629	47,75
776,055	47,78
776,482	47,96
776,908	47,5
777,334	47,88
777,76	47,79
778,186	47,71
778,611	47,56
779,037	47,4
779,463	47,66
779,888	47,66
780,314	47,57
780,739	47,37
781,164	47,54
781,589	47,58
782,014	47,45
782,439	47,45
782,864	47,74
783,289	47,45
783,713	47,35
784,138	47,63
784,562	47,83
784,987	47,77
785,411	47,14
785,835	47,41
786,259	47,32
786,683	47,48
787,107	47,58
787,531	47,27
787,954	47,57
788,378	47,18
788,802	47,3
789,225	47,39
789,648	47,36
790,071	47,55
790,495	47,34
790,918	47,09
791,34	47,14
791,763	47,51
792,186	47,15
792,609	47,5
793,031	47,24
793,454	47,2
793,876	47,33
794,298	47,24
794,721	47,09
795,143	47,29
795,565	46,81
795,986	46,89
796,408	47,37
796,83	46,89
797,252	47,25
797,673	47,12
798,094	47,12
798,516	47,19
798,937	46,65
799,358	46,99
799,779	47,01
800,2	47,31
800,621	47,06
801,042	47,3
801,462	47,04
801,883	47,24
802,303	47,02
802,724	46,76
803,144	47,07
803,564	46,95
803,984	47,14
804,404	46,71
804,824	46,96
805,244	46,99
805,664	47,09
806,084	47,09
806,503	47,04
806,923	46,95
807,342	47
807,761	46,77
808,18	47,04
808,599	46,82
809,018	47,01
809,437	46,76
809,856	46,77
810,275	46,91
810,693	46,98
811,112	46,96
811,53	47,09
811,949	46,88
812,367	46,83
812,785	46,82
813,203	46,88
813,621	46,96
814,039	46,79
814,457	47,04
814,874	46,95
815,292	46,88
815,709	46,75
816,127	46,75
816,544	46,94
816,961	46,83
817,378	47,1
817,795	46,85
818,212	46,81
818,629	47,08
819,046	46,84
819,462	46,96
819,879	47,08
820,295	46,71
820,712	46,78
821,128	47,15
821,544	46,69
821,96	46,99
822,376	46,82
822,792	46,87
823,208	46,7
823,624	46,8
824,039	46,95
824,455	47,03
824,87	47,05
825,286	46,76
825,701	47,02
826,116	46,95
826,531	46,73
826,946	46,72
827,361	46,73
827,776	46,77
828,19	46,65
828,605	46,86
829,02	46,92
829,434	46,71
829,848	46,53
830,263	47,02
830,677	46,69
831,091	47,13
831,505	46,48
831,919	46,89
832,332	46,76
832,746	46,74
833,16	46,39
833,573	46,46
833,987	46,49
834,4	46,53
834,813	46,84
835,226	46,55
835,639	46,66
836,052	46,71
