Data from G_6__Relative__2__00160.txt Node

Date: Mon Jan 29 18:26:55 CET 2024
User: diatiterra
Spectrometer: HDX00911
Trigger mode: 0
Integration Time (sec): 6,000000E-3
Scans to average: 2
Nonlinearity correction enabled: false
Boxcar width: 0
Storing dark spectrum: false
XAxis mode: Wavelengths
Number of Pixels in Spectrum: 2068
>>>>>Begin Spectral Data<<<<<
194,468	72,55
195,025	43,36
195,581	71,28
196,138	66,92
196,694	55,75
197,251	50,22
197,807	50
198,363	46,18
198,919	53,02
199,474	40,71
200,03	41,91
200,586	45,58
201,141	42,32
201,696	35,29
202,251	49,45
202,806	54,51
203,361	44,56
203,916	48,97
204,471	41,2
205,025	46,07
205,58	40,14
206,134	42,59
206,688	47,1
207,242	43,88
207,796	41,69
208,35	40,43
208,904	42,71
209,457	42,96
210,011	43,01
210,564	39,93
211,117	41,9
211,67	49,3
212,223	38,7
212,776	56,18
213,329	32,65
213,881	46,43
214,434	41,38
214,986	39,39
215,538	46,15
216,09	39,67
216,642	44,07
217,194	44,04
217,746	44,44
218,297	40,94
218,849	41,74
219,4	50
219,951	42,55
220,502	39,02
221,053	44,51
221,604	42,28
222,155	48,97
222,705	40,47
223,256	47,12
223,806	41,5
224,356	46,38
224,906	39,63
225,456	37,24
226,006	33,56
226,556	40,51
227,106	48,25
227,655	42,51
228,204	49,01
228,754	46,55
229,303	43,73
229,852	50,65
230,401	40,86
230,949	59,53
231,498	51,12
232,047	40,74
232,595	42,55
233,143	53,41
233,691	50,8
234,239	40,67
234,787	37,41
235,335	43,88
235,883	47,67
236,43	45,56
236,978	48,36
237,525	44,78
238,072	41,33
238,619	36,64
239,166	46,8
239,713	43,12
240,26	50,56
240,806	42,55
241,353	46,64
241,899	42,39
242,445	45,1
242,991	43,9
243,537	42,24
244,083	47,64
244,629	44,93
245,174	52,61
245,72	40,8
246,265	48,76
246,81	45,62
247,355	39,71
247,9	41,52
248,445	45,86
248,99	48,1
249,534	42,09
250,079	48,13
250,623	37,29
251,168	48,99
251,712	53,19
252,256	51,83
252,8	49,65
253,343	43,63
253,887	43,54
254,43	59,48
254,974	48,6
255,517	47,32
256,06	42,47
256,603	45,66
257,146	44,78
257,689	43,67
258,232	53,64
258,774	44,28
259,317	49,82
259,859	51,66
260,401	57,2
260,943	42,54
261,485	47,52
262,027	43,45
262,569	51,88
263,11	40,43
263,652	44,49
264,193	42,86
264,734	45,63
265,275	46,18
265,816	47,84
266,357	46,04
266,898	43,69
267,438	41,96
267,979	45,82
268,519	41,52
269,059	48,58
269,6	41,75
270,14	47,52
270,68	49,04
271,219	37,54
271,759	43,66
272,298	39,27
272,838	43,8
273,377	45,56
273,916	48,74
274,455	44,06
274,994	43,17
275,533	48,46
276,072	41,35
276,61	39,93
277,149	36,59
277,687	48,75
278,225	41,44
278,763	44,57
279,301	46,42
279,839	46,01
280,377	41,61
280,914	39,56
281,452	51,63
281,989	48,46
282,526	44,44
283,064	50
283,601	51,89
284,137	37,23
284,674	53,21
285,211	36,33
285,747	45,08
286,284	47,72
286,82	46,45
287,356	40,21
287,892	38,6
288,428	38,98
288,964	49,46
289,5	46,6
290,035	47,12
290,571	49,25
291,106	44
291,641	34,87
292,176	47,74
292,711	43,79
293,246	39,35
293,781	44,98
294,315	44,12
294,85	46,72
295,384	51,11
295,918	50,87
296,453	38,16
296,987	45,52
297,52	41,1
298,054	48,9
298,588	41,73
299,121	43,59
299,655	40
300,188	48,29
300,721	46,55
301,254	47,33
301,787	41,06
302,32	46,21
302,853	40,77
303,385	43,96
303,918	38,95
304,45	45,56
304,982	44,62
305,514	42,07
306,046	38,6
306,578	48,93
307,11	46,1
307,641	41,82
308,173	35,32
308,704	49,04
309,236	40,07
309,767	45
310,298	39,37
310,829	50,95
311,359	48,04
311,89	41,28
312,421	39,13
312,951	45,09
313,481	48,59
314,012	43,96
314,542	41,78
315,072	47,64
315,601	48,04
316,131	35,77
316,661	41,25
317,19	40,93
317,72	42,12
318,249	44,59
318,778	40,68
319,307	43,92
319,836	49,33
320,365	39,09
320,893	51,77
321,422	42,91
321,95	42,59
322,479	42,91
323,007	48,19
323,535	54,34
324,063	45,15
324,591	43
325,118	41,61
325,646	44,23
326,173	50
326,701	40
327,228	44,41
327,755	37,28
328,282	47,55
328,809	44,81
329,336	39,79
329,862	48,46
330,389	38,23
330,915	42,55
331,441	36,27
331,968	38,14
332,494	36,79
333,02	45,62
333,545	40,79
334,071	41,33
334,597	43,58
335,122	42,47
335,648	47,99
336,173	42,9
336,698	39,38
337,223	47,44
337,748	33,68
338,272	39,93
338,797	45,31
339,322	36,54
339,846	33,2
340,37	33,33
340,894	43,84
341,419	39,26
341,942	38,59
342,466	40,61
342,99	32,31
343,514	33,44
344,037	35,41
344,56	37,93
345,084	37,54
345,607	40,43
346,13	34,77
346,653	38,68
347,175	42,26
347,698	32,74
348,221	39,83
348,743	37,61
349,265	39,88
349,787	39,43
350,309	41,32
350,831	37,91
351,353	39,15
351,875	36,24
352,397	33,33
352,918	39,27
353,439	45,26
353,961	30,99
354,482	44,1
355,003	38,87
355,524	36,48
356,044	39,31
356,565	35,41
357,086	38,68
357,606	36,14
358,126	39,17
358,646	40,8
359,167	36,12
359,687	40,8
360,206	38,55
360,726	32,85
361,246	42,65
361,765	35,53
362,285	39,1
362,804	38,89
363,323	33,49
363,842	36,67
364,361	35,06
364,88	37,34
365,398	34,88
365,917	37,37
366,435	35,84
366,954	36,67
367,472	40,72
367,99	37,78
368,508	38,09
369,026	34,3
369,544	34,36
370,061	38,66
370,579	32,27
371,096	38,5
371,613	34,68
372,131	37,5
372,648	35,56
373,165	40,21
373,681	40,46
374,198	35,9
374,715	42,88
375,231	33,07
375,747	37,69
376,264	34,98
376,78	37,16
377,296	34,97
377,812	32,2
378,327	33,48
378,843	34,56
379,359	34,2
379,874	34,29
380,389	36,31
380,905	33,42
381,42	33,68
381,935	33,87
382,449	33,04
382,964	33,01
383,479	35,38
383,993	31,13
384,508	32,9
385,022	34,89
385,536	31,77
386,05	32,89
386,564	32,95
387,078	30,79
387,592	28,96
388,105	29,5
388,619	29,79
389,132	28,23
389,645	32,22
390,158	28,96
390,671	33,18
391,184	28,04
391,697	29,31
392,21	28,49
392,722	29,87
393,235	28,4
393,747	30,11
394,259	29,39
394,771	26,73
395,283	27,23
395,795	25,23
396,307	26,96
396,818	26,63
397,33	23,54
397,841	25,64
398,353	24,91
398,864	25,57
399,375	24,77
399,886	22,88
400,397	22,75
400,907	23,73
401,418	23,44
401,928	21,55
402,439	21,8
402,949	21,83
403,459	22,23
403,969	21,94
404,479	20,64
404,989	19,94
405,498	18,18
406,008	17,5
406,517	18,13
407,027	17,79
407,536	17,22
408,045	17,62
408,554	16,95
409,063	15,93
409,572	14,97
410,08	15,46
410,589	14,04
411,097	13,96
411,606	14,29
412,114	13,43
412,622	13,79
413,13	13,19
413,638	12,57
414,145	12,62
414,653	11,81
415,16	11,71
415,668	10,99
416,175	11,39
416,682	11,2
417,189	10,67
417,696	9,75
418,203	10,96
418,71	10,4
419,216	9,45
419,723	9,91
420,229	10,04
420,735	9,35
421,242	9,76
421,748	9,73
422,254	9,71
422,759	9,64
423,265	9,45
423,771	8,81
424,276	9,21
424,781	8,7
425,287	9,13
425,792	8,57
426,297	9,44
426,802	8,35
427,306	8,54
427,811	8,05
428,316	8,72
428,82	8,65
429,324	8,73
429,829	8,54
430,333	8,4
430,837	8,3
431,34	8,4
431,844	8,24
432,348	8,02
432,851	8,18
433,355	8,41
433,858	8,29
434,361	8,47
434,864	7,95
435,367	7,95
435,87	8,1
436,373	8,31
436,876	7,69
437,378	7,81
437,88	8,05
438,383	7,63
438,885	8,02
439,387	8,15
439,889	7,9
440,391	8,18
440,892	7,64
441,394	7,81
441,896	8,02
442,397	7,78
442,898	7,36
443,399	8,3
443,9	8,09
444,401	8,54
444,902	7,96
445,403	8,14
445,903	8,28
446,404	8,64
446,904	8,07
447,405	8,13
447,905	8,4
448,405	7,96
448,905	8,54
449,404	8,26
449,904	8,6
450,404	8,47
450,903	8,29
451,403	8,24
451,902	8,48
452,401	9,19
452,9	8,58
453,399	9,27
453,898	8,96
454,396	9,18
454,895	8,96
455,393	9,25
455,892	8,85
456,39	9,22
456,888	8,93
457,386	8,69
457,884	8,77
458,382	9,26
458,879	8,66
459,377	9,13
459,874	9,21
460,372	8,76
460,869	9,45
461,366	9,29
461,863	9,59
462,36	9,04
462,857	9,03
463,353	9,22
463,85	9,3
464,346	9,26
464,843	9,37
465,339	9,13
465,835	9
466,331	9,3
466,827	9,29
467,323	9
467,818	9,14
468,314	9,14
468,809	8,85
469,305	9,31
469,8	9,1
470,295	9,06
470,79	9,13
471,285	9,11
471,78	9,26
472,274	9,06
472,769	9,48
473,263	9,15
473,758	9,46
474,252	9,43
474,746	9,49
475,24	9,53
475,734	9,51
476,228	9,59
476,721	9,1
477,215	9,35
477,708	9,14
478,202	9,71
478,695	9,47
479,188	9,42
479,681	9,61
480,174	9,16
480,667	9,49
481,159	9,17
481,652	9,66
482,144	9,32
482,637	9,68
483,129	9,74
483,621	9,72
484,113	9,82
484,605	9,5
485,097	9,56
485,588	9,72
486,08	9,96
486,571	9,98
487,063	9,75
487,554	9,91
488,045	10,02
488,536	9,96
489,027	9,97
489,518	10,11
490,008	10,09
490,499	10,45
490,989	10,15
491,48	10,64
491,97	10,41
492,46	9,98
492,95	10,94
493,44	10,51
493,93	10,97
494,419	10,84
494,909	10,91
495,398	11,08
495,888	11,34
496,377	10,93
496,866	11,35
497,355	11,52
497,844	11,67
498,333	11,89
498,821	11,87
499,31	12,23
499,798	12,33
500,287	12,41
500,775	12,58
501,263	12,79
501,751	13,01
502,239	13,18
502,727	13,19
503,215	13,27
503,702	13,66
504,19	14,2
504,677	13,68
505,164	14,19
505,651	14,46
506,139	14,19
506,625	14,84
507,112	15,36
507,599	15,44
508,086	15,66
508,572	15,61
509,058	16,01
509,545	16,52
510,031	16,35
510,517	17,09
511,003	17,53
511,489	17,52
511,974	17,81
512,46	18,22
512,946	18,42
513,431	18,39
513,916	19,54
514,401	19,27
514,887	19,45
515,371	20,17
515,856	20,21
516,341	20,64
516,826	20,88
517,31	20,93
517,795	21,73
518,279	21,69
518,763	22,36
519,247	21,91
519,731	22,69
520,215	23,45
520,699	23,5
521,182	23,76
521,666	24
522,149	24,42
522,633	24,59
523,116	25,11
523,599	25,51
524,082	25,47
524,565	26,07
525,048	25,91
525,53	26,2
526,013	26,66
526,495	27,24
526,978	27,35
527,46	27,77
527,942	27,49
528,424	27,53
528,906	27,88
529,388	28,25
529,87	28,28
530,351	28,32
530,833	28,94
531,314	29,33
531,795	29,2
532,277	29,13
532,758	29,4
533,238	29,68
533,719	29,7
534,2	30,28
534,681	29,5
535,161	30,18
535,642	29,54
536,122	30,04
536,602	30,18
537,082	30,24
537,562	30,5
538,042	30,43
538,522	30,52
539,001	30,73
539,481	30,58
539,96	30,25
540,44	30,77
540,919	30,98
541,398	30,9
541,877	30,34
542,356	30,66
542,835	30,81
543,313	30,79
543,792	30,52
544,27	30,87
544,749	30,91
545,227	31,05
545,705	31,17
546,183	31,2
546,661	31,27
547,139	31,04
547,616	31,1
548,094	31,72
548,571	31,43
549,049	31,34
549,526	31,03
550,003	31,3
550,48	31,62
550,957	31,57
551,434	31,69
551,911	31,16
552,387	31,76
552,864	31,52
553,34	31,28
553,817	31,86
554,293	31,46
554,769	31,44
555,245	31,41
555,721	31,92
556,197	31,68
556,672	31,37
557,148	31,06
557,623	31,2
558,099	31,15
558,574	31,49
559,049	31,2
559,524	31,39
559,999	31,19
560,474	31,24
560,948	31,02
561,423	31,46
561,897	31,22
562,372	31,01
562,846	31,01
563,32	30,79
563,794	30,84
564,268	30,62
564,742	30,4
565,216	30,61
565,69	30,05
566,163	30,18
566,636	29,9
567,11	29,93
567,583	29,79
568,056	29,8
568,529	29,63
569,002	29,21
569,475	29,07
569,947	29,08
570,42	28,8
570,892	28,78
571,365	28,76
571,837	28,93
572,309	28,4
572,781	27,84
573,253	27,92
573,725	27,65
574,197	27,35
574,668	27,5
575,14	27,5
575,611	26,94
576,082	27,08
576,554	26,92
577,025	26,83
577,496	26,4
577,967	26,23
578,437	26,22
578,908	25,99
579,379	26,1
579,849	26
580,319	26,06
580,79	25,39
581,26	25,4
581,73	25,77
582,2	25,16
582,669	25,54
583,139	25,11
583,609	25,17
584,078	25,02
584,548	24,82
585,017	24,59
585,486	24,48
585,955	24,26
586,424	24,39
586,893	24,71
587,362	24,29
587,83	24,07
588,299	24,01
588,767	24,11
589,236	23,63
589,704	23,97
590,172	23,74
590,64	23,55
591,108	23,42
591,576	23,3
592,043	23,13
592,511	23,59
592,978	23,11
593,446	23,48
593,913	23,07
594,38	23,04
594,847	22,98
595,314	23,01
595,781	23
596,248	22,48
596,715	23,07
597,181	22,81
597,647	22,89
598,114	22,57
598,58	22,79
599,046	22,81
599,512	22,68
599,978	22,56
600,444	22,62
600,91	22,6
601,375	22,52
601,841	22,46
602,306	22,32
602,771	22,56
603,236	22,3
603,702	22,3
604,167	22
604,631	21,99
605,096	22,15
605,561	21,89
606,025	21,93
606,49	21,65
606,954	21,6
607,418	21,66
607,882	21,71
608,347	21,5
608,81	21,34
609,274	21,37
609,738	21,21
610,202	21,35
610,665	21,29
611,128	20,86
611,592	21
612,055	20,8
612,518	20,62
612,981	20,64
613,444	20,44
613,907	20,44
614,369	20,16
614,832	20,3
615,294	20,13
615,757	19,89
616,219	20
616,681	19,69
617,143	19,68
617,605	19,63
618,067	19,68
618,529	19,33
618,99	19,32
619,452	19,13
619,913	19,31
620,375	19,13
620,836	19,14
621,297	19,17
621,758	18,99
622,219	19,05
622,68	18,82
623,14	18,99
623,601	18,77
624,061	18,74
624,522	18,73
624,982	18,77
625,442	18,83
625,902	18,61
626,362	18,67
626,822	18,45
627,282	18,55
627,742	18,49
628,201	18,34
628,661	18,38
629,12	18,5
629,579	18,16
630,038	18,28
630,497	18,31
630,956	18,23
631,415	18,22
631,874	18,12
632,332	18,22
632,791	18,08
633,249	18,17
633,708	17,91
634,166	17,84
634,624	17,71
635,082	17,76
635,54	17,58
635,998	17,61
636,455	17,6
636,913	17,46
637,37	17,38
637,828	17,31
638,285	17
638,742	16,87
639,199	16,82
639,656	16,71
640,113	16,59
640,57	16,41
641,027	16,18
641,483	16,16
641,94	15,79
642,396	15,67
642,852	15,63
643,309	15,33
643,765	15,23
644,221	15,1
644,676	14,91
645,132	14,87
645,588	14,79
646,043	14,54
646,499	14,32
646,954	14,37
647,409	13,95
647,864	13,95
648,319	13,85
648,774	13,79
649,229	13,62
649,684	13,56
650,139	13,18
650,593	13,39
651,047	13,27
651,502	13,22
651,956	13,1
652,41	13,07
652,864	12,92
653,318	13,11
653,772	12,85
654,225	12,75
654,679	12,79
655,133	12,67
655,586	12,66
656,039	12,48
656,492	12,43
656,946	12,35
657,399	12,28
657,851	12,23
658,304	12,12
658,757	12,14
659,209	11,79
659,662	11,81
660,114	11,66
660,567	11,49
661,019	11,42
661,471	11,33
661,923	10,98
662,375	11,03
662,826	10,92
663,278	10,7
663,73	10,77
664,181	10,58
664,632	10,51
665,084	10,36
665,535	10,32
665,986	10,22
666,437	10,16
666,888	10,01
667,338	9,83
667,789	9,98
668,24	9,98
668,69	9,82
669,14	9,8
669,591	9,8
670,041	9,6
670,491	9,77
670,941	9,84
671,391	9,83
671,84	9,76
672,29	9,88
672,74	9,8
673,189	9,79
673,638	9,76
674,088	9,9
674,537	9,83
674,986	9,9
675,435	10,05
675,883	10,25
676,332	10,31
676,781	10,27
677,229	10,29
677,678	10,43
678,126	10,44
678,574	10,55
679,022	10,72
679,47	10,91
679,918	10,81
680,366	11,12
680,814	11,35
681,261	11,42
681,709	11,57
682,156	11,7
682,604	11,8
683,051	11,98
683,498	12,08
683,945	12,32
684,392	12,57
684,839	12,77
685,286	12,96
685,732	13,23
686,179	13,46
686,625	13,84
687,071	14,23
687,518	14,41
687,964	14,65
688,41	15,2
688,856	15,48
689,301	15,82
689,747	16,27
690,193	16,76
690,638	17,15
691,084	17,5
691,529	18,24
691,974	18,61
692,419	19,14
692,864	19,61
693,309	20,08
693,754	20,66
694,199	21,2
694,643	21,58
695,088	22,22
695,532	22,97
695,977	23,14
696,421	24,01
696,865	24,36
697,309	24,92
697,753	25,5
698,197	25,72
698,64	26,56
699,084	26,74
699,527	27,36
699,971	27,87
700,414	28,36
700,857	28,71
701,3	29,4
701,743	29,44
702,186	29,88
702,629	30,65
703,072	30,92
703,515	31,26
703,957	31,4
704,399	31,96
704,842	32,39
705,284	32,54
705,726	33,04
706,168	33,56
706,61	33,62
707,052	34,21
707,494	34,29
707,935	34,56
708,377	35,13
708,818	35,21
709,26	35,65
709,701	36
710,142	36,08
710,583	36,46
711,024	36,65
711,465	36,9
711,905	37,04
712,346	37,1
712,787	37,65
713,227	37,96
713,667	38,29
714,108	38,23
714,548	38,61
714,988	39,05
715,428	38,99
715,868	39,07
716,307	39,44
716,747	39,77
717,186	39,81
717,626	39,88
718,065	40,15
718,504	40,27
718,944	40,42
719,383	40,52
719,822	40,92
720,261	41,01
720,699	41,22
721,138	41,53
721,576	41,56
722,015	41,74
722,453	41,73
722,892	42,08
723,33	41,96
723,768	42,15
724,206	42,54
724,644	42,5
725,081	42,86
725,519	42,54
725,957	42,46
726,394	42,94
726,832	42,92
727,269	43,06
727,706	43,17
728,143	43,17
728,58	43,2
729,017	43,25
729,454	43,46
729,89	43,28
730,327	43,59
730,764	43,41
731,2	43,82
731,636	43,52
732,072	43,94
732,509	43,85
732,945	43,96
733,38	44,38
733,816	44,03
734,252	44,21
734,688	44,03
735,123	44,26
735,559	44,03
735,994	44,22
736,429	43,98
736,864	44,31
737,299	43,94
737,734	44,26
738,169	44,32
738,604	44,37
739,038	44,37
739,473	44,55
739,907	44,45
740,342	44,45
740,776	44,29
741,21	44,35
741,644	44,16
742,078	44,51
742,512	44,4
742,946	44,14
743,379	44,33
743,813	44,27
744,246	44,56
744,68	44,12
745,113	44,06
745,546	44,5
745,979	44,12
746,412	44,14
746,845	44,28
747,278	44,26
747,711	44,07
748,143	44,16
748,576	44,27
749,008	44,12
749,441	44,26
749,873	44
750,305	44,03
750,737	43,83
751,169	43,83
751,601	43,98
752,032	43,65
752,464	43,81
752,896	43,89
753,327	43,89
753,758	43,8
754,19	43,87
754,621	43,49
755,052	43,8
755,483	43,5
755,914	43,8
756,344	43,42
756,775	43,55
757,206	43,69
757,636	43,43
758,066	43,64
758,497	43,55
758,927	43,5
759,357	43,35
759,787	43,14
760,217	43,16
760,647	43,31
761,076	43,36
761,506	43,07
761,935	43,4
762,365	43,19
762,794	43,04
763,223	42,83
763,653	43,34
764,082	43,12
764,51	43,1
764,939	43,11
765,368	43,11
765,797	42,79
766,225	43,02
766,654	42,99
767,082	43,12
767,51	42,69
767,938	42,67
768,367	42,4
768,795	42,63
769,222	42,91
769,65	42,75
770,078	42,65
770,505	42,33
770,933	42,55
771,36	42,32
771,788	42,42
772,215	42,57
772,642	42,6
773,069	42,76
773,496	42,45
773,923	42,45
774,349	42,34
774,776	42,41
775,203	42,19
775,629	42,37
776,055	42,66
776,482	42,31
776,908	42,45
777,334	42,25
777,76	42,41
778,186	42,32
778,611	42,2
779,037	42,46
779,463	42,18
779,888	42,22
780,314	42,1
780,739	42,05
781,164	42,15
781,589	42,32
782,014	42,14
782,439	42,18
782,864	42,27
783,289	42,23
783,713	42,08
784,138	41,88
784,562	42,23
784,987	42,08
785,411	41,86
785,835	41,97
786,259	41,89
786,683	42,09
787,107	41,95
787,531	41,77
787,954	41,99
788,378	42,05
788,802	41,85
789,225	41,63
789,648	41,88
790,071	41,91
790,495	42,09
790,918	41,63
791,34	41,97
791,763	42,03
792,186	42,07
792,609	41,89
793,031	41,74
793,454	41,86
793,876	41,85
794,298	41,92
794,721	41,54
795,143	41,93
795,565	41,46
795,986	41,75
796,408	41,97
796,83	41,8
797,252	41,95
797,673	41,74
798,094	41,7
798,516	41,67
798,937	41,71
799,358	41,92
799,779	41,75
800,2	41,47
800,621	41,72
801,042	42,03
801,462	41,81
801,883	41,74
802,303	41,72
802,724	41,7
803,144	41,55
803,564	41,59
803,984	41,65
804,404	41,54
804,824	41,48
805,244	41,85
805,664	41,74
806,084	41,78
806,503	41,63
806,923	41,77
807,342	41,7
807,761	41,4
808,18	41,7
808,599	41,6
809,018	41,71
809,437	41,55
809,856	41,44
810,275	41,62
810,693	41,71
811,112	41,65
811,53	41,74
811,949	41,63
812,367	41,26
812,785	41,65
813,203	41,65
813,621	41,56
814,039	41,29
814,457	41,79
814,874	41,6
815,292	41,82
815,709	41,67
816,127	41,3
816,544	41,47
816,961	41,41
817,378	41,7
817,795	41,47
818,212	41,49
818,629	41,43
819,046	41,63
819,462	41,46
819,879	41,74
820,295	41,37
820,712	41,33
821,128	41,55
821,544	41,36
821,96	41,57
822,376	41,47
822,792	41,71
823,208	41,52
823,624	41,18
824,039	41,46
824,455	41,58
824,87	41,51
825,286	41,61
825,701	41,35
826,116	41,39
826,531	41,34
826,946	41,39
827,361	41,53
827,776	41,58
828,19	41,59
828,605	41,53
829,02	41,3
829,434	41,38
829,848	41,25
830,263	41,41
830,677	41,43
831,091	41,43
831,505	41,07
831,919	41,45
832,332	41,31
832,746	41,24
833,16	41,1
833,573	41,16
833,987	40,92
834,4	41,3
834,813	41,66
835,226	41,37
835,639	41,34
836,052	41,39
836,465	41,46
836,878	41,5
837,29	41,49
837,703	41,42
838,116	41,33
838,528	41,03
838,94	41,38
839,352	41,41
