Data from I_2__Relative__4__00180.txt Node

Date: Mon Jan 29 18:29:40 CET 2024
User: diatiterra
Spectrometer: HDX00911
Trigger mode: 0
Integration Time (sec): 6,000000E-3
Scans to average: 2
Nonlinearity correction enabled: false
Boxcar width: 0
Storing dark spectrum: false
XAxis mode: Wavelengths
Number of Pixels in Spectrum: 2068
>>>>>Begin Spectral Data<<<<<
194,468	75,49
195,025	44,25
195,581	74,47
196,138	53,85
196,694	58,05
197,251	55,56
197,807	53,2
198,363	52,73
198,919	51,25
199,474	58,57
200,03	47,06
200,586	50,34
201,141	53,56
201,696	41,18
202,251	48,71
202,806	48,12
203,361	52,63
203,916	54,79
204,471	55,99
205,025	47,86
205,58	48,03
206,134	52,59
206,688	50
207,242	41,16
207,796	46,1
208,35	44,77
208,904	36,27
209,457	42,6
210,011	48,25
210,564	51,04
211,117	45,77
211,67	51,06
212,223	51,03
212,776	53,93
213,329	47,08
213,881	48,21
214,434	46,21
214,986	48,82
215,538	44,32
216,09	41,97
216,642	53,33
217,194	49,67
217,746	43,77
218,297	46,98
218,849	42,99
219,4	55,94
219,951	48
220,502	44,25
221,053	46,08
221,604	53,36
222,155	51,44
222,705	50,5
223,256	48,56
223,806	49,32
224,356	57,97
224,906	52,96
225,456	53,79
226,006	44,63
226,556	47,81
227,106	53,15
227,655	47,74
228,204	56,91
228,754	56,9
229,303	45,42
229,852	53,27
230,401	47,67
230,949	54,86
231,498	51,12
232,047	48,48
232,595	47,87
233,143	50,38
233,691	52
234,239	51,12
234,787	46,85
235,335	52,04
235,883	50,54
236,43	62,22
236,978	48,36
237,525	56,72
238,072	45,76
238,619	41,78
239,166	53,87
239,713	48,33
240,26	44,94
240,806	42,91
241,353	56,89
241,899	44,98
242,445	55,59
242,991	52,61
243,537	53,14
244,083	50,55
244,629	47,64
245,174	54,48
245,72	47,16
246,265	48,06
246,81	48,54
247,355	41,54
247,9	46,71
248,445	53,1
248,99	49,13
249,534	49,05
250,079	61,19
250,623	48,14
251,168	50,67
251,712	56,74
252,256	45,51
252,8	59,03
253,343	53,82
253,887	47,62
254,43	57,99
254,974	56,64
255,517	56,71
256,06	51,03
256,603	55,09
257,146	47,47
257,689	55,06
258,232	53,64
258,774	48,34
259,317	45,42
259,859	50,92
260,401	56,44
260,943	49,63
261,485	57,09
262,027	51,03
262,569	50,75
263,11	53,79
263,652	48,9
264,193	45,71
264,734	56,75
265,275	50,2
265,816	58,27
266,357	55,76
266,898	56,66
267,438	48,63
267,979	52
268,519	54,87
269,059	50,35
269,6	49,47
270,14	51,16
270,68	56,7
271,219	52,63
271,759	51,87
272,298	49,45
272,838	58,53
273,377	49,26
273,916	51,26
274,455	44,06
274,994	54,68
275,533	49,15
276,072	49,25
276,61	50,17
277,149	46,38
277,687	55,16
278,225	50
278,763	52,17
279,301	53,58
279,839	50,36
280,377	54,38
280,914	49,82
281,452	62,6
281,989	51,54
282,526	53,76
283,064	47,57
283,601	61,36
284,137	45,26
284,674	53,21
285,211	46,76
285,747	51,19
286,284	41,4
286,82	53,19
287,356	48,8
287,892	51,23
288,428	44,07
288,964	51,99
289,5	46,6
290,035	51,44
290,571	48,13
291,106	45,09
291,641	53,64
292,176	57,14
292,711	48,62
293,246	51,26
293,781	47,21
294,315	44,12
294,85	55,84
295,384	51,11
295,918	45,64
296,453	46,29
296,987	47,24
297,52	48,63
298,054	53,31
298,588	51,18
299,121	50,18
299,655	47,37
300,188	46,01
300,721	46,55
301,254	53,38
301,787	47,97
302,32	54,17
302,853	43,21
303,385	47,99
303,918	50,53
304,45	52,51
304,982	49,4
305,514	49,08
306,046	41,75
306,578	44,29
307,11	47,21
307,641	44,36
308,173	47,58
308,704	47,89
309,236	46,07
309,767	48,75
310,298	47,04
310,829	49,81
311,359	49,82
311,89	45,2
312,421	46,38
312,951	48,73
313,481	59,44
314,012	52,38
314,542	47,26
315,072	46,18
315,601	54,45
316,131	47,08
316,661	59,58
317,19	44,84
317,72	54,95
318,249	45,27
318,778	47,91
319,307	52,36
319,836	56,04
320,365	49,19
320,893	48,58
321,422	51,87
321,95	48,15
322,479	59,52
323,007	53,26
323,535	51,7
324,063	57,84
324,591	49,33
325,118	48,95
325,646	50
326,173	53,93
326,701	52
327,228	43,45
327,755	49,82
328,282	59,62
328,809	56,3
329,336	51,56
329,862	47,69
330,389	48,81
330,915	55,32
331,441	45,08
331,968	50,86
332,494	48,49
333,02	41,61
333,545	53,07
334,071	57
334,597	45,27
335,122	47,49
335,648	51,65
336,173	49,5
336,698	51,71
337,223	53,58
337,748	53,68
338,272	44,55
338,797	52,1
339,322	42,19
339,846	53,52
340,37	44,69
340,894	55,14
341,419	48,99
341,942	46,98
342,466	50,51
342,99	42,15
343,514	46,1
344,037	41,97
344,56	45,45
345,084	47
345,607	43,77
346,13	49,85
346,653	45,6
347,175	51,61
347,698	40,18
348,221	40,99
348,743	43,73
349,265	45,54
349,787	42,86
350,309	43,25
350,831	45,37
351,353	44,71
351,875	43,82
352,397	44,35
352,918	45,48
353,439	49,59
353,961	50,7
354,482	48,03
355,003	47,99
355,524	45,15
356,044	50,66
356,565	44,89
357,086	44,02
357,606	44,1
358,126	48,18
358,646	49,25
359,167	46,19
359,687	48,35
360,206	44,82
360,726	40,79
361,246	45,3
361,765	38,82
362,285	47,16
362,804	45,78
363,323	46,33
363,842	44,52
364,361	43,07
364,88	43,46
365,398	40,84
365,917	44,56
366,435	40,77
366,954	40,68
367,472	43,28
367,99	42,92
368,508	42,58
369,026	39,53
369,544	42,36
370,061	41,65
370,579	37,34
371,096	40,51
371,613	42,2
372,131	41,55
372,648	44,95
373,165	43,67
373,681	40,63
374,198	44,59
374,715	44,44
375,231	35,14
375,747	40,83
376,264	40,73
376,78	44,02
377,296	43,51
377,812	41,99
378,327	36,15
378,843	38,55
379,359	40
379,874	36,07
380,389	38,65
380,905	39,39
381,42	38,25
381,935	40,93
382,449	39,01
382,964	38,98
383,479	40,36
383,993	36,78
384,508	39,34
385,022	38,86
385,536	35,01
386,05	38,52
386,564	38,82
387,078	33,82
387,592	37,92
388,105	33,04
388,619	35,4
389,132	35,84
389,645	33,52
390,158	32,2
390,671	36,45
391,184	32,55
391,697	33,51
392,21	32,12
392,722	32,31
393,235	32,73
393,747	31,31
394,259	32,13
394,771	30,78
395,283	31,21
395,795	30,28
396,307	29,74
396,818	29,73
397,33	27,46
397,841	29,74
398,353	31,23
398,864	27,58
399,375	25,61
399,886	27,65
400,397	27,41
400,907	27,76
401,418	25,29
401,928	25,75
402,439	26,57
402,949	24,89
403,459	25,22
403,969	23,91
404,479	24
404,989	23,14
405,498	22,07
406,008	21,28
406,517	22,69
407,027	21,21
407,536	19,47
408,045	19,28
408,554	19,62
409,063	18,08
409,572	17,85
410,08	17,36
410,589	16,98
411,097	16,96
411,606	16,43
412,114	15,94
412,622	15,32
413,13	15,68
413,638	14,4
414,145	15,15
414,653	13,96
415,16	13,98
415,668	12,98
416,175	13,19
416,682	13
417,189	12,91
417,696	12,08
418,203	12,96
418,71	11,53
419,216	11,2
419,723	11,9
420,229	12,43
420,735	11,19
421,242	11,67
421,748	12,8
422,254	11,19
422,759	11,06
423,265	11,17
423,771	11,01
424,276	11,52
424,781	11,49
425,287	10,91
425,792	11,18
426,297	11,11
426,802	10,65
427,306	11,15
427,811	10,73
428,316	10,96
428,82	11,27
429,324	10,93
429,829	10,69
430,333	10,8
430,837	10,21
431,34	10,4
431,844	10,37
432,348	10,29
432,851	9,96
433,355	10,11
433,858	10,2
434,361	10,13
434,864	9,9
435,367	10,43
435,87	10,06
436,373	10,55
436,876	9,69
437,378	9,89
437,88	10,08
438,383	9,83
438,885	9,93
439,387	9,67
439,889	9,69
440,391	10,04
440,892	9,92
441,394	9,64
441,896	10,25
442,397	9,83
442,898	9,72
443,399	10,3
443,9	10,17
444,401	10,1
444,902	10,02
445,403	9,87
445,903	10,56
446,404	9,95
446,904	9,94
447,405	9,92
447,905	10,13
448,405	10,31
448,905	10,04
449,404	10,62
449,904	10,04
450,404	10,03
450,903	10,28
451,403	10,24
451,902	10,27
452,401	10,52
452,9	10,01
453,399	10,84
453,898	10,15
454,396	10,24
454,895	10,27
455,393	9,89
455,892	10,18
456,39	10,73
456,888	10,22
457,386	10,4
457,884	10,34
458,382	10,51
458,879	10,65
459,377	10,26
459,874	10,46
460,372	10,35
460,869	10,38
461,366	10,4
461,863	10,49
462,36	10,71
462,857	10,35
463,353	10,54
463,85	10,39
464,346	10,3
464,843	10,32
465,339	10,42
465,835	10,44
466,331	10,31
466,827	10,26
467,323	10,48
467,818	10,34
468,314	10,5
468,809	10,18
469,305	10,65
469,8	10,48
470,295	10,13
470,79	10,37
471,285	10,54
471,78	10,3
472,274	10,38
472,769	10,41
473,263	10,41
473,758	10,65
474,252	10,3
474,746	10,31
475,24	10,63
475,734	10,49
476,228	10,4
476,721	10,3
477,215	10,24
477,708	10,59
478,202	10,29
478,695	10,36
479,188	10,43
479,681	10,48
480,174	10,43
480,667	10,43
481,159	10,44
481,652	10,67
482,144	10,69
482,637	10,65
483,129	11,05
483,621	10,53
484,113	10,95
484,605	10,5
485,097	10,7
485,588	10,72
486,08	10,71
486,571	10,69
487,063	10,9
487,554	10,67
488,045	10,69
488,536	10,7
489,027	10,89
489,518	10,99
490,008	10,86
490,499	10,83
490,989	10,69
491,48	10,8
491,97	10,88
492,46	10,78
492,95	11,48
493,44	11,02
493,93	11,1
494,419	10,99
494,909	11,1
495,398	11,33
495,888	10,87
496,377	11,19
496,866	11,66
497,355	11,34
497,844	11,61
498,333	11,5
498,821	11,47
499,31	11,94
499,798	11,4
500,287	11,74
500,775	11,83
501,263	12
501,751	12,09
502,239	12,61
502,727	12,44
503,215	12,04
503,702	12,47
504,19	12,85
504,677	12,7
505,164	12,94
505,651	13,24
506,139	13,03
506,625	13,46
507,112	13,46
507,599	13,79
508,086	13,73
508,572	14,02
509,058	14,18
509,545	14,32
510,031	14,56
510,517	14,82
511,003	14,91
511,489	15,44
511,974	15,54
512,46	15,74
512,946	15,94
513,431	15,92
513,916	16,01
514,401	16,33
514,887	16,82
515,371	17,03
515,856	17,37
516,341	17,76
516,826	17,77
517,31	18,18
517,795	18,67
518,279	18,86
518,763	19,29
519,247	18,95
519,731	19,57
520,215	20,6
520,699	20,47
521,182	20,86
521,666	20,86
522,149	21,27
522,633	21,71
523,116	21,9
523,599	22,37
524,082	22,54
524,565	22,73
525,048	22,75
525,53	23,73
526,013	23,7
526,495	24,15
526,978	24,18
527,46	24,66
527,942	24,56
528,424	25,05
528,906	25,1
529,388	25,6
529,87	25,97
530,351	25,66
530,833	25,97
531,314	26,16
531,795	26,39
532,277	26,59
532,758	26,55
533,238	27,04
533,719	27,37
534,2	27,44
534,681	27,02
535,161	27,7
535,642	27,22
536,122	27,25
536,602	27,7
537,082	27,56
537,562	28,16
538,042	28,11
538,522	28,02
539,001	28,08
539,481	28,13
539,96	28,12
540,44	27,97
540,919	28,29
541,398	28,83
541,877	28,46
542,356	28,66
542,835	28,43
543,313	28,42
543,792	28,41
544,27	28,62
544,749	28,57
545,227	28,48
545,705	28,55
546,183	28,69
546,661	28,8
547,139	28,78
547,616	28,78
548,094	29,1
548,571	28,51
549,049	29,21
549,526	28,94
550,003	29,24
550,48	28,87
550,957	29,25
551,434	29,12
551,911	29,35
552,387	29,1
552,864	29,22
553,34	29,22
553,817	29,26
554,293	29,29
554,769	29,11
555,245	29,33
555,721	29,21
556,197	29,29
556,672	28,96
557,148	28,82
557,623	29,39
558,099	28,5
558,574	28,86
559,049	28,88
559,524	28,92
559,999	28,93
560,474	28,57
560,948	28,85
561,423	28,91
561,897	28,96
562,372	28,65
562,846	28,35
563,32	28,54
563,794	28,27
564,268	28,01
564,742	27,73
565,216	28,05
565,69	27,7
566,163	27,67
566,636	27,67
567,11	27,43
567,583	26,97
568,056	27,1
568,529	26,69
569,002	26,56
569,475	26,38
569,947	26,25
570,42	26,08
570,892	25,89
571,365	26,07
571,837	25,79
572,309	25,84
572,781	24,95
573,253	25,18
573,725	24,86
574,197	24,61
574,668	24,42
575,14	24,8
575,611	24,14
576,082	24
576,554	23,88
577,025	23,69
577,496	23,65
577,967	23,49
578,437	23,36
578,908	23,25
579,379	22,91
579,849	22,95
580,319	22,75
580,79	22,75
581,26	22,57
581,73	22,61
582,2	22,33
582,669	22,25
583,139	22,32
583,609	22,04
584,078	21,96
584,548	21,59
585,017	21,75
585,486	21,37
585,955	21,66
586,424	21,43
586,893	21,3
587,362	21,21
587,83	21,19
588,299	21,09
588,767	21,28
589,236	20,74
589,704	21,09
590,172	20,88
590,64	20,34
591,108	20,63
591,576	20,7
592,043	20,62
592,511	20,28
592,978	20,49
593,446	20,5
593,913	20,21
594,38	20,38
594,847	20,14
595,314	20,2
595,781	20,51
596,248	20,28
596,715	20,2
597,181	19,95
597,647	19,92
598,114	19,85
598,58	20,05
599,046	19,82
599,512	19,71
599,978	19,86
600,444	19,68
600,91	19,56
601,375	19,71
601,841	19,67
602,306	19,8
602,771	19,38
603,236	19,58
603,702	19,49
604,167	19,47
604,631	19,36
605,096	19,5
605,561	19,3
606,025	19,06
606,49	19,17
606,954	18,71
607,418	18,97
607,882	18,98
608,347	18,84
608,81	18,86
609,274	18,64
609,738	18,66
610,202	18,45
610,665	18,41
611,128	18,21
611,592	17,96
612,055	18,17
612,518	18,1
612,981	17,9
613,444	17,42
613,907	17,69
614,369	17,53
614,832	17,29
615,294	17,42
615,757	17,22
616,219	17,08
616,681	16,91
617,143	17,07
617,605	17
618,067	16,89
618,529	16,75
618,99	16,76
619,452	16,66
619,913	16,7
620,375	16,56
620,836	16,48
621,297	16,56
621,758	16,56
622,219	16,23
622,68	16,21
623,14	16,31
623,601	16,24
624,061	16,13
624,522	16,05
624,982	16,08
625,442	16,07
625,902	15,97
626,362	15,75
626,822	15,85
627,282	15,77
627,742	15,88
628,201	15,95
628,661	15,92
629,12	15,87
629,579	15,67
630,038	15,71
630,497	15,63
630,956	15,56
631,415	15,6
631,874	15,71
632,332	15,62
632,791	15,63
633,249	15,32
633,708	15,5
634,166	15,36
634,624	15,33
635,082	15,42
635,54	15,28
635,998	15,2
636,455	14,9
636,913	15,07
637,37	15,03
637,828	14,92
638,285	14,73
638,742	14,73
639,199	14,53
639,656	14,38
640,113	14,34
640,57	14,3
641,027	14,17
641,483	14,08
641,94	13,91
642,396	13,86
642,852	13,89
643,309	13,76
643,765	13,46
644,221	13,08
644,676	13,31
645,132	13,27
645,588	13,07
646,043	13,12
646,499	12,89
646,954	12,83
647,409	12,48
647,864	12,81
648,319	12,52
648,774	12,31
649,229	12,38
649,684	12,39
650,139	12,07
650,593	12,14
651,047	12,19
651,502	12,08
651,956	11,89
652,41	11,98
652,864	11,85
653,318	11,78
653,772	11,68
654,225	11,79
654,679	11,73
655,133	11,72
655,586	11,64
656,039	11,44
656,492	11,51
656,946	11,32
657,399	11,29
657,851	11,16
658,304	11,19
658,757	11,16
659,209	10,99
659,662	11,03
660,114	10,9
660,567	10,81
661,019	10,68
661,471	10,78
661,923	10,52
662,375	10,6
662,826	10,44
663,278	10,5
663,73	10,42
664,181	10,48
664,632	10,39
665,084	10,45
665,535	10,22
665,986	10,27
666,437	10,21
666,888	10,24
667,338	10,25
667,789	10,21
668,24	10,19
668,69	10,23
669,14	10,29
669,591	10,24
670,041	10,12
670,491	10,41
670,941	10,14
671,391	10,37
671,84	10,31
672,29	10,25
672,74	10,45
673,189	10,41
673,638	10,46
674,088	10,56
674,537	10,64
674,986	10,56
675,435	10,69
675,883	10,77
676,332	10,8
676,781	10,99
677,229	10,84
677,678	10,98
678,126	11,11
678,574	11,26
679,022	11,16
679,47	11,39
679,918	11,51
680,366	11,57
680,814	11,53
681,261	11,64
681,709	11,77
682,156	11,89
682,604	12,07
683,051	12,05
683,498	12,14
683,945	12,14
684,392	12,39
684,839	12,5
685,286	12,59
685,732	12,78
686,179	12,69
686,625	12,98
687,071	13,06
687,518	13,12
687,964	13,36
688,41	13,5
688,856	13,68
689,301	13,86
689,747	14,24
690,193	14,37
690,638	14,65
691,084	15,03
691,529	15,26
691,974	15,77
692,419	16,09
692,864	16,53
693,309	16,93
693,754	17,48
694,199	17,98
694,643	18,35
695,088	18,9
695,532	19,39
695,977	19,96
696,421	20,45
696,865	20,98
697,309	21,53
697,753	21,9
698,197	22,49
698,64	23,21
699,084	23,65
699,527	24,09
699,971	24,75
700,414	25,35
700,857	25,89
701,3	26,35
701,743	26,84
702,186	27,39
702,629	28,14
703,072	28,17
703,515	29,05
703,957	29,64
704,399	30
704,842	30,47
705,284	30,92
705,726	31,46
706,168	32,03
706,61	32,42
707,052	32,96
707,494	33,17
707,935	33,66
708,377	34,2
708,818	34,67
709,26	35,08
709,701	35,35
710,142	35,8
710,583	36,17
711,024	36,53
711,465	37,17
711,905	37,5
712,346	37,59
712,787	38,2
713,227	38,65
713,667	38,91
714,108	39,47
714,548	39,56
714,988	40,14
715,428	40,03
715,868	40,7
716,307	41
716,747	41,5
717,186	41,6
717,626	42,23
718,065	42,27
718,504	42,39
718,944	42,81
719,383	43,23
719,822	43,66
720,261	44,07
720,699	44,14
721,138	44,48
721,576	44,87
722,015	44,92
722,453	44,9
722,892	45,49
723,33	45,41
723,768	45,89
724,206	46,2
724,644	46,43
725,081	46,19
725,519	46,68
725,957	46,65
726,394	46,99
726,832	47,37
727,269	47,28
727,706	47,78
728,143	47,8
728,58	48,19
729,017	48,01
729,454	48,03
729,89	48,2
730,327	48,39
730,764	48,41
731,2	48,77
731,636	48,86
732,072	48,72
732,509	49,24
732,945	49,37
733,38	49,38
733,816	49,35
734,252	49,49
734,688	49,51
735,123	49,34
735,559	49,8
735,994	49,56
736,429	49,69
736,864	50,19
737,299	49,68
737,734	50,09
738,169	50,22
738,604	50,23
739,038	50,05
739,473	50,3
739,907	50,35
740,342	50,18
740,776	50,07
741,21	50,22
741,644	50,44
742,078	50,36
742,512	50,6
742,946	50,42
743,379	50,38
743,813	50,05
744,246	50,5
744,68	50,41
745,113	50,27
745,546	50,4
745,979	50,09
746,412	50,19
746,845	50,11
747,278	50,01
747,711	50,56
748,143	50,38
748,576	50,44
749,008	50,41
749,441	50,18
749,873	50,04
750,305	50,15
750,737	49,96
751,169	50,09
751,601	50,23
752,032	49,9
752,464	49,86
752,896	49,88
753,327	50,2
753,758	50,06
754,19	49,78
754,621	49,72
755,052	49,84
755,483	49,57
755,914	50,01
756,344	49,76
756,775	49,52
757,206	49,85
757,636	49,54
758,066	49,74
758,497	49,54
758,927	49,7
759,357	49,68
759,787	49,76
760,217	49,38
760,647	49,47
761,076	49,55
761,506	49,64
761,935	49,69
762,365	49,23
762,794	49,3
763,223	49,22
763,653	49,54
764,082	49,54
764,51	49,18
764,939	49,03
765,368	49,29
765,797	48,93
766,225	49,25
766,654	48,84
767,082	49,41
767,51	48,69
767,938	49,22
768,367	49,07
768,795	48,69
769,222	49,01
769,65	48,84
770,078	48,67
770,505	49,01
770,933	48,91
771,36	48,47
771,788	48,84
772,215	48,43
772,642	48,76
773,069	48,67
773,496	48,56
773,923	48,7
774,349	48,79
774,776	48,4
775,203	48,41
775,629	48,76
776,055	48,64
776,482	48,6
776,908	48,5
777,334	48,41
777,76	48,49
778,186	48,05
778,611	48,46
779,037	48,54
779,463	48,64
779,888	48,25
780,314	48,39
780,739	48,27
781,164	48,26
781,589	48,38
782,014	48,38
782,439	48,49
782,864	48,21
783,289	48,39
783,713	48,1
784,138	48,62
784,562	48,32
784,987	48,2
785,411	47,98
785,835	48,09
786,259	47,71
786,683	47,89
787,107	48,19
787,531	48,16
787,954	48,26
788,378	47,9
788,802	47,98
789,225	48,1
789,648	48,08
790,071	48,11
790,495	48,02
790,918	48
791,34	48,3
791,763	47,92
792,186	48,04
792,609	47,95
793,031	48,02
793,454	47,94
793,876	48,14
794,298	48,04
794,721	47,87
795,143	47,93
795,565	47,77
795,986	47,8
796,408	48,1
796,83	47,86
797,252	47,82
797,673	48,15
798,094	47,99
798,516	48,07
798,937	47,47
799,358	48,1
799,779	47,66
800,2	47,88
800,621	47,61
801,042	48,16
801,462	48,05
801,883	47,85
802,303	47,87
802,724	47,93
803,144	48
803,564	47,91
803,984	47,95
804,404	47,54
804,824	47,68
805,244	48,01
805,664	47,95
806,084	47,66
806,503	47,58
806,923	47,55
807,342	47,53
807,761	47,67
808,18	47,82
808,599	47,59
809,018	47,86
809,437	47,53
809,856	47,55
810,275	47,83
810,693	48,02
811,112	47,61
811,53	47,72
811,949	47,87
812,367	47,72
812,785	47,89
813,203	47,49
813,621	47,54
814,039	47,53
814,457	47,62
814,874	47,87
815,292	47,96
815,709	47,83
816,127	47,39
816,544	47,67
816,961	47,5
817,378	47,65
817,795	47,55
818,212	47,9
818,629	47,54
819,046	47,84
819,462	47,7
819,879	47,51
820,295	47,33
820,712	47,63
821,128	47,71
821,544	47,59
821,96	47,59
822,376	47,46
822,792	47,49
823,208	47,39
823,624	47,69
824,039	47,28
824,455	47,96
824,87	48,01
825,286	47,39
825,701	47,88
826,116	47,51
826,531	47,57
826,946	47,38
827,361	47,63
827,776	47,74
828,19	47,52
828,605	47,56
829,02	47,41
829,434	47,43
829,848	47,46
830,263	47,61
830,677	47,45
831,091	47,49
831,505	47,66
831,919	47,55
832,332	47,46
832,746	47,68
833,16	47,36
833,573	47,43
833,987	47,34
834,4	47,49
834,813	47,66
835,226	47,55
