Data from I_4__Relative__9__00196.txt Node

Date: Mon Jan 29 18:31:34 CET 2024
User: diatiterra
Spectrometer: HDX00911
Trigger mode: 0
Integration Time (sec): 6,000000E-3
Scans to average: 2
Nonlinearity correction enabled: false
Boxcar width: 0
Storing dark spectrum: false
XAxis mode: Wavelengths
Number of Pixels in Spectrum: 2068
>>>>>Begin Spectral Data<<<<<
194,468	55,88
195,025	57,52
195,581	62,77
196,138	43,08
196,694	58,05
197,251	47,11
197,807	50
198,363	44
198,919	43,42
199,474	38,93
200,03	43,75
200,586	43,88
201,141	53,56
201,696	39,79
202,251	45,76
202,806	45,11
203,361	39,65
203,916	58,9
204,471	39,44
205,025	48,21
205,58	40,86
206,134	51,11
206,688	47,46
207,242	47,62
207,796	42,71
208,35	44,77
208,904	39,32
209,457	41,16
210,011	47,55
210,564	46,18
211,117	46,48
211,67	49,65
212,223	35,27
212,776	48,69
213,329	35,05
213,881	40
214,434	44,83
214,986	42,76
215,538	38,83
216,09	38,36
216,642	45,56
217,194	43,05
217,746	44,11
218,297	43,62
218,849	40,81
219,4	48,25
219,951	54,18
220,502	40,77
221,053	40,13
221,604	47,65
222,155	46,5
222,705	48,83
223,256	47,84
223,806	37,41
224,356	50,36
224,906	40,37
225,456	34,14
226,006	40,27
226,556	46,35
227,106	46,85
227,655	44,25
228,204	51,64
228,754	44,48
229,303	47,12
229,852	40,52
230,401	39,43
230,949	64,59
231,498	46,27
232,047	45,45
232,595	51,77
233,143	55,3
233,691	49,6
234,239	41,79
234,787	38,46
235,335	45,58
235,883	43,37
236,43	54,81
236,978	42,18
237,525	52,24
238,072	43,17
238,619	41,1
239,166	45,12
239,713	50,93
240,26	47,19
240,806	46,45
241,353	51,24
241,899	50,81
242,445	47,9
242,991	51,57
243,537	47,85
244,083	53,09
244,629	49,66
245,174	52,24
245,72	43,14
246,265	46,29
246,81	47,45
247,355	41,54
247,9	46,71
248,445	45,52
248,99	40,14
249,534	40,19
250,079	45,15
250,623	46,44
251,168	45,64
251,712	51,42
252,256	49,83
252,8	50,35
253,343	41,08
253,887	47,96
254,43	53,9
254,974	49,3
255,517	46,98
256,06	40,75
256,603	48,68
257,146	45,79
257,689	42,41
258,232	46,36
258,774	50,55
259,317	46,89
259,859	40,22
260,401	49,62
260,943	52,99
261,485	45,04
262,027	50,69
262,569	50,75
263,11	46,57
263,652	38,97
264,193	42,5
264,734	50,4
265,275	47,39
265,816	45,32
266,357	50,36
266,898	43
267,438	44,31
267,979	39,27
268,519	51,26
269,059	48,94
269,6	42,81
270,14	44,55
270,68	46,36
271,219	53,68
271,759	43,66
272,298	44,73
272,838	46,12
273,377	45,93
273,916	35,74
274,455	45,59
274,994	39,93
275,533	43
276,072	39,1
276,61	40,61
277,149	36,59
277,687	45,91
278,225	45,89
278,763	45,65
279,301	44,15
279,839	52,17
280,377	44,16
280,914	38,83
281,452	41,46
281,989	45,39
282,526	44,09
283,064	44,1
283,601	47,35
284,137	42,7
284,674	42,64
285,211	35,97
285,747	45,76
286,284	35,79
286,82	53,55
287,356	45,02
287,892	46,32
288,428	45,08
288,964	44,77
289,5	52,04
290,035	40,65
290,571	45,9
291,106	46,91
291,641	42,53
292,176	40,98
292,711	46,21
293,246	38,27
293,781	46,1
294,315	40,07
294,85	50
295,384	51,85
295,918	47,04
296,453	43,46
296,987	51,72
297,52	43,15
298,054	44,49
298,588	44,49
299,121	34,8
299,655	45,96
300,188	42,97
300,721	49,66
301,254	46,62
301,787	43,5
302,32	41,67
302,853	39,72
303,385	42,86
303,918	44,21
304,45	49,03
304,982	45,02
305,514	43,54
306,046	42,11
306,578	50,36
307,11	48,33
307,641	43,64
308,173	39,78
308,704	46,36
309,236	47,19
309,767	47,5
310,298	40,07
310,829	51,33
311,359	47,33
311,89	43,77
312,421	47,1
312,951	48,73
313,481	49
314,012	44,69
314,542	47,26
315,072	45,45
315,601	46,98
316,131	43,43
316,661	53,33
317,19	45,91
317,72	42,12
318,249	48,31
318,778	45,25
319,307	38,85
319,836	46,31
320,365	45,28
320,893	44,33
321,422	42,54
321,95	47,04
322,479	52,94
323,007	50,72
323,535	51,7
324,063	47,76
324,591	33
325,118	46,15
325,646	47,31
326,173	56,79
326,701	50,55
327,228	47,28
327,755	40,5
328,282	49,06
328,809	53,33
329,336	42,21
329,862	54,62
330,389	45,73
330,915	46,45
331,441	38,64
331,968	40,89
332,494	43,48
333,02	45,99
333,545	39,71
334,071	46
334,597	43,58
335,122	44,48
335,648	48,72
336,173	44,88
336,698	49,32
337,223	48,81
337,748	43,16
338,272	41,25
338,797	42,07
339,322	43,52
339,846	41,41
340,37	35,53
340,894	47,95
341,419	42,62
341,942	37,92
342,466	41,98
342,99	39,38
343,514	36,69
344,037	42,3
344,56	44,51
345,084	28,71
345,607	47,42
346,13	41,23
346,653	39,62
347,175	43,23
347,698	36,9
348,221	37,21
348,743	39,07
349,265	36,01
349,787	35,71
350,309	37,47
350,831	29,85
351,353	39,42
351,875	33,71
352,397	38,84
352,918	40,11
353,439	42,01
353,961	38,87
354,482	36,8
355,003	37
355,524	38,27
356,044	32,72
356,565	35,41
357,086	35,62
357,606	29,88
358,126	36,5
358,646	31,34
359,167	38,57
359,687	35,38
360,206	33,25
360,726	31,59
361,246	33,25
361,765	32,02
362,285	37,68
362,804	33,78
363,323	27,75
363,842	33,1
364,361	32,68
364,88	34,6
365,398	31,35
365,917	35,73
366,435	31,97
366,954	31,46
367,472	36,67
367,99	32,03
368,508	34,57
369,026	31,01
369,544	32,73
370,061	36,73
370,579	29,64
371,096	30,11
371,613	33,03
372,131	31,51
372,648	31,23
373,165	33,45
373,681	31,7
374,198	29,84
374,715	31,94
375,231	28,78
375,747	32,89
376,264	28,27
376,78	31,74
377,296	31,01
377,812	27,15
378,327	29,19
378,843	30,72
379,359	30,14
379,874	29,37
380,389	29,71
380,905	30,9
381,42	25,85
381,935	30,27
382,449	28,46
382,964	33,86
383,479	27,84
383,993	27,88
384,508	27,63
385,022	26,6
385,536	25,84
386,05	25,39
386,564	28,12
387,078	25,76
387,592	25
388,105	26,35
388,619	23,3
389,132	25,38
389,645	25,7
390,158	23,36
390,671	24,84
391,184	22,48
391,697	22,57
392,21	22,3
392,722	21,75
393,235	22,91
393,747	21,98
394,259	23,27
394,771	20,87
395,283	19,75
395,795	21,51
396,307	19,52
396,818	23,52
397,33	20,21
397,841	19,2
398,353	20,62
398,864	19,77
399,375	19,38
399,886	19,97
400,397	19,22
400,907	18,82
401,418	17,4
401,928	17,64
402,439	18,02
402,949	16,82
403,459	17,59
403,969	17,25
404,479	15,71
404,989	16,32
405,498	16,53
406,008	14,19
406,517	13,58
407,027	14,94
407,536	12,68
408,045	13,42
408,554	13,23
409,063	11,8
409,572	11,94
410,08	11,65
410,589	11,62
411,097	11,42
411,606	10,54
412,114	10,79
412,622	10,26
413,13	10,42
413,638	9,32
414,145	9,04
414,653	8,67
415,16	8,57
415,668	8,87
416,175	9,19
416,682	8,46
417,189	8,37
417,696	8,51
418,203	8,03
418,71	8,05
419,216	7,42
419,723	7,87
420,229	8,05
420,735	7,76
421,242	7,6
421,748	7,9
422,254	7,07
422,759	7,65
423,265	7,45
423,771	7,07
424,276	7,8
424,781	7,44
425,287	7,09
425,792	7,39
426,297	7,66
426,802	7,04
427,306	7,05
427,811	6,89
428,316	6,81
428,82	6,99
429,324	6,82
429,829	6,85
430,333	6,65
430,837	6,8
431,34	6,66
431,844	6,42
432,348	6,32
432,851	6,05
433,355	6,49
433,858	6,09
434,361	6,46
434,864	6,66
435,367	6,39
435,87	6,55
436,373	6,42
436,876	6,67
437,378	6,44
437,88	6,45
438,383	6,4
438,885	6,58
439,387	6,18
439,889	5,99
440,391	6,52
440,892	6,25
441,394	6,19
441,896	6,41
442,397	6,61
442,898	6,27
443,399	6,82
443,9	6,61
444,401	6,58
444,902	6,24
445,403	6,2
445,903	6,51
446,404	6,36
446,904	6,23
447,405	6,31
447,905	6,67
448,405	6,5
448,905	6,27
449,404	6,5
449,904	6,36
450,404	6,18
450,903	6,35
451,403	6,49
451,902	6,73
452,401	6,68
452,9	6,36
453,399	6,58
453,898	6,3
454,396	6,43
454,895	6,43
455,393	6,56
455,892	6,39
456,39	6,66
456,888	6,48
457,386	6,51
457,884	6,62
458,382	6,78
458,879	6,66
459,377	6,14
459,874	6,76
460,372	6,24
460,869	6,4
461,366	6,81
461,863	6,6
462,36	6,37
462,857	6,38
463,353	6,67
463,85	6,5
464,346	6,33
464,843	6,94
465,339	6,66
465,835	6,48
466,331	6,48
466,827	6,46
467,323	6,17
467,818	6,91
468,314	6,72
468,809	6,56
469,305	6,43
469,8	6,35
470,295	6,84
470,79	6,51
471,285	6,59
471,78	6,21
472,274	6,33
472,769	6,56
473,263	6,26
473,758	6,69
474,252	6,56
474,746	6,5
475,24	6,68
475,734	6,79
476,228	6,54
476,721	6,41
477,215	6,42
477,708	6,71
478,202	6,82
478,695	6,4
479,188	6,45
479,681	6,44
480,174	6,44
480,667	6,77
481,159	6,66
481,652	6,6
482,144	6,38
482,637	6,56
483,129	6,73
483,621	6,45
484,113	6,65
484,605	6,86
485,097	6,52
485,588	6,71
486,08	6,79
486,571	6,78
487,063	6,84
487,554	6,88
488,045	6,86
488,536	6,78
489,027	6,83
489,518	6,51
490,008	6,99
490,499	6,84
490,989	6,88
491,48	6,94
491,97	7,03
492,46	6,78
492,95	6,88
493,44	7,12
493,93	6,95
494,419	7,08
494,909	7,19
495,398	7,26
495,888	7,55
496,377	7,31
496,866	7,27
497,355	7,45
497,844	7,32
498,333	7,36
498,821	7,33
499,31	7,65
499,798	7,81
500,287	7,74
500,775	7,71
501,263	7,56
501,751	7,89
502,239	8,01
502,727	7,97
503,215	8,09
503,702	8,16
504,19	8,42
504,677	8,23
505,164	8,55
505,651	8,97
506,139	8,91
506,625	9,04
507,112	9,03
507,599	9,28
508,086	9,39
508,572	9,4
509,058	9,66
509,545	9,9
510,031	9,94
510,517	10,12
511,003	10,34
511,489	10,37
511,974	10,55
512,46	11,02
512,946	11,13
513,431	11,31
513,916	11,56
514,401	11,86
514,887	11,93
515,371	12,09
515,856	12,37
516,341	13,04
516,826	13,16
517,31	13,27
517,795	13,54
518,279	13,89
518,763	13,92
519,247	14,47
519,731	14,74
520,215	15,22
520,699	15,49
521,182	15,47
521,666	16,15
522,149	15,93
522,633	16,21
523,116	16,46
523,599	16,8
524,082	17,16
524,565	17,34
525,048	17,53
525,53	17,89
526,013	17,97
526,495	18,81
526,978	18,7
527,46	18,98
527,942	19,15
528,424	19,61
528,906	19,64
529,388	19,6
529,87	20,09
530,351	20,29
530,833	20,48
531,314	20,59
531,795	20,87
532,277	20,85
532,758	20,69
533,238	21,23
533,719	21,3
534,2	21,42
534,681	21,18
535,161	21,5
535,642	21,26
536,122	21,87
536,602	21,88
537,082	21,9
537,562	22,03
538,042	21,89
538,522	22,23
539,001	21,97
539,481	21,87
539,96	22,2
540,44	22,36
540,919	22,5
541,398	22,42
541,877	22,45
542,356	22,79
542,835	22,54
543,313	22,57
543,792	22,41
544,27	22,36
544,749	23,05
545,227	22,36
545,705	22,64
546,183	22,83
546,661	23,05
547,139	22,93
547,616	22,83
548,094	23,2
548,571	23,12
549,049	23,23
549,526	22,95
550,003	23,2
550,48	23,21
550,957	23,13
551,434	23,07
551,911	23,07
552,387	23,21
552,864	23,31
553,34	23,22
553,817	23,01
554,293	23,11
554,769	23,24
555,245	23,26
555,721	23,49
556,197	23,07
556,672	23,25
557,148	23,03
557,623	23,23
558,099	23,14
558,574	22,9
559,049	22,95
559,524	22,99
559,999	22,59
560,474	22,46
560,948	22,75
561,423	22,81
561,897	22,6
562,372	22,63
562,846	22,07
563,32	22,48
563,794	21,77
564,268	21,87
564,742	21,87
565,216	21,62
565,69	21,75
566,163	21,54
566,636	21,34
567,11	21,53
567,583	21,23
568,056	20,88
568,529	20,75
569,002	20,77
569,475	20,49
569,947	20,27
570,42	19,89
570,892	19,93
571,365	19,92
571,837	19,59
572,309	19,71
572,781	19,42
573,253	19,15
573,725	18,94
574,197	18,89
574,668	18,71
575,14	18,56
575,611	18,26
576,082	18,14
576,554	18,41
577,025	18
577,496	18,03
577,967	17,81
578,437	17,78
578,908	17,43
579,379	17,16
579,849	17,24
580,319	17,08
580,79	17,05
581,26	17
581,73	17,04
582,2	16,65
582,669	16,4
583,139	16,33
583,609	16,38
584,078	16,42
584,548	16
585,017	16,02
585,486	15,72
585,955	16,09
586,424	16,06
586,893	15,83
587,362	15,76
587,83	15,87
588,299	15,69
588,767	15,53
589,236	15,34
589,704	15,36
590,172	15,4
590,64	15,2
591,108	15,23
591,576	15,2
592,043	15,04
592,511	15,07
592,978	14,89
593,446	14,93
593,913	14,86
594,38	14,88
594,847	14,8
595,314	14,81
595,781	14,87
596,248	14,61
596,715	14,72
597,181	14,52
597,647	14,71
598,114	14,45
598,58	14,36
599,046	14,68
599,512	14,64
599,978	14,6
600,444	14,31
600,91	14,38
601,375	14,3
601,841	14,25
602,306	14,18
602,771	14,16
603,236	14,29
603,702	14,22
604,167	14,12
604,631	13,97
605,096	13,95
605,561	13,78
606,025	13,74
606,49	13,57
606,954	13,62
607,418	13,79
607,882	13,59
608,347	13,55
608,81	13,53
609,274	13,32
609,738	13,21
610,202	13,27
610,665	13,05
611,128	13,1
611,592	13
612,055	12,96
612,518	12,67
612,981	12,65
613,444	12,57
613,907	12,4
614,369	12,26
614,832	12,23
615,294	12,33
615,757	12,12
616,219	11,97
616,681	11,97
617,143	11,81
617,605	11,83
618,067	11,9
618,529	11,65
618,99	11,58
619,452	11,61
619,913	11,64
620,375	11,5
620,836	11,39
621,297	11,43
621,758	11,26
622,219	11,49
622,68	11,21
623,14	11,16
623,601	11,33
624,061	11,12
624,522	11,15
624,982	11,32
625,442	11,06
625,902	11,05
626,362	11,12
626,822	11,07
627,282	10,94
627,742	11,09
628,201	11,04
628,661	10,94
629,12	10,84
629,579	10,85
630,038	10,75
630,497	10,83
630,956	10,8
631,415	10,77
631,874	10,71
632,332	10,79
632,791	10,77
633,249	10,65
633,708	10,72
634,166	10,58
634,624	10,64
635,082	10,45
635,54	10,32
635,998	10,48
636,455	10,31
636,913	10,28
637,37	10,15
637,828	10,2
638,285	10,11
638,742	9,89
639,199	10,04
639,656	9,89
640,113	9,86
640,57	9,46
641,027	9,61
641,483	9,5
641,94	9,31
642,396	9,31
642,852	9,28
643,309	9,1
643,765	8,93
644,221	8,87
644,676	8,95
645,132	8,72
645,588	8,79
646,043	8,66
646,499	8,58
646,954	8,4
647,409	8,36
647,864	8,21
648,319	8,25
648,774	8,06
649,229	8,14
649,684	8,15
650,139	8
650,593	7,92
651,047	7,93
651,502	7,79
651,956	7,78
652,41	7,78
652,864	7,72
653,318	7,75
653,772	7,67
654,225	7,6
654,679	7,48
655,133	7,61
655,586	7,58
656,039	7,31
656,492	7,42
656,946	7,4
657,399	7,24
657,851	7,07
658,304	7,12
658,757	7,13
659,209	7,13
659,662	7,05
660,114	6,99
660,567	6,94
661,019	6,83
661,471	6,91
661,923	6,73
662,375	6,75
662,826	6,68
663,278	6,63
663,73	6,59
664,181	6,46
664,632	6,54
665,084	6,54
665,535	6,47
665,986	6,46
666,437	6,49
666,888	6,44
667,338	6,52
667,789	6,52
668,24	6,48
668,69	6,65
669,14	6,48
669,591	6,57
670,041	6,56
670,491	6,58
670,941	6,7
671,391	6,64
671,84	6,68
672,29	6,68
672,74	6,71
673,189	6,76
673,638	6,83
674,088	6,92
674,537	7
674,986	6,94
675,435	7,07
675,883	7,2
676,332	7,1
676,781	7,25
677,229	7,42
677,678	7,53
678,126	7,57
678,574	7,64
679,022	7,77
679,47	7,77
679,918	7,87
680,366	7,94
680,814	7,95
681,261	8,16
681,709	8,33
682,156	8,34
682,604	8,35
683,051	8,42
683,498	8,56
683,945	8,7
684,392	8,96
684,839	8,89
685,286	9,02
685,732	9,11
686,179	9,12
686,625	9,22
687,071	9,28
687,518	9,47
687,964	9,66
688,41	9,77
688,856	10,03
689,301	10,15
689,747	10,42
690,193	10,57
690,638	10,78
691,084	11,03
691,529	11,44
691,974	11,76
692,419	11,93
692,864	12,42
693,309	12,89
693,754	13,17
694,199	13,63
694,643	13,97
695,088	14,57
695,532	14,83
695,977	15,34
696,421	15,83
696,865	16,37
697,309	17,1
697,753	17,39
698,197	17,91
698,64	18,54
699,084	18,77
699,527	19,53
699,971	20,16
700,414	20,55
700,857	20,98
701,3	21,64
701,743	22
702,186	22,45
702,629	23,06
703,072	23,46
703,515	23,83
703,957	24,59
704,399	24,89
704,842	25,17
705,284	26,08
705,726	26,28
706,168	26,95
706,61	27,34
707,052	27,69
707,494	27,89
707,935	28,36
708,377	28,88
708,818	29,29
709,26	29,65
709,701	29,9
710,142	30,6
710,583	30,61
711,024	31,16
711,465	31,62
711,905	32,15
712,346	32,15
712,787	32,5
713,227	33,13
713,667	33,5
714,108	33,78
714,548	34,29
714,988	34,66
715,428	34,77
715,868	34,96
716,307	35,31
716,747	35,79
717,186	36,04
717,626	36,35
718,065	36,31
718,504	36,79
718,944	37,21
719,383	37,48
719,822	37,66
720,261	38,31
720,699	38,29
721,138	38,45
721,576	38,95
722,015	39,07
722,453	39,23
722,892	39,71
723,33	39,79
723,768	40,41
724,206	40,18
724,644	40,57
725,081	40,66
725,519	41,02
725,957	40,78
726,394	41,24
726,832	41,42
727,269	41,35
727,706	41,66
728,143	42,18
728,58	42,11
729,017	42,16
729,454	42,37
729,89	42,38
730,327	42,54
730,764	42,75
731,2	42,93
731,636	42,96
732,072	43,02
732,509	43,06
732,945	43,09
733,38	43,47
733,816	43,6
734,252	43,7
734,688	43,57
735,123	43,67
735,559	43,71
735,994	43,7
736,429	43,88
736,864	43,99
737,299	43,93
737,734	43,94
738,169	44,33
738,604	44,14
739,038	44,33
739,473	44,52
739,907	44,28
740,342	44,1
740,776	44,01
741,21	44,33
741,644	44,41
742,078	44,39
742,512	44,65
742,946	44,33
743,379	44,3
743,813	44,28
744,246	44,48
744,68	44,37
745,113	44,36
745,546	44,46
745,979	44,43
746,412	44,37
746,845	44,47
747,278	44,51
747,711	44,48
748,143	44,53
748,576	44,59
749,008	44,55
749,441	44,46
749,873	44,27
750,305	44,4
750,737	44,28
751,169	44,11
751,601	44,29
752,032	43,92
752,464	44,06
752,896	44,14
753,327	44,25
753,758	44,13
754,19	44,2
754,621	43,95
755,052	44,19
755,483	43,86
755,914	43,95
756,344	44,05
756,775	44,01
757,206	44,03
757,636	43,81
758,066	44,13
758,497	43,82
758,927	43,88
759,357	44
759,787	43,85
760,217	43,52
760,647	43,68
761,076	43,76
761,506	43,53
761,935	43,66
762,365	43,62
762,794	43,21
763,223	43,57
763,653	43,94
764,082	43,41
764,51	43,53
764,939	43,45
765,368	43,13
765,797	43,36
766,225	43,25
766,654	43,4
767,082	43,56
767,51	43,31
767,938	43,39
768,367	43,15
768,795	42,84
769,222	43,37
769,65	42,96
770,078	43,26
770,505	43,34
770,933	43,12
771,36	42,66
771,788	42,9
772,215	42,85
772,642	42,91
773,069	43,01
773,496	42,8
773,923	43,02
774,349	43,03
774,776	42,69
775,203	42,78
775,629	42,93
776,055	42,61
776,482	42,9
776,908	42,58
777,334	42,9
777,76	42,81
778,186	42,59
778,611	42,78
779,037	42,88
779,463	42,68
779,888	42,81
780,314	42,74
780,739	42,83
781,164	42,56
781,589	42,88
782,014	42,7
782,439	42,42
782,864	42,67
783,289	42,58
783,713	42,59
784,138	42,48
784,562	42,78
784,987	42,6
785,411	42,27
785,835	42,59
786,259	42,48
786,683	42,78
787,107	42,56
787,531	42,48
787,954	42,32
788,378	42,43
788,802	42,49
789,225	42,3
789,648	42,71
790,071	42,49
790,495	42,53
790,918	42,22
791,34	42,32
791,763	42,58
792,186	42,54
792,609	42,49
793,031	42,64
793,454	42,68
793,876	42,45
794,298	42,29
794,721	42,45
795,143	42,37
795,565	42,24
795,986	42,21
796,408	42,22
796,83	42,36
797,252	42,51
797,673	42,18
798,094	42,44
798,516	42,47
798,937	42,12
799,358	42,42
799,779	42,37
800,2	42,13
800,621	42,12
801,042	42,04
801,462	42,26
801,883	42,3
802,303	42,16
802,724	42,12
803,144	42,32
803,564	42,23
803,984	42,14
804,404	42,18
804,824	42,27
805,244	42,12
805,664	42,46
806,084	42,28
806,503	42,4
806,923	42,28
807,342	42,08
807,761	42
808,18	41,99
808,599	41,92
809,018	42,02
809,437	42,23
809,856	41,98
810,275	42,09
810,693	42,28
811,112	42,05
811,53	42,3
811,949	42,06
812,367	42,14
812,785	42,1
813,203	42,1
813,621	42,4
814,039	42
814,457	41,99
814,874	41,99
815,292	42,06
815,709	42,29
816,127	41,96
816,544	42,42
816,961	42,06
817,378	42,17
817,795	41,9
818,212	42,14
818,629	41,97
819,046	42,02
819,462	42,08
819,879	42,28
820,295	41,96
820,712	42,01
821,128	42,1
821,544	41,85
821,96	41,85
822,376	41,93
822,792	41,76
823,208	41,95
823,624	41,93
824,039	41,96
824,455	42,07
824,87	41,96
825,286	41,97
825,701	42,04
826,116	42,15
826,531	41,83
826,946	41,76
827,361	41,9
827,776	42,28
828,19	41,78
828,605	42,01
829,02	41,83
829,434	42,17
829,848	41,97
830,263	42,05
830,677	41,84
831,091	42,03
831,505	42,06
831,919	41,87
832,332	41,72
832,746	41,75
833,16	41,88
833,573	41,74
833,987	41,83
834,4	41,73
834,813	41,67
835,226	41,78
835,639	41,52
836,052	41,95
836,465	41,9
836,878	41,9
837,29	41,86
837,703	41,52
838,116	41,97
838,528	41,34
838,94	41,9
839,352	41,37
839,765	41,84
840,177	41,94
840,589	41,68
841	41,71
841,412	41,76
841,824	41,49
842,235	41,98
842,647	41,74
843,058	41,83
