Data from I_4__Relative__5__00192.txt Node

Date: Mon Jan 29 18:31:13 CET 2024
User: diatiterra
Spectrometer: HDX00911
Trigger mode: 0
Integration Time (sec): 6,000000E-3
Scans to average: 2
Nonlinearity correction enabled: false
Boxcar width: 0
Storing dark spectrum: false
XAxis mode: Wavelengths
Number of Pixels in Spectrum: 2068
>>>>>Begin Spectral Data<<<<<
194,468	74,51
195,025	55,75
195,581	69,15
196,138	70
196,694	67,82
197,251	53,33
197,807	59,6
198,363	44,73
198,919	54,45
199,474	51,07
200,03	41,91
200,586	46,94
201,141	56,18
201,696	56,75
202,251	50,92
202,806	52,26
203,361	48,07
203,916	55,82
204,471	55,63
205,025	50,36
205,58	51,25
206,134	50,37
206,688	49,28
207,242	47,62
207,796	47,12
208,35	53,43
208,904	43,39
209,457	54,15
210,011	49,65
210,564	45,14
211,117	46,13
211,67	51,76
212,223	43,49
212,776	54,31
213,329	47,77
213,881	43,93
214,434	51,72
214,986	46,8
215,538	48,35
216,09	44,26
216,642	50,37
217,194	49,67
217,746	51,18
218,297	49,33
218,849	44,86
219,4	55,59
219,951	54,18
220,502	54,36
221,053	47,34
221,604	49,66
222,155	50,62
222,705	50,5
223,256	53,24
223,806	47,96
224,356	52,17
224,906	48,89
225,456	49,31
226,006	46,64
226,556	53,28
227,106	50,35
227,655	44,6
228,204	49,67
228,754	50
229,303	49,83
229,852	46,73
230,401	41,58
230,949	56,81
231,498	61,19
232,047	52,19
232,595	53,55
233,143	53,79
233,691	47,2
234,239	44,4
234,787	43,36
235,335	51,02
235,883	58,42
236,43	50,74
236,978	57,45
237,525	52,61
238,072	48,34
238,619	41,44
239,166	49,83
239,713	52,42
240,26	56,55
240,806	48,58
241,353	52,3
241,899	48,54
242,445	50
242,991	55,05
243,537	50,5
244,083	45,09
244,629	50,68
245,174	53,36
245,72	50,17
246,265	55,12
246,81	52,92
247,355	45,59
247,9	42,91
248,445	57,59
248,99	42,91
249,534	51,58
250,079	53,36
250,623	47,12
251,168	51,01
251,712	57,45
252,256	50,83
252,8	50
253,343	52,55
253,887	51,36
254,43	56,13
254,974	51,4
255,517	58,05
256,06	53,77
256,603	56,23
257,146	48,82
257,689	49,05
258,232	54,02
258,774	53,14
259,317	58,97
259,859	50,92
260,401	56,82
260,943	52,99
261,485	52,48
262,027	56,21
262,569	60,15
263,11	58,84
263,652	60,29
264,193	49,29
264,734	54,76
265,275	55,02
265,816	58,99
266,357	48,56
266,898	46,42
267,438	49,41
267,979	55,64
268,519	48,74
269,059	54,26
269,6	54,04
270,14	54,13
270,68	50,96
271,219	55,09
271,759	51,12
272,298	42,55
272,838	52,33
273,377	54,81
273,916	54,51
274,455	49,81
274,994	46,4
275,533	53,24
276,072	52,63
276,61	45,05
277,149	43,84
277,687	46,26
278,225	50,34
278,763	55,43
279,301	53,58
279,839	48,91
280,377	48,54
280,914	47,62
281,452	53,66
281,989	50,85
282,526	54,84
283,064	54,51
283,601	54,17
284,137	48,54
284,674	51,32
285,211	49,64
285,747	48,81
286,284	48,07
286,82	46,1
287,356	47,08
287,892	47,02
288,428	48,47
288,964	41,88
289,5	58,5
290,035	53,6
290,571	52,99
291,106	45,09
291,641	45,59
292,176	47,37
292,711	52,76
293,246	47,65
293,781	45,72
294,315	51,84
294,85	48,18
295,384	56,3
295,918	42,16
296,453	47,7
296,987	55,86
297,52	44,86
298,054	49,26
298,588	51,18
299,121	42,49
299,655	41,4
300,188	44,11
300,721	50,34
301,254	42,35
301,787	42,28
302,32	55,3
302,853	47,74
303,385	54,21
303,918	46,67
304,45	53,67
304,982	47,01
305,514	47,23
306,046	47,37
306,578	52,5
307,11	52,04
307,641	48,36
308,173	51,67
308,704	55,56
309,236	41,57
309,767	54,17
310,298	52,26
310,829	51,33
311,359	47,69
311,89	46,26
312,421	46,74
312,951	53,82
313,481	61,04
314,012	47,62
314,542	45,55
315,072	61,82
315,601	50,89
316,131	47,81
316,661	55,42
317,19	43,77
317,72	49,45
318,249	51,35
318,778	47,53
319,307	47,3
319,836	51,01
320,365	52,77
320,893	46,45
321,422	45,9
321,95	49,26
322,479	53,63
323,007	52,54
323,535	49,81
324,063	48,13
324,591	40
325,118	45,1
325,646	52,69
326,173	52,5
326,701	44,73
327,228	41,53
327,755	48,03
328,282	47,92
328,809	41,48
329,336	45,33
329,862	41,92
330,389	45,05
330,915	43,62
331,441	51,86
331,968	44,33
332,494	44,15
333,02	40,88
333,545	40,07
334,071	42
334,597	42,91
335,122	44,48
335,648	50,55
336,173	46,86
336,698	37,33
337,223	40,61
337,748	43,86
338,272	40,59
338,797	38,19
339,322	39,53
339,846	40,62
340,37	45,05
340,894	44,18
341,419	37,58
341,942	49,66
342,466	40,61
342,99	43,38
343,514	38,64
344,037	40,33
344,56	36,36
345,084	36,91
345,607	47,72
346,13	44,92
346,653	42,14
347,175	42,26
347,698	37,2
348,221	31,98
348,743	37,61
349,265	41,67
349,787	37,71
350,309	45,18
350,831	39,4
351,353	45,5
351,875	38,76
352,397	44,9
352,918	44,35
353,439	47,43
353,961	42,25
354,482	47,19
355,003	43,7
355,524	43,62
356,044	37,99
356,565	44,64
357,086	43,26
357,606	41,69
358,126	42,58
358,646	39,05
359,167	38,33
359,687	34,43
360,206	39,28
360,726	37,03
361,246	44,1
361,765	34,65
362,285	41,23
362,804	40
363,323	35,32
363,842	38,57
364,361	38,31
364,88	40,51
365,398	38,19
365,917	43,94
366,435	36,48
366,954	36,67
367,472	37,53
367,99	41,48
368,508	37,7
369,026	37,21
369,544	32,55
370,061	38,84
370,579	37,15
371,096	39,78
371,613	39,82
372,131	40,32
372,648	38,63
373,165	39,51
373,681	37,65
374,198	33,77
374,715	34,2
375,231	35,45
375,747	37,02
376,264	38,82
376,78	38,6
377,296	33,23
377,812	36,8
378,327	32,89
378,843	36,93
379,359	34,78
379,874	35,93
380,389	34,8
380,905	37,27
381,42	38,25
381,935	36,4
382,449	35,83
382,964	33,01
383,479	33,46
383,993	32,33
384,508	33,61
385,022	34,89
385,536	32,77
386,05	33
386,564	32,84
387,078	30,68
387,592	32,08
388,105	30,09
388,619	31,76
389,132	29,66
389,645	29,05
390,158	28,96
390,671	31,19
391,184	28,65
391,697	29,75
392,21	33,03
392,722	29,14
393,235	27,33
393,747	28,14
394,259	28,58
394,771	26,07
395,283	28,03
395,795	27,41
396,307	27,11
396,818	27,08
397,33	26,65
397,841	26,71
398,353	26,26
398,864	25,21
399,375	24,98
399,886	25
400,397	23,06
400,907	23,9
401,418	21,49
401,928	21,95
402,439	23,66
402,949	21,71
403,459	21,13
403,969	20,14
404,479	20,75
404,989	20,09
405,498	20,76
406,008	18,11
406,517	17,95
407,027	17,87
407,536	17,47
408,045	16,95
408,554	16,31
409,063	15,86
409,572	15,41
410,08	15,38
410,589	15,26
411,097	14,55
411,606	14,33
412,114	13,46
412,622	12,86
413,13	12,97
413,638	12,49
414,145	12,49
414,653	11,63
415,16	11,2
415,668	11,06
416,175	10,99
416,682	10,73
417,189	10,62
417,696	10,8
418,203	10,7
418,71	11,01
419,216	9,35
419,723	10,26
420,229	9,86
420,735	9,66
421,242	10,15
421,748	9,44
422,254	9,14
422,759	9,25
423,265	8,88
423,771	9,01
424,276	9,13
424,781	9,36
425,287	9,18
425,792	9,46
426,297	9,41
426,802	8,5
427,306	8,7
427,811	8,72
428,316	9,07
428,82	8,89
429,324	8,37
429,829	8,78
430,333	8,31
430,837	8,48
431,34	8,05
431,844	8,8
432,348	8,26
432,851	7,92
433,355	7,65
433,858	7,6
434,361	8,37
434,864	8,09
435,367	7,9
435,87	7,92
436,373	8,27
436,876	7,57
437,378	8,1
437,88	7,73
438,383	7,85
438,885	7,86
439,387	8,04
439,889	7,68
440,391	7,86
440,892	7,9
441,394	8
441,896	7,91
442,397	7,71
442,898	7,58
443,399	8,08
443,9	8,32
444,401	8,58
444,902	8,12
445,403	8,05
445,903	8,1
446,404	8,32
446,904	7,82
447,405	8,21
447,905	7,97
448,405	8,56
448,905	8,43
449,404	8,64
449,904	8,19
450,404	8,09
450,903	8,37
451,403	8,38
451,902	8,57
452,401	8,34
452,9	8,46
453,399	8,68
453,898	8,63
454,396	8,42
454,895	8,59
455,393	8,46
455,892	8,65
456,39	8,46
456,888	8,63
457,386	8,58
457,884	9,01
458,382	8,88
458,879	8,83
459,377	8,63
459,874	9,02
460,372	8,62
460,869	9,1
461,366	8,83
461,863	9,07
462,36	8,51
462,857	8,8
463,353	8,75
463,85	8,5
464,346	8,89
464,843	8,36
465,339	8,55
465,835	8,57
466,331	8,62
466,827	8,7
467,323	8,71
467,818	8,63
468,314	8,75
468,809	8,63
469,305	9,02
469,8	8,91
470,295	8,79
470,79	8,77
471,285	8,74
471,78	8,55
472,274	8,73
472,769	8,73
473,263	8,78
473,758	8,86
474,252	8,8
474,746	8,63
475,24	8,87
475,734	8,69
476,228	8,97
476,721	8,98
477,215	8,88
477,708	8,87
478,202	8,91
478,695	9,1
479,188	8,74
479,681	8,99
480,174	8,91
480,667	8,97
481,159	8,95
481,652	9,25
482,144	9,15
482,637	8,86
483,129	9,22
483,621	9,04
484,113	9,24
484,605	9,16
485,097	9,39
485,588	9,33
486,08	9,34
486,571	9,46
487,063	9,5
487,554	9,34
488,045	9,41
488,536	9,47
489,027	9,44
489,518	9,71
490,008	9,69
490,499	9,39
490,989	9,11
491,48	9,8
491,97	9,96
492,46	9,68
492,95	9,73
493,44	10,01
493,93	9,99
494,419	10,32
494,909	9,91
495,398	10,45
495,888	10,52
496,377	10,7
496,866	10,64
497,355	10,7
497,844	10,99
498,333	10,65
498,821	10,93
499,31	10,96
499,798	11,31
500,287	11,37
500,775	11,62
501,263	11,66
501,751	12,11
502,239	12,26
502,727	12,15
503,215	12,29
503,702	12,61
504,19	12,96
504,677	12,87
505,164	13,08
505,651	13,48
506,139	13,48
506,625	14,12
507,112	13,8
507,599	14,34
508,086	14,38
508,572	14,87
509,058	14,92
509,545	15,24
510,031	15,65
510,517	15,95
511,003	16,16
511,489	16,42
511,974	16,89
512,46	17,42
512,946	17,75
513,431	17,63
513,916	18,02
514,401	18
514,887	18,89
515,371	18,97
515,856	19,15
516,341	19,65
516,826	20,47
517,31	20,46
517,795	20,81
518,279	21,19
518,763	21,4
519,247	21,7
519,731	22,17
520,215	22,68
520,699	22,94
521,182	23,3
521,666	23,41
522,149	23,72
522,633	24,62
523,116	24,76
523,599	25,3
524,082	25,26
524,565	25,61
525,048	25,97
525,53	26,45
526,013	26,83
526,495	27,28
526,978	27,34
527,46	27,82
527,942	27,87
528,424	28,18
528,906	28,13
529,388	28,29
529,87	28,85
530,351	29,01
530,833	29,69
531,314	29,38
531,795	29,49
532,277	29,72
532,758	29,83
533,238	30,02
533,719	30,71
534,2	30,32
534,681	30,49
535,161	30,81
535,642	30,4
536,122	30,31
536,602	31,19
537,082	31,09
537,562	31,22
538,042	31,18
538,522	31,16
539,001	31,55
539,481	31,58
539,96	30,98
540,44	31,37
540,919	31,63
541,398	31,87
541,877	31,68
542,356	31,75
542,835	31,8
543,313	31,74
543,792	31,67
544,27	32,19
544,749	31,94
545,227	31,79
545,705	32,04
546,183	31,98
546,661	32,23
547,139	32,19
547,616	31,9
548,094	32,58
548,571	32,5
549,049	32,39
549,526	32,5
550,003	32,05
550,48	32,72
550,957	32,32
551,434	32,19
551,911	32,47
552,387	32,12
552,864	32,39
553,34	32,6
553,817	32,51
554,293	32,38
554,769	32,47
555,245	32,73
555,721	32,49
556,197	32,31
556,672	32,76
557,148	31,85
557,623	32,4
558,099	32,18
558,574	32,51
559,049	31,94
559,524	32,2
559,999	32,26
560,474	31,79
560,948	31,83
561,423	32,24
561,897	31,71
562,372	31,99
562,846	31,49
563,32	31,47
563,794	31,39
564,268	31,26
564,742	31,38
565,216	30,92
565,69	30,72
566,163	31,04
566,636	30,85
567,11	30,32
567,583	30,33
568,056	30,43
568,529	29,73
569,002	29,59
569,475	29,6
569,947	29,3
570,42	28,96
570,892	29,11
571,365	29,11
571,837	28,82
572,309	28,68
572,781	28,23
573,253	27,89
573,725	27,78
574,197	27,85
574,668	27,84
575,14	27,52
575,611	26,99
576,082	26,86
576,554	26,98
577,025	26,68
577,496	26,56
577,967	26,31
578,437	26,42
578,908	25,98
579,379	25,67
579,849	26,14
580,319	25,68
580,79	25,41
581,26	25,53
581,73	25,19
582,2	24,9
582,669	25,31
583,139	24,81
583,609	24,67
584,078	24,53
584,548	24,19
585,017	24,23
585,486	24,09
585,955	23,96
586,424	23,88
586,893	23,86
587,362	24,07
587,83	23,63
588,299	23,82
588,767	23,62
589,236	23,14
589,704	23,29
590,172	23,5
590,64	23,12
591,108	22,88
591,576	23,01
592,043	22,69
592,511	22,77
592,978	22,67
593,446	22,69
593,913	22,51
594,38	22,53
594,847	22,41
595,314	22,6
595,781	22,41
596,248	22,38
596,715	22,53
597,181	22,11
597,647	22,36
598,114	22,04
598,58	22,22
599,046	21,81
599,512	22,08
599,978	22,11
600,444	22,11
600,91	21,74
601,375	22,02
601,841	21,75
602,306	21,82
602,771	21,75
603,236	21,71
603,702	21,62
604,167	21,41
604,631	21,39
605,096	21,28
605,561	21,28
606,025	21,1
606,49	21,13
606,954	21,03
607,418	20,99
607,882	21,06
608,347	20,59
608,81	20,82
609,274	20,77
609,738	20,5
610,202	20,4
610,665	20,29
611,128	20,18
611,592	20,14
612,055	20,12
612,518	19,71
612,981	19,71
613,444	19,52
613,907	19,59
614,369	19,38
614,832	19,1
615,294	19,01
615,757	19,01
616,219	18,77
616,681	18,78
617,143	18,78
617,605	18,59
618,067	18,44
618,529	18,3
618,99	18,19
619,452	18,34
619,913	18,22
620,375	18,25
620,836	18,18
621,297	17,93
621,758	17,96
622,219	17,65
622,68	17,88
623,14	17,85
623,601	17,56
624,061	17,56
624,522	17,58
624,982	17,63
625,442	17,51
625,902	17,57
626,362	17,41
626,822	17,5
627,282	17,25
627,742	17,34
628,201	17,39
628,661	17,28
629,12	17,22
629,579	17,12
630,038	17,39
630,497	17,2
630,956	17,01
631,415	17,1
631,874	16,98
632,332	17,09
632,791	16,9
633,249	16,81
633,708	16,95
634,166	16,67
634,624	16,82
635,082	16,58
635,54	16,5
635,998	16,53
636,455	16,45
636,913	16,17
637,37	16,07
637,828	16,1
638,285	15,82
638,742	15,46
639,199	15,63
639,656	15,58
640,113	15,19
640,57	15,23
641,027	15,06
641,483	15,02
641,94	14,56
642,396	14,64
642,852	14,64
643,309	14,21
643,765	14,11
644,221	13,97
644,676	13,77
645,132	13,69
645,588	13,66
646,043	13,36
646,499	13,26
646,954	13,11
647,409	12,86
647,864	12,84
648,319	12,61
648,774	12,42
649,229	12,56
649,684	12,37
650,139	12,33
650,593	12,17
651,047	12,08
651,502	12,12
651,956	12,19
652,41	12
652,864	11,89
653,318	11,8
653,772	11,77
654,225	11,62
654,679	11,59
655,133	11,75
655,586	11,63
656,039	11,48
656,492	11,39
656,946	11,3
657,399	11,1
657,851	11,04
658,304	11
658,757	11,04
659,209	10,81
659,662	10,79
660,114	10,6
660,567	10,43
661,019	10,4
661,471	10,23
661,923	10,19
662,375	9,99
662,826	10,01
663,278	9,79
663,73	9,88
664,181	9,63
664,632	9,59
665,084	9,47
665,535	9,39
665,986	9,28
666,437	9,34
666,888	9,25
667,338	9,25
667,789	9,17
668,24	9,14
668,69	9,18
669,14	9,07
669,591	9,14
670,041	9,14
670,491	9,2
670,941	9,13
671,391	9,23
671,84	9,05
672,29	9,15
672,74	9,2
673,189	9,3
673,638	9,38
674,088	9,38
674,537	9,41
674,986	9,56
675,435	9,63
675,883	9,57
676,332	9,73
676,781	9,8
677,229	9,94
677,678	10,02
678,126	10,09
678,574	10,27
679,022	10,29
679,47	10,51
679,918	10,62
680,366	10,72
680,814	10,76
681,261	10,98
681,709	11,13
682,156	11,22
682,604	11,48
683,051	11,52
683,498	11,76
683,945	11,79
684,392	12,05
684,839	12,25
685,286	12,45
685,732	12,62
686,179	12,8
686,625	13,04
687,071	13,13
687,518	13,74
687,964	13,92
688,41	14,21
688,856	14,55
689,301	14,73
689,747	15,28
690,193	15,68
690,638	16,16
691,084	16,55
691,529	17,02
691,974	17,77
692,419	18,24
692,864	18,8
693,309	19,37
693,754	20,02
694,199	20,36
694,643	21,12
695,088	21,67
695,532	22,16
695,977	22,89
696,421	23,56
696,865	24,22
697,309	24,73
697,753	25,36
698,197	26,07
698,64	26,41
699,084	26,97
699,527	27,8
699,971	28,17
700,414	28,98
700,857	29,42
701,3	30,08
701,743	30,47
702,186	30,79
702,629	31,67
703,072	32,16
703,515	32,39
703,957	32,8
704,399	33,36
704,842	33,57
705,284	34,32
705,726	34,76
706,168	35,19
706,61	35,42
707,052	35,87
707,494	36,23
707,935	36,71
708,377	37,24
708,818	37,58
709,26	37,9
709,701	38,2
710,142	38,58
710,583	38,9
711,024	39,2
711,465	39,64
711,905	39,81
712,346	40,18
712,787	40,59
713,227	40,93
713,667	41,15
714,108	41,51
714,548	42,09
714,988	42,05
715,428	42,12
715,868	42,44
716,307	42,98
716,747	43,33
717,186	43,6
717,626	43,76
718,065	43,92
718,504	44,29
718,944	44,33
719,383	44,55
719,822	44,65
720,261	45,32
720,699	45,31
721,138	45,41
721,576	45,59
722,015	45,8
722,453	45,86
722,892	46,24
723,33	45,94
723,768	46,45
724,206	46,87
724,644	47,15
725,081	47,03
725,519	47,16
725,957	47,15
726,394	47,18
726,832	47,66
727,269	47,86
727,706	47,82
728,143	48,25
728,58	48
729,017	47,94
729,454	48,2
729,89	47,85
730,327	48,59
730,764	48,49
731,2	48,58
731,636	48,63
732,072	48,66
732,509	49,13
732,945	49,17
733,38	49,07
733,816	49,02
734,252	48,88
734,688	49,07
735,123	48,95
735,559	48,91
735,994	49,26
736,429	49,34
736,864	49,42
737,299	49,18
737,734	49,59
738,169	49,51
738,604	49,49
739,038	49,33
739,473	49,65
739,907	49,52
740,342	49,2
740,776	49,38
741,21	49,55
741,644	49,41
742,078	49,22
742,512	49,75
742,946	49,22
743,379	49,35
743,813	49,57
744,246	49,4
744,68	49,35
745,113	49,4
745,546	49,4
745,979	49,35
746,412	49,38
746,845	49,26
747,278	49,17
747,711	49,46
748,143	48,79
748,576	49,2
749,008	49,02
749,441	49,1
749,873	49,34
750,305	48,94
750,737	48,77
751,169	49,06
751,601	48,95
752,032	48,74
752,464	48,87
752,896	48,81
753,327	48,89
753,758	48,9
754,19	48,65
754,621	48,73
755,052	48,53
755,483	48,61
755,914	48,64
756,344	48,41
756,775	48,46
757,206	48,63
757,636	48,44
758,066	48,61
758,497	48,47
758,927	48,44
759,357	48,31
759,787	48,24
760,217	48,01
760,647	48,1
761,076	48,04
761,506	48,11
761,935	48,26
762,365	48
762,794	47,8
763,223	47,93
763,653	48,05
764,082	47,98
764,51	47,8
764,939	47,82
765,368	47,62
765,797	47,58
766,225	47,8
766,654	47,67
767,082	47,99
767,51	47,56
767,938	47,78
768,367	47,56
768,795	47,26
769,222	47,42
769,65	47,68
770,078	47,46
770,505	47,38
770,933	47,49
771,36	47,05
771,788	47,44
772,215	47,24
772,642	47,65
773,069	47,19
773,496	47,4
773,923	46,95
774,349	47,14
774,776	47,03
775,203	46,95
775,629	47,19
776,055	47,19
776,482	47,07
776,908	46,8
777,334	47
777,76	47,04
778,186	47,01
778,611	46,61
779,037	46,79
779,463	46,97
779,888	46,92
780,314	47,04
780,739	46,91
781,164	46,73
781,589	46,81
782,014	46,79
782,439	46,95
782,864	46,79
783,289	46,62
783,713	46,41
784,138	46,93
784,562	46,86
784,987	47,07
785,411	46,28
785,835	46,78
786,259	46,46
786,683	46,53
787,107	46,97
787,531	46,56
787,954	46,7
788,378	46,09
788,802	46,61
789,225	46,41
789,648	46,53
790,071	46,54
790,495	46,6
790,918	46,41
791,34	46,69
791,763	46,53
792,186	46,49
792,609	46,26
793,031	46,61
793,454	46,16
793,876	46,72
794,298	46,41
794,721	46,59
795,143	46,3
795,565	46,22
795,986	46,53
796,408	46,54
796,83	46,57
797,252	46,2
797,673	46,49
798,094	46,41
798,516	46,47
798,937	46
799,358	46,36
799,779	46,29
800,2	46,29
800,621	46,17
801,042	46,6
801,462	46,43
801,883	46,22
802,303	46,13
802,724	45,98
803,144	46,31
803,564	46,16
803,984	46,2
804,404	46,27
804,824	46,47
805,244	46,05
805,664	46,18
806,084	46,24
806,503	46,07
806,923	46,13
807,342	45,92
807,761	45,78
808,18	46,08
808,599	45,9
809,018	46,31
809,437	46,13
809,856	46,08
810,275	46,18
810,693	46,3
811,112	45,76
811,53	46,36
811,949	46,09
812,367	45,96
812,785	46,09
813,203	45,9
813,621	46,24
814,039	46,12
814,457	46,07
814,874	45,99
815,292	46,26
815,709	46,21
816,127	45,97
816,544	46,19
816,961	45,92
817,378	46,28
817,795	45,8
818,212	46,25
818,629	46,34
819,046	46,22
819,462	46,17
819,879	46,06
820,295	46,02
820,712	46,1
821,128	45,88
821,544	45,95
821,96	45,9
822,376	45,95
822,792	45,71
823,208	46,07
823,624	45,96
824,039	45,88
824,455	46,01
824,87	46,04
825,286	46
825,701	45,77
826,116	46,01
826,531	45,6
826,946	45,82
827,361	45,86
827,776	46,22
828,19	45,74
828,605	45,95
829,02	45,74
829,434	45,88
829,848	45,65
830,263	45,95
830,677	45,8
831,091	45,69
831,505	45,92
831,919	46,09
832,332	45,5
832,746	45,93
833,16	45,48
833,573	45,75
833,987	45,85
834,4	45,56
834,813	46,01
835,226	45,7
835,639	45,68
836,052	45,73
836,465	45,69
836,878	45,73
837,29	45,92
837,703	45,71
838,116	45,79
838,528	45,87
838,94	45,99
839,352	45,72
839,765	45,72
