Data from L_5__Relative__2__00199.txt Node

Date: Mon Jan 29 18:32:02 CET 2024
User: diatiterra
Spectrometer: HDX00911
Trigger mode: 0
Integration Time (sec): 6,000000E-3
Scans to average: 2
Nonlinearity correction enabled: false
Boxcar width: 0
Storing dark spectrum: false
XAxis mode: Wavelengths
Number of Pixels in Spectrum: 2068
>>>>>Begin Spectral Data<<<<<
194,468	70,59
195,025	49,56
195,581	69,15
196,138	70
196,694	63,79
197,251	45,78
197,807	60,8
198,363	49,82
198,919	54,45
199,474	53,21
200,03	47,06
200,586	46,6
201,141	47,57
201,696	40,14
202,251	50,18
202,806	61,65
203,361	51,58
203,916	51,71
204,471	42,25
205,025	47,14
205,58	49,46
206,134	51,48
206,688	52,17
207,242	53,4
207,796	50,17
208,35	45,85
208,904	43,05
209,457	57,4
210,011	47,55
210,564	45,83
211,117	42,25
211,67	50,35
212,223	40,07
212,776	46,82
213,329	49,48
213,881	44,29
214,434	52,76
214,986	44,11
215,538	42,86
216,09	44,26
216,642	51,85
217,194	51,66
217,746	51,18
218,297	44,63
218,849	48,91
219,4	52,1
219,951	53,82
220,502	48,08
221,053	46,39
221,604	53,69
222,155	54,32
222,705	55,18
223,256	58,27
223,806	51,02
224,356	48,91
224,906	61,85
225,456	55,52
226,006	44,63
226,556	52,92
227,106	48,95
227,655	54,01
228,204	49,67
228,754	51,38
229,303	50,17
229,852	52,29
230,401	50,9
230,949	59,92
231,498	58,21
232,047	48,15
232,595	53,9
233,143	62,12
233,691	52
234,239	54,1
234,787	47,55
235,335	54,08
235,883	56,63
236,43	50,37
236,978	51,64
237,525	59,7
238,072	53,14
238,619	51,03
239,166	55,56
239,713	53,9
240,26	59,93
240,806	50,71
241,353	57,95
241,899	46,93
242,445	55,24
242,991	56,79
243,537	58,75
244,083	53,09
244,629	47,3
245,174	62,31
245,72	48,16
246,265	53
246,81	55,11
247,355	53,68
247,9	46,37
248,445	60,34
248,99	43,25
249,534	49,05
250,079	59,7
250,623	45,42
251,168	57,05
251,712	52,48
252,256	53,82
252,8	59,38
253,343	50,96
253,887	51,7
254,43	62,83
254,974	58,74
255,517	54,03
256,06	39,73
256,603	60,38
257,146	47,81
257,689	50,32
258,232	55,17
258,774	53,51
259,317	55,31
259,859	53,51
260,401	53,79
260,943	52,24
261,485	51,42
262,027	49,31
262,569	59,4
263,11	51,26
263,652	55,15
264,193	52,5
264,734	57,14
265,275	54,62
265,816	48,56
266,357	57,55
266,898	51,54
267,438	54,12
267,979	53,82
268,519	49,46
269,059	57,8
269,6	55,44
270,14	48,18
270,68	59,39
271,219	53,33
271,759	58,58
272,298	49,45
272,838	55,04
273,377	50,74
273,916	53,43
274,455	49,04
274,994	57,55
275,533	57
276,072	53,38
276,61	51,54
277,149	46,38
277,687	54,09
278,225	49,66
278,763	51,45
279,301	54,34
279,839	52,54
280,377	51,46
280,914	47,99
281,452	63,01
281,989	47,44
282,526	54,12
283,064	52,43
283,601	58,33
284,137	48,18
284,674	60,75
285,211	42,45
285,747	56,95
286,284	43,86
286,82	56,74
287,356	50,86
287,892	52,28
288,428	48,81
288,964	58,84
289,5	52,04
290,035	48,2
290,571	57,46
291,106	46,91
291,641	54,41
292,176	55,26
292,711	58,62
293,246	58,48
293,781	49,44
294,315	52,57
294,85	54,38
295,384	59,26
295,918	48,08
296,453	54,42
296,987	52,76
297,52	52,05
298,054	51,84
298,588	47,24
299,121	48,35
299,655	44,91
300,188	53,99
300,721	49,31
301,254	50,89
301,787	50
302,32	56,44
302,853	51,92
303,385	58,61
303,918	49,82
304,45	55,21
304,982	54,98
305,514	54,98
306,046	48,42
306,578	51,07
307,11	52,04
307,641	45,09
308,173	50,93
308,704	62,45
309,236	54,68
309,767	52,08
310,298	48,78
310,829	54,37
311,359	53,38
311,89	49,11
312,421	55,43
312,951	57,45
313,481	55,02
314,012	45,05
314,542	56,16
315,072	49,82
315,601	54,8
316,131	40,51
316,661	64,17
317,19	48,75
317,72	57,14
318,249	44,26
318,778	51,33
319,307	55,74
319,836	47,32
320,365	45,28
320,893	54,26
321,422	54,85
321,95	42,22
322,479	52,6
323,007	50
323,535	49,81
324,063	53,73
324,591	43,67
325,118	49,65
325,646	53,46
326,173	52,5
326,701	46,18
327,228	44,41
327,755	48,39
328,282	51,7
328,809	48,15
329,336	43,94
329,862	51,15
330,389	45,73
330,915	51,77
331,441	53,9
331,968	49,83
332,494	44,15
333,02	49,64
333,545	44,04
334,071	49,33
334,597	55,07
335,122	43,14
335,648	57,14
336,173	50,83
336,698	52,05
337,223	54,61
337,748	48,42
338,272	40,59
338,797	47,25
339,322	36,88
339,846	48,44
340,37	42,86
340,894	48,29
341,419	47,32
341,942	46,64
342,466	48,12
342,99	42,77
343,514	41,88
344,037	46,89
344,56	38,56
345,084	39,12
345,607	46,2
346,13	49,23
346,653	41,82
347,175	44,19
347,698	41,07
348,221	41,86
348,743	36,15
349,265	47,02
349,787	45,71
350,309	40,5
350,831	36,72
351,353	37,3
351,875	44,66
352,397	45,45
352,918	42,37
353,439	45,8
353,961	39,72
354,482	46,63
355,003	43,7
355,524	41,84
356,044	39,05
356,565	42,14
357,086	38,68
357,606	40,96
358,126	43,55
358,646	40,05
359,167	40,79
359,687	37,5
360,206	38,07
360,726	32,22
361,246	39,28
361,765	41,67
362,285	38,39
362,804	36
363,323	34,86
363,842	40,95
364,361	37,88
364,88	39,45
365,398	35,32
365,917	36,34
366,435	33,91
366,954	38,48
367,472	40,72
367,99	39,43
368,508	33,2
369,026	37,6
369,544	32,36
370,061	38,14
370,579	33,21
371,096	35,22
371,613	35,41
372,131	35,56
372,648	33,94
373,165	36,05
373,681	33,98
374,198	34,75
374,715	35,24
375,231	29,73
375,747	36,2
376,264	31,47
376,78	34,13
377,296	33,39
377,812	27,6
378,327	32,59
378,843	34,12
379,359	28,26
379,874	32,24
380,389	33,43
380,905	31,83
381,42	28,98
381,935	30,13
382,449	31,64
382,964	31,18
383,479	29,63
383,993	30,77
384,508	28,81
385,022	31,51
385,536	29,08
386,05	27,37
386,564	27,18
387,078	26,07
387,592	28,85
388,105	29,01
388,619	27,93
389,132	28,9
389,645	26,16
390,158	25,46
390,671	27,02
391,184	27,95
391,697	25,46
392,21	25,85
392,722	26,38
393,235	25,53
393,747	25,15
394,259	22,71
394,771	23,76
395,283	22,37
395,795	23,06
396,307	21,92
396,818	23,75
397,33	21,91
397,841	24,43
398,353	23,7
398,864	21,78
399,375	21,97
399,886	21,16
400,397	19,91
400,907	19,05
401,418	20,51
401,928	19,43
402,439	20,12
402,949	19,15
403,459	18,53
403,969	17,69
404,479	18,15
404,989	17,63
405,498	16,04
406,008	16,24
406,517	15,76
407,027	14,94
407,536	13,87
408,045	13,67
408,554	13,87
409,063	12,95
409,572	13,49
410,08	14,09
410,589	13,58
411,097	11,95
411,606	12,23
412,114	12,26
412,622	11,4
413,13	11,28
413,638	10,12
414,145	9,77
414,653	9,89
415,16	9,36
415,668	9,6
416,175	9,9
416,682	9,4
417,189	8,99
417,696	9,13
418,203	9,14
418,71	8,74
419,216	8,65
419,723	8,79
420,229	8,88
420,735	7,86
421,242	8,63
421,748	8,37
422,254	7,83
422,759	8,18
423,265	8,15
423,771	7,75
424,276	8,27
424,781	7,9
425,287	7,38
425,792	7,73
426,297	8,01
426,802	7,38
427,306	7,42
427,811	7,67
428,316	7,73
428,82	7,74
429,324	7,4
429,829	7,51
430,333	7,12
430,837	7,17
431,34	7,03
431,844	7,01
432,348	7,16
432,851	7,07
433,355	7,19
433,858	6,83
434,361	7,2
434,864	6,87
435,367	6,88
435,87	7,44
436,373	7,22
436,876	6,76
437,378	7,02
437,88	7,16
438,383	6,78
438,885	6,93
439,387	6,85
439,889	7,06
440,391	7,02
440,892	7,16
441,394	6,77
441,896	6,78
442,397	6,83
442,898	6,92
443,399	7,41
443,9	6,96
444,401	7,03
444,902	6,83
445,403	6,45
445,903	6,84
446,404	7,19
446,904	6,91
447,405	6,98
447,905	7,06
448,405	6,94
448,905	7,21
449,404	7,14
449,904	6,96
450,404	6,82
450,903	7,05
451,403	7,01
451,902	7,29
452,401	7,15
452,9	7,17
453,399	7,14
453,898	7,19
454,396	7,06
454,895	7,44
455,393	7,04
455,892	6,99
456,39	7,15
456,888	7,2
457,386	7,29
457,884	7,23
458,382	7,68
458,879	7,48
459,377	6,98
459,874	7,12
460,372	6,82
460,869	7,52
461,366	7,55
461,863	7,11
462,36	7,47
462,857	6,97
463,353	7,41
463,85	7,04
464,346	7,24
464,843	7,42
465,339	7,11
465,835	7,23
466,331	7,22
466,827	7,27
467,323	7,05
467,818	7,26
468,314	7,2
468,809	7,08
469,305	7,27
469,8	7,25
470,295	7,43
470,79	7,51
471,285	7,12
471,78	6,99
472,274	7,16
472,769	7,27
473,263	7,23
473,758	7,29
474,252	7,34
474,746	7,51
475,24	7,15
475,734	7,12
476,228	7,34
476,721	7,28
477,215	7,35
477,708	7,54
478,202	7,24
478,695	7,02
479,188	7,13
479,681	7,31
480,174	7,09
480,667	7,56
481,159	7,11
481,652	7,7
482,144	7,31
482,637	7,41
483,129	7,49
483,621	7,16
484,113	7,74
484,605	7,23
485,097	7,54
485,588	7,6
486,08	7,67
486,571	7,52
487,063	7,43
487,554	7,36
488,045	7,82
488,536	7,85
489,027	7,3
489,518	7,73
490,008	7,63
490,499	7,98
490,989	7,69
491,48	7,82
491,97	7,9
492,46	7,71
492,95	7,97
493,44	8,04
493,93	8,05
494,419	8,11
494,909	7,94
495,398	7,95
495,888	8,24
496,377	8,3
496,866	8,32
497,355	8,55
497,844	8,55
498,333	8,45
498,821	8,18
499,31	8,45
499,798	8,78
500,287	8,92
500,775	9,04
501,263	9,22
501,751	9,06
502,239	9,22
502,727	9,18
503,215	9,41
503,702	9,86
504,19	9,67
504,677	9,77
505,164	9,97
505,651	10,18
506,139	10,12
506,625	10,41
507,112	10,4
507,599	10,8
508,086	10,79
508,572	10,89
509,058	11,64
509,545	11,45
510,031	11,59
510,517	11,97
511,003	12,09
511,489	12,52
511,974	12,89
512,46	12,88
512,946	13,08
513,431	13,35
513,916	13,85
514,401	13,65
514,887	14,13
515,371	14,49
515,856	14,46
516,341	15,41
516,826	15,14
517,31	15,48
517,795	16,03
518,279	15,98
518,763	16,19
519,247	16,41
519,731	16,77
520,215	17,42
520,699	17,8
521,182	17,66
521,666	18,58
522,149	18,41
522,633	18,78
523,116	19,16
523,599	19,58
524,082	19,66
524,565	20,04
525,048	20
525,53	20,53
526,013	20,85
526,495	20,91
526,978	21,19
527,46	22
527,942	21,77
528,424	22,34
528,906	22,36
529,388	22,57
529,87	23,22
530,351	22,88
530,833	23,09
531,314	23,11
531,795	23,21
532,277	23,49
532,758	23,79
533,238	23,88
533,719	23,88
534,2	24,47
534,681	23,78
535,161	24,52
535,642	24,73
536,122	24,28
536,602	24,59
537,082	25,01
537,562	24,98
538,042	25,01
538,522	25,21
539,001	25,34
539,481	24,97
539,96	25,17
540,44	25,04
540,919	25,57
541,398	25,24
541,877	25,34
542,356	25,36
542,835	25,2
543,313	25,52
543,792	25,58
544,27	25,4
544,749	25,64
545,227	25,77
545,705	25,44
546,183	25,64
546,661	25,63
547,139	25,67
547,616	25,95
548,094	25,95
548,571	25,82
549,049	25,9
549,526	25,89
550,003	25,86
550,48	25,97
550,957	26,16
551,434	26,37
551,911	26,42
552,387	26,14
552,864	26,19
553,34	26,07
553,817	26,09
554,293	26,18
554,769	25,98
555,245	25,89
555,721	26,07
556,197	26,35
556,672	26,43
557,148	26,05
557,623	25,97
558,099	25,67
558,574	25,97
559,049	25,68
559,524	25,79
559,999	25,98
560,474	25,34
560,948	25,51
561,423	25,74
561,897	25,6
562,372	25,39
562,846	25,42
563,32	25,27
563,794	25,18
564,268	24,78
564,742	24,9
565,216	24,52
565,69	24,63
566,163	24,58
566,636	24,3
567,11	24,05
567,583	24,09
568,056	23,87
568,529	24,23
569,002	23,58
569,475	23,48
569,947	23,39
570,42	23,07
570,892	22,73
571,365	22,82
571,837	22,99
572,309	22,42
572,781	22,28
573,253	22,05
573,725	21,96
574,197	21,95
574,668	21,89
575,14	21,48
575,611	21,23
576,082	20,96
576,554	20,98
577,025	21,1
577,496	20,57
577,967	20,65
578,437	20,55
578,908	20,13
579,379	20,15
579,849	20,02
580,319	19,82
580,79	19,94
581,26	19,67
581,73	19,65
582,2	19,62
582,669	19,55
583,139	19,23
583,609	19,15
584,078	19,14
584,548	18,91
585,017	18,84
585,486	18,93
585,955	18,58
586,424	18,65
586,893	18,6
587,362	18,46
587,83	18,5
588,299	18,23
588,767	18,37
589,236	17,88
589,704	18,01
590,172	18,13
590,64	18,07
591,108	17,64
591,576	17,77
592,043	17,86
592,511	17,73
592,978	17,6
593,446	17,75
593,913	17,53
594,38	17,66
594,847	17,39
595,314	17,42
595,781	17,23
596,248	17,25
596,715	17,42
597,181	17,18
597,647	17,02
598,114	17,11
598,58	17,09
599,046	17,31
599,512	17,11
599,978	17,17
600,444	17,02
600,91	17,04
601,375	17,14
601,841	16,82
602,306	16,9
602,771	16,78
603,236	16,76
603,702	16,79
604,167	16,76
604,631	16,44
605,096	16,64
605,561	16,66
606,025	16,47
606,49	16,27
606,954	16,41
607,418	16,22
607,882	16,17
608,347	16,14
608,81	15,92
609,274	15,91
609,738	15,97
610,202	15,82
610,665	15,54
611,128	15,34
611,592	15,2
612,055	15,35
612,518	15,21
612,981	15,25
613,444	14,93
613,907	14,78
614,369	14,78
614,832	14,85
615,294	14,63
615,757	14,62
616,219	14,5
616,681	14,41
617,143	14,23
617,605	14,16
618,067	14,21
618,529	13,92
618,99	13,99
619,452	14,1
619,913	13,99
620,375	13,93
620,836	13,77
621,297	13,77
621,758	13,74
622,219	13,49
622,68	13,67
623,14	13,49
623,601	13,44
624,061	13,49
624,522	13,33
624,982	13,48
625,442	13,36
625,902	13,35
626,362	13,41
626,822	13,1
627,282	13,26
627,742	13,12
628,201	13,3
628,661	13,12
629,12	13,11
629,579	13,15
630,038	13,16
630,497	13,05
630,956	13,27
631,415	13,03
631,874	13,04
632,332	12,93
632,791	12,96
633,249	12,88
633,708	12,86
634,166	12,89
634,624	12,75
635,082	12,79
635,54	12,58
635,998	12,75
636,455	12,54
636,913	12,52
637,37	12,37
637,828	12,25
638,285	12,24
638,742	11,99
639,199	11,95
639,656	11,87
640,113	11,84
640,57	11,85
641,027	11,6
641,483	11,46
641,94	11,48
642,396	11,39
642,852	11,06
643,309	11,26
643,765	10,95
644,221	10,86
644,676	10,74
645,132	10,77
645,588	10,66
646,043	10,42
646,499	10,3
646,954	10,14
647,409	10,08
647,864	10
648,319	9,89
648,774	9,86
649,229	9,86
649,684	9,7
650,139	9,56
650,593	9,6
651,047	9,63
651,502	9,51
651,956	9,44
652,41	9,37
652,864	9,34
653,318	9,34
653,772	9,21
654,225	9,23
654,679	9,11
655,133	9,12
655,586	8,99
656,039	8,84
656,492	8,9
656,946	8,86
657,399	8,84
657,851	8,68
658,304	8,68
658,757	8,47
659,209	8,53
659,662	8,36
660,114	8,38
660,567	8,21
661,019	8,16
661,471	8,07
661,923	7,98
662,375	7,85
662,826	7,8
663,278	7,72
663,73	7,72
664,181	7,63
664,632	7,7
665,084	7,58
665,535	7,54
665,986	7,41
666,437	7,47
666,888	7,4
667,338	7,39
667,789	7,32
668,24	7,38
668,69	7,31
669,14	7,42
669,591	7,36
670,041	7,36
670,491	7,35
670,941	7,43
671,391	7,46
671,84	7,36
672,29	7,38
672,74	7,38
673,189	7,42
673,638	7,55
674,088	7,61
674,537	7,51
674,986	7,66
675,435	7,6
675,883	7,73
676,332	7,78
676,781	7,84
677,229	7,94
677,678	7,97
678,126	8,06
678,574	8,11
679,022	8,24
679,47	8,26
679,918	8,28
680,366	8,36
680,814	8,54
681,261	8,46
681,709	8,48
682,156	8,73
682,604	8,81
683,051	8,99
683,498	8,97
683,945	9,02
684,392	9,13
684,839	9,32
685,286	9,46
685,732	9,59
686,179	9,68
686,625	9,82
687,071	9,91
687,518	10,22
687,964	10,28
688,41	10,53
688,856	10,77
689,301	10,97
689,747	11,27
690,193	11,55
690,638	11,97
691,084	12,15
691,529	12,68
691,974	12,94
692,419	13,48
692,864	13,92
693,309	14,36
693,754	14,79
694,199	15,31
694,643	15,78
695,088	16,31
695,532	16,77
695,977	17,53
696,421	18,03
696,865	18,67
697,309	19,15
697,753	19,93
698,197	20,54
698,64	21,09
699,084	21,32
699,527	22,02
699,971	22,88
700,414	23,41
700,857	23,88
701,3	24,46
701,743	24,83
702,186	25,22
702,629	26,22
703,072	26,51
703,515	27,25
703,957	27,65
704,399	28,21
704,842	28,76
705,284	29,38
705,726	29,73
706,168	30,38
706,61	30,66
707,052	31,34
707,494	31,62
707,935	32,28
708,377	32,69
708,818	33,04
709,26	33,34
709,701	33,84
710,142	34,28
710,583	34,93
711,024	35,4
711,465	35,59
711,905	36,3
712,346	36,51
712,787	36,95
713,227	37,34
713,667	37,69
714,108	38,2
714,548	38,74
714,988	39
715,428	38,97
715,868	39,47
716,307	39,84
716,747	40,3
717,186	40,35
717,626	40,91
718,065	41,35
718,504	41,43
718,944	41,94
719,383	42,39
719,822	42,68
720,261	42,83
720,699	43,16
721,138	43,28
721,576	43,78
722,015	44
722,453	44,18
722,892	44,76
723,33	44,64
723,768	45,22
724,206	45,21
724,644	45,61
725,081	45,9
725,519	46,12
725,957	46,02
726,394	46,52
726,832	46,47
727,269	46,58
727,706	47,1
728,143	47,34
728,58	47,26
729,017	47,62
729,454	47,57
729,89	47,75
730,327	47,85
730,764	48,22
731,2	48,47
731,636	48,18
732,072	48,47
732,509	48,78
732,945	49,08
733,38	49,02
733,816	48,98
734,252	49,26
734,688	49,32
735,123	49,05
735,559	49,27
735,994	49,47
736,429	49,83
736,864	49,65
737,299	49,76
737,734	50,12
738,169	50,02
738,604	49,86
739,038	49,91
739,473	50,39
739,907	49,93
740,342	50,08
740,776	50,15
741,21	50,04
741,644	50,21
742,078	50,33
742,512	50,73
742,946	50,4
743,379	50,21
743,813	50,55
744,246	50,6
744,68	50,48
745,113	50,28
745,546	50,62
745,979	50,51
746,412	50,4
746,845	50,49
747,278	50,24
747,711	50,55
748,143	50,3
748,576	50,4
749,008	50,76
749,441	50,36
749,873	50,42
750,305	50,48
750,737	50,33
751,169	50,31
751,601	50,64
752,032	50,41
752,464	50,51
752,896	50,35
753,327	50,55
753,758	50,34
754,19	50,39
754,621	50,63
755,052	50,15
755,483	50,23
755,914	50,42
756,344	50,05
756,775	50,44
757,206	50,61
757,636	50,19
758,066	50,11
758,497	50,25
758,927	50,08
759,357	50,24
759,787	50,22
760,217	50,07
760,647	49,94
761,076	50,22
761,506	49,96
761,935	50,29
762,365	49,91
762,794	50,03
763,223	50,11
763,653	50,24
764,082	50,07
764,51	49,84
764,939	49,83
765,368	49,76
765,797	49,66
766,225	49,88
766,654	49,88
767,082	49,89
767,51	49,64
767,938	49,46
768,367	49,62
768,795	49,21
769,222	49,74
769,65	49,86
770,078	49,67
770,505	49,77
770,933	49,69
771,36	49,51
771,788	49,56
772,215	49,57
772,642	49,67
773,069	49,72
773,496	49,43
773,923	49,83
774,349	49,7
774,776	49,37
775,203	49,38
775,629	49,56
776,055	49,41
776,482	49,6
776,908	49,36
777,334	49,41
777,76	49,38
778,186	49,62
778,611	49,25
779,037	49,41
779,463	49,3
779,888	49,43
780,314	49,44
780,739	49,28
781,164	49,24
781,589	49,54
782,014	49,21
782,439	49,19
782,864	49,32
783,289	49,56
783,713	49,01
784,138	49,45
784,562	49,21
784,987	49,23
785,411	48,99
785,835	49,16
786,259	48,99
786,683	49,07
787,107	49,37
787,531	49,13
787,954	48,93
788,378	49,32
788,802	49,29
789,225	49,03
789,648	49,45
790,071	49,3
790,495	49,38
790,918	48,93
791,34	49,13
791,763	49,26
792,186	49,2
792,609	48,93
793,031	49,13
793,454	48,82
793,876	49,05
794,298	48,95
794,721	48,96
795,143	49,05
795,565	48,7
795,986	48,84
796,408	49,18
796,83	48,94
797,252	49,23
797,673	49,07
798,094	49,23
798,516	49,42
798,937	48,78
799,358	49,03
799,779	48,82
800,2	48,81
800,621	48,82
801,042	49,17
801,462	49,25
801,883	49,45
802,303	48,94
802,724	48,81
803,144	49,14
803,564	48,81
803,984	49,16
804,404	48,77
804,824	48,92
805,244	48,97
805,664	48,84
806,084	49,04
806,503	48,89
806,923	49,09
807,342	49,13
807,761	48,79
808,18	48,96
808,599	48,52
809,018	48,99
809,437	48,78
809,856	49
810,275	48,91
810,693	48,8
811,112	49,15
811,53	48,99
811,949	48,98
812,367	48,68
812,785	48,8
813,203	48,8
813,621	48,97
814,039	48,53
814,457	49,16
814,874	48,8
815,292	49,03
815,709	49,11
816,127	48,55
816,544	49,03
816,961	48,95
817,378	49,47
817,795	48,86
818,212	48,67
818,629	48,83
819,046	49
819,462	48,86
819,879	49,06
820,295	48,95
820,712	49,05
821,128	49,02
821,544	48,94
821,96	48,88
822,376	48,89
822,792	48,79
823,208	48,75
823,624	48,48
824,039	48,78
824,455	48,99
824,87	49,12
825,286	49,05
825,701	48,71
826,116	48,93
826,531	48,9
826,946	49,07
827,361	48,97
827,776	49,13
828,19	48,91
828,605	48,55
829,02	48,79
829,434	48,61
829,848	48,76
830,263	48,77
830,677	48,82
831,091	49,09
831,505	48,99
831,919	48,98
832,332	48,77
832,746	48,83
833,16	48,59
833,573	48,49
833,987	48,55
834,4	48,65
834,813	48,81
835,226	48,91
835,639	48,71
836,052	48,84
836,465	48,62
836,878	48,71
837,29	48,94
837,703	48,76
838,116	48,7
838,528	48,68
838,94	48,5
839,352	48,99
839,765	48,4
840,177	48,81
840,589	48,82
841	48,4
