Data from L_5__Relative__7__00204.txt Node

Date: Mon Jan 29 18:32:38 CET 2024
User: diatiterra
Spectrometer: HDX00911
Trigger mode: 0
Integration Time (sec): 6,000000E-3
Scans to average: 2
Nonlinearity correction enabled: false
Boxcar width: 0
Storing dark spectrum: false
XAxis mode: Wavelengths
Number of Pixels in Spectrum: 2068
>>>>>Begin Spectral Data<<<<<
194,468	85,29
195,025	53,98
195,581	70,21
196,138	56,15
196,694	55,75
197,251	50,22
197,807	61,2
198,363	52,73
198,919	45,55
199,474	46,43
200,03	44,85
200,586	44,9
201,141	54,31
201,696	41,52
202,251	53,87
202,806	39,47
203,361	48,07
203,916	48,63
204,471	51,76
205,025	47,5
205,58	48,39
206,134	43,33
206,688	51,09
207,242	42,18
207,796	44,75
208,35	54,15
208,904	45,42
209,457	46,21
210,011	47,9
210,564	50,35
211,117	44,01
211,67	50
212,223	43,84
212,776	54,68
213,329	43,64
213,881	42,86
214,434	46,55
214,986	44,44
215,538	45,79
216,09	45,9
216,642	53,33
217,194	45,7
217,746	46,8
218,297	46,64
218,849	48,6
219,4	48,95
219,951	50,55
220,502	49,13
221,053	42,95
221,604	52,68
222,155	55,97
222,705	51,51
223,256	54,32
223,806	44,22
224,356	56,88
224,906	49,63
225,456	44,14
226,006	41,28
226,556	47,08
227,106	42,31
227,655	53,31
228,204	52,3
228,754	45,17
229,303	48,14
229,852	44,77
230,401	42,65
230,949	63,81
231,498	44,03
232,047	42,09
232,595	53,55
233,143	59,47
233,691	46,8
234,239	48,13
234,787	53,5
235,335	47,28
235,883	42,29
236,43	46,67
236,978	43,64
237,525	48,88
238,072	44,28
238,619	34,93
239,166	44,44
239,713	47,21
240,26	53,56
240,806	47,52
241,353	44,52
241,899	45,95
242,445	47,55
242,991	48,08
243,537	50,17
244,083	50,91
244,629	46,96
245,174	53,36
245,72	44,15
246,265	51,59
246,81	50
247,355	42,28
247,9	41,87
248,445	58,62
248,99	47,4
249,534	43,04
250,079	51,87
250,623	49,49
251,168	45,64
251,712	49,65
252,256	50,5
252,8	55,56
253,343	52,87
253,887	48,64
254,43	53,16
254,974	37,41
255,517	48,32
256,06	46,92
256,603	48,68
257,146	45,45
257,689	39,56
258,232	51,72
258,774	52,77
259,317	46,52
259,859	46,13
260,401	52,27
260,943	46,27
261,485	45,39
262,027	40,69
262,569	43,61
263,11	45,49
263,652	44,85
264,193	45,71
264,734	51,19
265,275	57,83
265,816	53,96
266,357	52,88
266,898	37,2
267,438	47,06
267,979	49,82
268,519	47,65
269,059	47,87
269,6	51,93
270,14	45,87
270,68	49,04
271,219	48,07
271,759	45,52
272,298	34,91
272,838	46,9
273,377	45,93
273,916	46,21
274,455	44,06
274,994	46,04
275,533	48,81
276,072	44,74
276,61	48,81
277,149	36,23
277,687	51,6
278,225	41,78
278,763	48,91
279,301	52,08
279,839	46,38
280,377	45,99
280,914	47,99
281,452	57,32
281,989	49,15
282,526	43,73
283,064	47,22
283,601	51,89
284,137	47,08
284,674	50,19
285,211	46,76
285,747	48,47
286,284	35,79
286,82	41,49
287,356	43,99
287,892	45,96
288,428	42,71
288,964	43,68
289,5	53,06
290,035	48,92
290,571	48,13
291,106	35,64
291,641	44,44
292,176	50,75
292,711	47,59
293,246	42,6
293,781	46,1
294,315	42,28
294,85	59,49
295,384	51,48
295,918	44,6
296,453	48,41
296,987	44,83
297,52	48,63
298,054	46,32
298,588	51,18
299,121	44,32
299,655	43,16
300,188	41,44
300,721	54,14
301,254	49,82
301,787	47,97
302,32	52,65
302,853	41,46
303,385	53,48
303,918	50,18
304,45	46,72
304,982	49
305,514	56,09
306,046	46,67
306,578	43,57
307,11	48,7
307,641	45,82
308,173	43,12
308,704	44,06
309,236	49,81
309,767	47,5
310,298	47,39
310,829	49,05
311,359	45,55
311,89	46,98
312,421	52,54
312,951	48
313,481	59,04
314,012	47,62
314,542	54,45
315,072	40
315,601	50,89
316,131	38,69
316,661	52,08
317,19	45,91
317,72	49,08
318,249	50
318,778	44,49
319,307	47,3
319,836	52,01
320,365	51,14
320,893	44,68
321,422	54,48
321,95	44,44
322,479	51,56
323,007	46,74
323,535	56,98
324,063	55,22
324,591	47
325,118	40,21
325,646	48,46
326,173	53,21
326,701	49,45
327,228	49,2
327,755	46,59
328,282	53,21
328,809	48,52
329,336	41,87
329,862	54,23
330,389	48,81
330,915	48,23
331,441	55,93
331,968	41,92
332,494	46,49
333,02	41,24
333,545	45,85
334,071	52,67
334,597	46,28
335,122	43,81
335,648	56,78
336,173	50,5
336,698	46,92
337,223	58,36
337,748	44,21
338,272	52,81
338,797	47,9
339,322	43,19
339,846	48,44
340,37	40,66
340,894	47,95
341,419	46,64
341,942	53,02
342,466	41,98
342,99	44,31
343,514	45,45
344,037	46,89
344,56	45,14
345,084	41,64
345,607	50,76
346,13	41,23
346,653	38,68
347,175	45,16
347,698	36,9
348,221	37,5
348,743	41,98
349,265	46,43
349,787	41,14
350,309	43,8
350,831	51,64
351,353	44,18
351,875	45,22
352,397	47,93
352,918	46,61
353,439	44,44
353,961	43,1
354,482	51,4
355,003	49,6
355,524	41,84
356,044	44,59
356,565	39,9
357,086	42,24
357,606	43,86
358,126	45,26
358,646	43,53
359,167	47,42
359,687	41,51
360,206	45,3
360,726	38,91
361,246	44,58
361,765	44,08
362,285	46,21
362,804	43,78
363,323	38,76
363,842	45
364,361	41,99
364,88	44,73
365,398	41,5
365,917	46,61
366,435	47,85
366,954	37,88
367,472	40,51
367,99	45,38
368,508	47,27
369,026	41,86
369,544	39,82
370,061	42,53
370,579	42,03
371,096	40,33
371,613	42,02
372,131	48,06
372,648	41,52
373,165	44,37
373,681	42,91
374,198	44,26
374,715	42,88
375,231	44,2
375,747	44,13
376,264	41,69
376,78	47,37
377,296	44,78
377,812	40,8
378,327	40,59
378,843	43,57
379,359	41,01
379,874	42,49
380,389	42,78
380,905	43,1
381,42	38,77
381,935	42,13
382,449	44,35
382,964	39,83
383,479	44,7
383,993	41,35
384,508	40,75
385,022	40,72
385,536	39,6
386,05	39,74
386,564	37,25
387,078	38,74
387,592	40,21
388,105	37,17
388,619	37,76
389,132	40,11
389,645	39,2
390,158	36,13
390,671	37,26
391,184	33,68
391,697	35,52
392,21	35,76
392,722	35,15
393,235	33,39
393,747	36,53
394,259	36,55
394,771	33,91
395,283	33,76
395,795	31,52
396,307	34,08
396,818	35,17
397,33	32,79
397,841	33,99
398,353	32,2
398,864	31,59
399,375	33,03
399,886	30,22
400,397	31,25
400,907	30,63
401,418	29,38
401,928	28,97
402,439	29,59
402,949	27,34
403,459	26,44
403,969	28,33
404,479	27,95
404,989	26,86
405,498	26,11
406,008	23,43
406,517	24,17
407,027	23,74
407,536	22,9
408,045	21,56
408,554	20,3
409,063	20,99
409,572	20,44
410,08	20,2
410,589	19,5
411,097	19,97
411,606	18,11
412,114	18,09
412,622	17,32
413,13	16,8
413,638	16,82
414,145	15,58
414,653	15,39
415,16	15,33
415,668	15,36
416,175	15,27
416,682	14,63
417,189	14,53
417,696	13,96
418,203	14,55
418,71	13,37
419,216	13,62
419,723	13,67
420,229	13,01
420,735	13,1
421,242	13,89
421,748	13,03
422,254	12,78
422,759	13,17
423,265	11,85
423,771	12,61
424,276	12,47
424,781	12,26
425,287	11,74
425,792	12,44
426,297	13,27
426,802	11,68
427,306	12,4
427,811	12,16
428,316	12,59
428,82	11,42
429,324	12,1
429,829	12,5
430,333	12,25
430,837	11,91
431,34	11,41
431,844	11,55
432,348	11,06
432,851	11,57
433,355	10,94
433,858	11,41
434,361	11,46
434,864	11,49
435,367	11,32
435,87	11,31
436,373	11,29
436,876	11,07
437,378	10,98
437,88	10,78
438,383	11,31
438,885	10,87
439,387	11
439,889	11,2
440,391	11,89
440,892	10,37
441,394	10,69
441,896	11,43
442,397	11,34
442,898	10,64
443,399	11,83
443,9	11,26
444,401	11,09
444,902	11,35
445,403	11,21
445,903	11,33
446,404	11,21
446,904	11,05
447,405	11,68
447,905	11,61
448,405	11,12
448,905	11,49
449,404	12,06
449,904	11,87
450,404	11,85
450,903	11,94
451,403	11,84
451,902	12,12
452,401	11,7
452,9	11,6
453,399	12,23
453,898	12,03
454,396	11,62
454,895	11,86
455,393	12,18
455,892	11,77
456,39	12,38
456,888	12,19
457,386	11,82
457,884	12,37
458,382	12,54
458,879	11,77
459,377	12,21
459,874	12,13
460,372	11,99
460,869	12,67
461,366	12,54
461,863	12,39
462,36	12,51
462,857	12,38
463,353	12,18
463,85	12,49
464,346	12,76
464,843	12,74
465,339	12,15
465,835	12,42
466,331	12,23
466,827	12,39
467,323	12,62
467,818	12,44
468,314	12,51
468,809	12,69
469,305	12,81
469,8	12,56
470,295	12,94
470,79	12,34
471,285	12,69
471,78	12,94
472,274	12,47
472,769	12,54
473,263	12,48
473,758	12,86
474,252	12,58
474,746	12,08
475,24	12,68
475,734	12,89
476,228	12,51
476,721	12,79
477,215	12,43
477,708	12,77
478,202	12,37
478,695	12,71
479,188	12,93
479,681	12,49
480,174	12,45
480,667	13,11
481,159	12,53
481,652	12,93
482,144	12,58
482,637	12,75
483,129	13,25
483,621	12,71
484,113	12,98
484,605	13,05
485,097	13,06
485,588	12,98
486,08	13,15
486,571	13,01
487,063	13
487,554	13,3
488,045	13,19
488,536	13,15
489,027	13,41
489,518	12,96
490,008	13,39
490,499	13,44
490,989	13,35
491,48	13,41
491,97	13,7
492,46	13,48
492,95	13,77
493,44	13,87
493,93	13,64
494,419	13,98
494,909	13,93
495,398	14
495,888	14,3
496,377	14,13
496,866	14,3
497,355	14,43
497,844	14,66
498,333	14,64
498,821	14,39
499,31	15,02
499,798	14,74
500,287	15,2
500,775	15,17
501,263	15,46
501,751	15,5
502,239	15,52
502,727	15,85
503,215	16,45
503,702	16,31
504,19	16,52
504,677	16
505,164	16,8
505,651	16,91
506,139	16,99
506,625	17,27
507,112	17,16
507,599	17,49
508,086	17,65
508,572	17,78
509,058	18,1
509,545	18,44
510,031	18,79
510,517	19,05
511,003	19,1
511,489	19,11
511,974	19,93
512,46	20,28
512,946	20,45
513,431	20,5
513,916	20,86
514,401	21,13
514,887	21,34
515,371	21,59
515,856	21,7
516,341	22,08
516,826	22,26
517,31	22,7
517,795	23,21
518,279	23,29
518,763	23,48
519,247	23,7
519,731	24,04
520,215	24,85
520,699	24,85
521,182	24,65
521,666	25,19
522,149	25,5
522,633	26,1
523,116	26,24
523,599	26,67
524,082	26,89
524,565	27,16
525,048	27,19
525,53	27,29
526,013	27,22
526,495	27,67
526,978	28,02
527,46	29,27
527,942	28,9
528,424	28,96
528,906	28,98
529,388	29,21
529,87	29,39
530,351	29,28
530,833	30,09
531,314	30,21
531,795	30,1
532,277	30,03
532,758	29,91
533,238	30,33
533,719	30,57
534,2	30,77
534,681	30,36
535,161	30,9
535,642	30,63
536,122	30,59
536,602	31,01
537,082	31,1
537,562	31,41
538,042	31,21
538,522	31,6
539,001	31,25
539,481	31,11
539,96	31
540,44	31,89
540,919	31,77
541,398	31,45
541,877	31,42
542,356	31,56
542,835	31,58
543,313	31,67
543,792	31,7
544,27	31,61
544,749	31,97
545,227	31,7
545,705	32,03
546,183	32,05
546,661	31,85
547,139	32,03
547,616	31,9
548,094	32,26
548,571	32,19
549,049	32,14
549,526	32,27
550,003	32,36
550,48	31,8
550,957	32,2
551,434	32,3
551,911	32,2
552,387	32,29
552,864	32,03
553,34	32,38
553,817	32,39
554,293	32,44
554,769	32,07
555,245	32,27
555,721	32,35
556,197	32,66
556,672	32,53
557,148	32,37
557,623	32,12
558,099	31,91
558,574	32,01
559,049	32,29
559,524	32,37
559,999	32,07
560,474	32,12
560,948	32,14
561,423	31,86
561,897	31,92
562,372	31,95
562,846	31,61
563,32	31,66
563,794	31,29
564,268	31,48
564,742	31,47
565,216	31,08
565,69	30,94
566,163	30,9
566,636	30,58
567,11	30,98
567,583	30,66
568,056	30,62
568,529	30,53
569,002	30,38
569,475	29,87
569,947	30,2
570,42	29,84
570,892	29,7
571,365	29,49
571,837	29,41
572,309	29,54
572,781	28,84
573,253	28,81
573,725	28,71
574,197	28,83
574,668	28,51
575,14	28,44
575,611	28,09
576,082	28,25
576,554	27,91
577,025	27,84
577,496	27,76
577,967	27,64
578,437	27,62
578,908	27,31
579,379	27,13
579,849	27,15
580,319	26,83
580,79	26,55
581,26	26,38
581,73	26,61
582,2	26,31
582,669	26,16
583,139	26,36
583,609	26,09
584,078	26,09
584,548	25,67
585,017	25,43
585,486	25,82
585,955	25,73
586,424	25,54
586,893	25,58
587,362	25,17
587,83	25,03
588,299	25,14
588,767	24,87
589,236	24,74
589,704	24,96
590,172	24,93
590,64	24,92
591,108	24,97
591,576	24,73
592,043	24,55
592,511	24,51
592,978	24,75
593,446	24,3
593,913	24,71
594,38	24,31
594,847	24,25
595,314	24,51
595,781	24,4
596,248	24,21
596,715	24,11
597,181	23,95
597,647	24,02
598,114	23,89
598,58	24,21
599,046	23,99
599,512	23,81
599,978	23,85
600,444	24,1
600,91	23,93
601,375	23,84
601,841	23,85
602,306	23,74
602,771	23,79
603,236	23,62
603,702	23,58
604,167	23,34
604,631	23,5
605,096	23,64
605,561	23,46
606,025	23,53
606,49	23,05
606,954	23,07
607,418	23,11
607,882	22,94
608,347	23,04
608,81	22,77
609,274	22,6
609,738	22,54
610,202	22,58
610,665	22,33
611,128	22,4
611,592	22,33
612,055	22,08
612,518	22,19
612,981	21,94
613,444	22,03
613,907	21,85
614,369	21,58
614,832	21,68
615,294	21,82
615,757	21,39
616,219	21,61
616,681	21,31
617,143	21,16
617,605	21,07
618,067	21,02
618,529	21,01
618,99	20,89
619,452	20,75
619,913	20,81
620,375	20,82
620,836	20,63
621,297	20,58
621,758	20,75
622,219	20,31
622,68	20,31
623,14	20,35
623,601	20,32
624,061	20,25
624,522	20,42
624,982	20,18
625,442	20,13
625,902	20,04
626,362	20,01
626,822	19,95
627,282	20,03
627,742	19,89
628,201	20,09
628,661	19,8
629,12	19,68
629,579	19,86
630,038	19,82
630,497	19,92
630,956	20,06
631,415	19,72
631,874	19,84
632,332	19,7
632,791	19,85
633,249	19,64
633,708	19,62
634,166	19,68
634,624	19,56
635,082	19,37
635,54	19,34
635,998	19,31
636,455	19,29
636,913	19,06
637,37	18,97
637,828	18,86
638,285	18,72
638,742	18,76
639,199	18,55
639,656	18,49
640,113	18,3
640,57	18,27
641,027	18,09
641,483	17,96
641,94	17,7
642,396	17,78
642,852	17,75
643,309	17,33
643,765	17,27
644,221	17,2
644,676	17,24
645,132	16,94
645,588	16,94
646,043	16,79
646,499	16,5
646,954	16,53
647,409	16,28
647,864	16,25
648,319	16,22
648,774	16,06
649,229	15,97
649,684	15,95
650,139	15,98
650,593	15,8
651,047	15,78
651,502	15,8
651,956	15,55
652,41	15,44
652,864	15,45
653,318	15,3
653,772	15,11
654,225	15,28
654,679	15,19
655,133	15,04
655,586	15,14
656,039	14,79
656,492	14,93
656,946	14,65
657,399	14,71
657,851	14,37
658,304	14,57
658,757	14,28
659,209	14,29
659,662	14,18
660,114	14,13
660,567	13,98
661,019	13,84
661,471	13,85
661,923	13,59
662,375	13,41
662,826	13,38
663,278	13,19
663,73	13,26
664,181	13,1
664,632	13,1
665,084	12,9
665,535	12,75
665,986	12,74
666,437	12,8
666,888	12,59
667,338	12,61
667,789	12,56
668,24	12,48
668,69	12,51
669,14	12,46
669,591	12,33
670,041	12,34
670,491	12,29
670,941	12,3
671,391	12,37
671,84	12,24
672,29	12,25
672,74	12,45
673,189	12,35
673,638	12,34
674,088	12,44
674,537	12,4
674,986	12,49
675,435	12,6
675,883	12,6
676,332	12,57
676,781	12,72
677,229	12,79
677,678	12,89
678,126	12,79
678,574	13,04
679,022	13,1
679,47	13,21
679,918	13,19
680,366	13,44
680,814	13,5
681,261	13,6
681,709	13,79
682,156	14,02
682,604	13,95
683,051	14,08
683,498	14,11
683,945	14,39
684,392	14,49
684,839	14,66
685,286	14,72
685,732	15,01
686,179	15,21
686,625	15,45
687,071	15,56
687,518	15,96
687,964	16,21
688,41	16,35
688,856	16,88
689,301	17
689,747	17,48
690,193	17,72
690,638	17,92
691,084	18,56
691,529	18,89
691,974	19,4
692,419	19,73
692,864	20,31
693,309	20,85
693,754	21,13
694,199	21,73
694,643	22,12
695,088	22,74
695,532	23
695,977	23,54
696,421	24,04
696,865	24,68
697,309	24,93
697,753	25,52
698,197	26,02
698,64	26,52
699,084	26,71
699,527	27,39
699,971	27,84
700,414	28,33
700,857	28,82
701,3	29,39
701,743	29,47
702,186	29,9
702,629	30,52
703,072	30,49
703,515	31,21
703,957	31,46
704,399	31,92
704,842	32,34
705,284	32,73
705,726	32,89
706,168	33,36
706,61	33,64
707,052	34,08
707,494	34,21
707,935	34,56
708,377	34,9
708,818	35,06
709,26	35,48
709,701	35,77
710,142	36,24
710,583	36,21
711,024	36,52
711,465	36,67
711,905	37,07
712,346	37,12
712,787	37,34
713,227	37,8
713,667	37,9
714,108	38,2
714,548	38,53
714,988	38,8
715,428	38,81
715,868	39,37
716,307	39,41
716,747	39,83
717,186	39,79
717,626	40,22
718,065	39,84
718,504	40,15
718,944	40,37
719,383	40,59
719,822	40,68
720,261	41,03
720,699	41,22
721,138	41,28
721,576	41,4
722,015	41,61
722,453	41,92
722,892	42,22
723,33	41,9
723,768	41,92
724,206	42,26
724,644	42,51
725,081	42,66
725,519	42,37
725,957	42,76
726,394	42,84
726,832	43,09
727,269	43,24
727,706	43,23
728,143	43,39
728,58	43,41
729,017	43,37
729,454	43,4
729,89	43,38
730,327	43,58
730,764	43,59
731,2	43,44
731,636	43,63
732,072	43,35
732,509	43,96
732,945	44,34
733,38	44,04
733,816	43,7
734,252	44,11
734,688	44,11
735,123	44,06
735,559	43,96
735,994	44,16
736,429	44,31
736,864	44,28
737,299	43,94
737,734	44,19
738,169	44,32
738,604	44,13
739,038	44,41
739,473	44,51
739,907	44,06
740,342	44,26
740,776	44,29
741,21	44,28
741,644	44,28
742,078	44,21
742,512	44,63
742,946	43,87
743,379	44,3
743,813	44,36
744,246	44,28
744,68	43,96
745,113	44,03
745,546	44,41
745,979	44,02
746,412	44,11
746,845	43,97
747,278	43,77
747,711	44,2
748,143	43,77
748,576	44,1
749,008	44,09
749,441	44,02
749,873	43,84
750,305	43,89
750,737	43,48
751,169	43,43
751,601	44,13
752,032	43,78
752,464	43,82
752,896	43,57
753,327	43,61
753,758	43,68
754,19	43,74
754,621	43,57
755,052	43,37
755,483	43,45
755,914	43,43
756,344	43,36
756,775	43,47
757,206	43,55
757,636	43,27
758,066	43,51
758,497	43,39
758,927	43,36
759,357	43,28
759,787	43,26
760,217	43,16
760,647	43,23
761,076	43,34
761,506	43,3
761,935	43,25
762,365	43,04
762,794	42,85
763,223	42,89
763,653	43,24
764,082	42,87
764,51	42,97
764,939	42,76
765,368	42,81
765,797	42,84
766,225	42,93
766,654	42,97
767,082	42,99
767,51	42,63
767,938	42,7
768,367	42,64
768,795	42,27
769,222	42,79
769,65	42,76
770,078	42,61
770,505	42,64
770,933	42,73
771,36	42,38
771,788	42,67
772,215	42,4
772,642	42,67
773,069	42,76
773,496	42,45
773,923	42,46
774,349	42,3
774,776	42,37
775,203	42,01
775,629	42,3
776,055	42,26
776,482	42,44
776,908	42,24
777,334	42,27
777,76	42,11
778,186	42,09
778,611	42,07
779,037	42,34
779,463	42,04
779,888	42,19
780,314	42,2
780,739	42
781,164	42,03
781,589	42,13
782,014	42,17
782,439	42,11
782,864	42,06
783,289	42,15
783,713	42,04
784,138	41,92
784,562	42
784,987	41,81
785,411	41,67
785,835	41,94
786,259	41,75
786,683	41,89
787,107	41,99
787,531	41,65
787,954	42,05
788,378	42,02
788,802	41,87
789,225	41,72
789,648	42,04
790,071	41,99
790,495	41,99
790,918	41,63
791,34	41,94
791,763	41,76
792,186	41,74
792,609	41,91
793,031	41,78
793,454	41,93
793,876	41,77
794,298	41,84
794,721	41,89
795,143	41,82
795,565	41,53
795,986	41,73
796,408	41,93
796,83	41,73
797,252	41,97
797,673	41,88
798,094	41,83
798,516	41,69
798,937	41,46
799,358	41,62
799,779	41,72
800,2	41,4
800,621	41,39
801,042	41,79
801,462	41,61
801,883	41,63
802,303	41,56
802,724	41,64
803,144	41,72
803,564	41,63
803,984	41,65
804,404	41,6
804,824	41,7
805,244	41,59
805,664	41,73
806,084	41,42
806,503	41,81
806,923	41,52
807,342	41,85
807,761	41,36
808,18	41,52
808,599	41,56
809,018	41,36
809,437	41,43
809,856	41,42
810,275	41,57
810,693	41,41
811,112	41,42
811,53	41,5
811,949	41,59
812,367	41,34
812,785	41,47
813,203	41,52
813,621	41,56
814,039	41,27
814,457	41,78
814,874	41,51
815,292	41,78
815,709	41,6
816,127	41,07
816,544	41,62
816,961	41,46
817,378	41,55
817,795	41,26
818,212	41,72
818,629	41,29
819,046	41,59
819,462	41,33
819,879	41,7
820,295	41,19
820,712	41,54
821,128	41,45
821,544	41,32
821,96	41,23
822,376	41,46
822,792	41,43
823,208	41,17
823,624	41,28
824,039	41,13
824,455	41,69
824,87	41,63
825,286	41,28
825,701	41,43
826,116	41,26
826,531	41,35
826,946	41,33
827,361	41,34
827,776	41,23
828,19	41,09
828,605	41,27
829,02	41,19
829,434	41,19
829,848	41,25
830,263	41,14
830,677	41,16
831,091	41,32
831,505	41,02
831,919	41,49
832,332	41,09
832,746	41,22
833,16	40,98
833,573	41,09
833,987	40,89
834,4	41,38
