Data from L_5__Relative__0__00197.txt Node

Date: Mon Jan 29 18:31:53 CET 2024
User: diatiterra
Spectrometer: HDX00911
Trigger mode: 0
Integration Time (sec): 6,000000E-3
Scans to average: 2
Nonlinearity correction enabled: false
Boxcar width: 0
Storing dark spectrum: false
XAxis mode: Wavelengths
Number of Pixels in Spectrum: 2068
>>>>>Begin Spectral Data<<<<<
194,468	55,88
195,025	45,13
195,581	47,87
196,138	49,23
196,694	50
197,251	38,67
197,807	45,2
198,363	45,82
198,919	42,7
199,474	31,79
200,03	40,07
200,586	32,65
201,141	38,2
201,696	35,64
202,251	38,01
202,806	36,47
203,361	32,63
203,916	42,12
204,471	36,97
205,025	36,43
205,58	36,2
206,134	30,74
206,688	29,35
207,242	37,07
207,796	39,66
208,35	32,13
208,904	30,51
209,457	40,43
210,011	40,21
210,564	37,15
211,117	38,73
211,67	32,04
212,223	40,07
212,776	40,82
213,329	27,49
213,881	26,43
214,434	35,86
214,986	30,98
215,538	30,4
216,09	29,84
216,642	42,22
217,194	31,79
217,746	38,05
218,297	28,19
218,849	33,33
219,4	39,51
219,951	41,09
220,502	30,31
221,053	36,68
221,604	33,22
222,155	44,44
222,705	35,45
223,256	36,33
223,806	36,73
224,356	35,87
224,906	27,78
225,456	33,45
226,006	31,88
226,556	37,96
227,106	32,87
227,655	37,98
228,204	33,88
228,754	33,79
229,303	38,98
229,852	31,37
230,401	31,9
230,949	43,97
231,498	38,43
232,047	26,94
232,595	28,01
233,143	44,32
233,691	31,6
234,239	27,99
234,787	33,57
235,335	39,8
235,883	36,56
236,43	38,15
236,978	31,27
237,525	35,07
238,072	32,84
238,619	34,59
239,166	31,65
239,713	37,55
240,26	37,45
240,806	30,85
241,353	40,28
241,899	35,6
242,445	42,66
242,991	36,93
243,537	35,97
244,083	34,18
244,629	33,45
245,174	49,25
245,72	36,45
246,265	39,93
246,81	39,78
247,355	30,15
247,9	30,8
248,445	39,66
248,99	40,48
249,534	37,97
250,079	39,55
250,623	32,88
251,168	42,28
251,712	39,01
252,256	43,19
252,8	43,06
253,343	41,08
253,887	36,05
254,43	44,61
254,974	39,86
255,517	37,25
256,06	38,01
256,603	45,28
257,146	42,42
257,689	38,61
258,232	38,7
258,774	34,32
259,317	34,8
259,859	35,79
260,401	38,26
260,943	44,03
261,485	37,59
262,027	31,72
262,569	45,49
263,11	42,6
263,652	37,5
264,193	36,79
264,734	42,86
265,275	41,77
265,816	37,41
266,357	40,65
266,898	35,15
267,438	29,41
267,979	35,64
268,519	42,96
269,059	45,74
269,6	41,75
270,14	36,3
270,68	34,87
271,219	42,81
271,759	35,45
272,298	34,18
272,838	36,82
273,377	45,93
273,916	38,27
274,455	39,46
274,994	37,05
275,533	41,3
276,072	37,22
276,61	33,79
277,149	30,8
277,687	37,01
278,225	35,27
278,763	40,22
279,301	40
279,839	42,03
280,377	36,13
280,914	32,23
281,452	43,5
281,989	45,39
282,526	41,94
283,064	41,67
283,601	46,59
284,137	38,32
284,674	44,91
285,211	25,9
285,747	42,71
286,284	38,6
286,82	41,13
287,356	36,08
287,892	33,33
288,428	39,32
288,964	37,18
289,5	39,12
290,035	40,29
290,571	35,82
291,106	38,91
291,641	29,5
292,176	44,36
292,711	44,14
293,246	39,71
293,781	38,66
294,315	35,66
294,85	34,67
295,384	38,52
295,918	36,24
296,453	36,4
296,987	34,14
297,52	31,51
298,054	37,5
298,588	42,13
299,121	31,87
299,655	31,58
300,188	40,68
300,721	42,76
301,254	41,28
301,787	36,18
302,32	43,94
302,853	40,42
303,385	44,69
303,918	38,95
304,45	40,54
304,982	36,25
305,514	43,17
306,046	36,14
306,578	38,57
307,11	36,06
307,641	40,73
308,173	36,43
308,704	42,15
309,236	41,2
309,767	34,58
310,298	39,72
310,829	41,06
311,359	41,28
311,89	40,57
312,421	35,51
312,951	48,36
313,481	40,56
314,012	41,76
314,542	33,56
315,072	38,55
315,601	36,65
316,131	28,1
316,661	35,42
317,19	37,37
317,72	42,12
318,249	37,16
318,778	36,5
319,307	36,82
319,836	40,94
320,365	38,44
320,893	40,07
321,422	34,33
321,95	33,7
322,479	44,64
323,007	34,42
323,535	41,13
324,063	39,93
324,591	32,67
325,118	37,06
325,646	42,69
326,173	43,57
326,701	39,64
327,228	39,3
327,755	39,07
328,282	34,72
328,809	38,52
329,336	41,18
329,862	33,85
330,389	33,79
330,915	36,88
331,441	28,81
331,968	36,08
332,494	37,12
333,02	36,5
333,545	32,49
334,071	30
334,597	36,15
335,122	28,09
335,648	32,97
336,173	37,29
336,698	35,27
337,223	41,3
337,748	34,74
338,272	32,34
338,797	34,3
339,322	34,22
339,846	25,39
340,37	26,74
340,894	35,27
341,419	34,9
341,942	31,88
342,466	26,96
342,99	30,15
343,514	26,62
344,037	26,23
344,56	30,09
345,084	26,18
345,607	26,75
346,13	31,38
346,653	23,58
347,175	32,26
347,698	27,38
348,221	25
348,743	36,15
349,265	29,17
349,787	26,57
350,309	29,48
350,831	29,55
351,353	33,07
351,875	26,97
352,397	29,2
352,918	35,88
353,439	31,71
353,961	27,32
354,482	30,34
355,003	28,95
355,524	27,81
356,044	30,61
356,565	26,18
357,086	27,48
357,606	29,88
358,126	28,71
358,646	28,36
359,167	28,01
359,687	32,31
360,206	30,12
360,726	25,52
361,246	31,08
361,765	24,34
362,285	23,22
362,804	26,89
363,323	31,88
363,842	27,14
364,361	22,29
364,88	27,64
365,398	24,06
365,917	26,9
366,435	24,89
366,954	29,06
367,472	25,8
367,99	25,87
368,508	28,32
369,026	26,16
369,544	24,91
370,061	27,59
370,579	25,52
371,096	22,26
371,613	23,85
372,131	25,35
372,648	27,26
373,165	26
373,681	26,62
374,198	24,1
374,715	29,34
375,231	25,6
375,747	21,65
376,264	25,88
376,78	25,36
377,296	27,37
377,812	20,18
378,327	23,56
378,843	26,88
379,359	23,48
379,874	23,5
380,389	24,07
380,905	21,35
381,42	23,89
381,935	24
382,449	24,78
382,964	25,33
383,479	24,78
383,993	22,6
384,508	24,71
385,022	24,27
385,536	21,92
386,05	21,96
386,564	22,98
387,078	21,88
387,592	22,08
388,105	20,06
388,619	20,85
389,132	22,81
389,645	22,44
390,158	19,51
390,671	21,12
391,184	19,18
391,697	18,81
392,21	18,91
392,722	20,29
393,235	19,48
393,747	20,02
394,259	19,57
394,771	18,81
395,283	17,68
395,795	19,1
396,307	17,35
396,818	17,93
397,33	15,62
397,841	17,53
398,353	17,98
398,864	17,34
399,375	16,79
399,886	15,15
400,397	15,44
400,907	15,9
401,418	14,46
401,928	15,11
402,439	16,8
402,949	15,59
403,459	13,94
403,969	13,86
404,479	14,03
404,989	12,22
405,498	13,32
406,008	11,9
406,517	11,39
407,027	12,45
407,536	10,9
408,045	10,97
408,554	11,91
409,063	10,38
409,572	10,72
410,08	10,46
410,589	8,61
411,097	9,67
411,606	9,38
412,114	9,2
412,622	8,7
413,13	8,93
413,638	8,04
414,145	8,23
414,653	8,07
415,16	7,8
415,668	7,17
416,175	7,33
416,682	7,53
417,189	6,99
417,696	7,03
418,203	7,24
418,71	6,78
419,216	6,94
419,723	7,02
420,229	6,73
420,735	6,74
421,242	6,88
421,748	6,53
422,254	6,23
422,759	6,46
423,265	6,42
423,771	5,99
424,276	5,96
424,781	5,61
425,287	6,32
425,792	6,55
426,297	6,36
426,802	5,52
427,306	5,81
427,811	5,75
428,316	6,1
428,82	5,52
429,324	5,69
429,829	6,12
430,333	5,76
430,837	5,5
431,34	5,48
431,844	5,75
432,348	5,61
432,851	5,39
433,355	5,56
433,858	5,12
434,361	5,49
434,864	5,54
435,367	5,44
435,87	5,66
436,373	5,6
436,876	5,18
437,378	5,28
437,88	5,22
438,383	5,5
438,885	5,59
439,387	4,9
439,889	5,62
440,391	5,84
440,892	5,36
441,394	5,07
441,896	5,42
442,397	5,37
442,898	5,22
443,399	6,03
443,9	5,74
444,401	5,82
444,902	5,3
445,403	5,74
445,903	5,45
446,404	5,8
446,904	5,39
447,405	5,65
447,905	5,53
448,405	5,54
448,905	5,72
449,404	5,37
449,904	5,78
450,404	5,79
450,903	5,5
451,403	5,88
451,902	6,15
452,401	5,78
452,9	5,92
453,399	6,15
453,898	6,05
454,396	5,89
454,895	6,02
455,393	5,52
455,892	6,08
456,39	6,09
456,888	5,89
457,386	6
457,884	5,94
458,382	5,83
458,879	6,13
459,377	6,02
459,874	5,73
460,372	5,93
460,869	6,02
461,366	5,65
461,863	6,03
462,36	6,01
462,857	6,07
463,353	6,06
463,85	5,99
464,346	5,79
464,843	6,12
465,339	6,05
465,835	5,85
466,331	5,88
466,827	5,92
467,323	5,82
467,818	5,96
468,314	6,04
468,809	5,91
469,305	6,06
469,8	6,01
470,295	5,97
470,79	6,32
471,285	6,15
471,78	5,98
472,274	5,97
472,769	6,1
473,263	5,73
473,758	6,14
474,252	5,87
474,746	5,88
475,24	6,07
475,734	6,08
476,228	6
476,721	5,93
477,215	6,03
477,708	5,94
478,202	6,18
478,695	5,94
479,188	6,2
479,681	5,87
480,174	6
480,667	6,05
481,159	5,94
481,652	6,16
482,144	5,81
482,637	6,27
483,129	6,38
483,621	5,78
484,113	6,47
484,605	6,25
485,097	6,24
485,588	6,15
486,08	6,34
486,571	6,1
487,063	6,36
487,554	6,24
488,045	6,64
488,536	6,36
489,027	6,29
489,518	6,43
490,008	6,5
490,499	6,27
490,989	6,51
491,48	6,51
491,97	6,46
492,46	6,56
492,95	6,74
493,44	6,87
493,93	6,6
494,419	6,8
494,909	6,87
495,398	6,77
495,888	6,91
496,377	7,11
496,866	6,9
497,355	7,16
497,844	7,31
498,333	7,38
498,821	7,37
499,31	7,48
499,798	7,65
500,287	7,71
500,775	7,7
501,263	7,65
501,751	7,86
502,239	7,88
502,727	7,94
503,215	8,11
503,702	8,17
504,19	8,35
504,677	8,68
505,164	8,42
505,651	8,65
506,139	9
506,625	9,15
507,112	9,32
507,599	9,57
508,086	9,33
508,572	9,53
509,058	9,58
509,545	9,69
510,031	10,12
510,517	9,84
511,003	10,33
511,489	10,51
511,974	10,82
512,46	10,99
512,946	11,19
513,431	11,16
513,916	11,49
514,401	11,7
514,887	11,7
515,371	12,03
515,856	12,24
516,341	12,28
516,826	12,66
517,31	13,03
517,795	13,27
518,279	13,38
518,763	13,71
519,247	13,75
519,731	14,06
520,215	14,09
520,699	14,54
521,182	14,59
521,666	14,98
522,149	15,04
522,633	15,37
523,116	15,46
523,599	15,81
524,082	15,8
524,565	16,29
525,048	16,06
525,53	16,57
526,013	17,03
526,495	16,83
526,978	17,44
527,46	17,54
527,942	17,61
528,424	17,86
528,906	17,81
529,388	18,15
529,87	18,3
530,351	18,07
530,833	18,49
531,314	18,85
531,795	18,69
532,277	18,82
532,758	18,74
533,238	19,07
533,719	19,01
534,2	19,41
534,681	19,27
535,161	19,59
535,642	19,18
536,122	19,35
536,602	19,65
537,082	19,27
537,562	19,64
538,042	19,54
538,522	19,79
539,001	19,81
539,481	19,71
539,96	19,68
540,44	19,86
540,919	19,66
541,398	19,77
541,877	19,56
542,356	19,89
542,835	19,99
543,313	20,23
543,792	19,98
544,27	20,09
544,749	20,24
545,227	20,09
545,705	20,33
546,183	20,15
546,661	20,26
547,139	20,28
547,616	20,6
548,094	20,35
548,571	20,62
549,049	20,48
549,526	20,17
550,003	20,49
550,48	20,47
550,957	20,79
551,434	20,6
551,911	20,28
552,387	20,54
552,864	20,66
553,34	20,28
553,817	20,43
554,293	20,56
554,769	20,64
555,245	20,44
555,721	20,6
556,197	20,73
556,672	20,6
557,148	20,4
557,623	20,67
558,099	20,35
558,574	20,08
559,049	20,51
559,524	20,53
559,999	20,19
560,474	19,93
560,948	19,98
561,423	20,18
561,897	20,11
562,372	20,12
562,846	19,82
563,32	19,6
563,794	19,9
564,268	19,8
564,742	19,67
565,216	19,63
565,69	19,41
566,163	19,45
566,636	19,49
567,11	19,28
567,583	19,07
568,056	19,13
568,529	18,94
569,002	18,73
569,475	18,37
569,947	18,44
570,42	18,57
570,892	18,13
571,365	18,14
571,837	18,19
572,309	18,06
572,781	17,92
573,253	17,73
573,725	17,61
574,197	17,47
574,668	17,21
575,14	17,37
575,611	17,26
576,082	17,39
576,554	17,03
577,025	16,95
577,496	16,87
577,967	16,67
578,437	16,52
578,908	16,41
579,379	16,31
579,849	16,41
580,319	16,17
580,79	16,07
581,26	16,29
581,73	15,81
582,2	15,89
582,669	15,78
583,139	15,54
583,609	15,56
584,078	15,61
584,548	15,39
585,017	15,47
585,486	15,28
585,955	15,36
586,424	15,13
586,893	15,27
587,362	15,06
587,83	15,26
588,299	14,87
588,767	15,02
589,236	14,73
589,704	14,79
590,172	14,83
590,64	14,58
591,108	14,74
591,576	14,7
592,043	14,67
592,511	14,53
592,978	14,49
593,446	14,49
593,913	14,34
594,38	14,58
594,847	14,24
595,314	14,35
595,781	14,19
596,248	14,1
596,715	14,35
597,181	14,12
597,647	14,35
598,114	14,21
598,58	14,18
599,046	14,2
599,512	14,13
599,978	14,13
600,444	13,98
600,91	14,05
601,375	14,02
601,841	14,1
602,306	13,96
602,771	13,99
603,236	13,77
603,702	13,92
604,167	13,75
604,631	13,65
605,096	13,62
605,561	13,76
606,025	13,57
606,49	13,49
606,954	13,45
607,418	13,51
607,882	13,28
608,347	13,5
608,81	13,16
609,274	13,11
609,738	13,07
610,202	13,1
610,665	12,94
611,128	12,99
611,592	12,87
612,055	12,8
612,518	12,78
612,981	12,73
613,444	12,39
613,907	12,3
614,369	12,33
614,832	12,39
615,294	12,25
615,757	12,2
616,219	12,21
616,681	12,02
617,143	12,05
617,605	11,71
618,067	11,89
618,529	11,94
618,99	11,71
619,452	11,85
619,913	11,71
620,375	11,58
620,836	11,4
621,297	11,65
621,758	11,53
622,219	11,57
622,68	11,49
623,14	11,32
623,601	11,39
624,061	11,27
624,522	11,36
624,982	11,34
625,442	11,49
625,902	11,52
626,362	11,21
626,822	11,2
627,282	11,12
627,742	11,06
628,201	11,16
628,661	11,16
629,12	11,05
629,579	11,18
630,038	11,07
630,497	11,2
630,956	11,06
631,415	11,01
631,874	11
632,332	10,91
632,791	11
633,249	10,95
633,708	10,99
634,166	10,8
634,624	10,79
635,082	10,84
635,54	10,72
635,998	10,67
636,455	10,77
636,913	10,57
637,37	10,54
637,828	10,54
638,285	10,49
638,742	10,35
639,199	10,19
639,656	10,31
640,113	10,02
640,57	9,95
641,027	10,01
641,483	9,95
641,94	9,67
642,396	9,8
642,852	9,74
643,309	9,54
643,765	9,43
644,221	9,43
644,676	9,33
645,132	9,27
645,588	9,17
646,043	9,08
646,499	8,94
646,954	8,86
647,409	8,65
647,864	8,63
648,319	8,76
648,774	8,56
649,229	8,52
649,684	8,47
650,139	8,33
650,593	8,36
651,047	8,24
651,502	8,37
651,956	8,2
652,41	8,16
652,864	8,04
653,318	8,14
653,772	7,94
654,225	7,94
654,679	7,91
655,133	7,86
655,586	7,9
656,039	7,69
656,492	7,8
656,946	7,64
657,399	7,61
657,851	7,61
658,304	7,5
658,757	7,36
659,209	7,32
659,662	7,2
660,114	7,16
660,567	6,97
661,019	6,92
661,471	7,04
661,923	6,88
662,375	6,87
662,826	6,7
663,278	6,66
663,73	6,68
664,181	6,53
664,632	6,53
665,084	6,43
665,535	6,39
665,986	6,29
666,437	6,26
666,888	6,28
667,338	6,26
667,789	6,13
668,24	6,17
668,69	6,14
669,14	6,17
669,591	6,07
670,041	6,11
670,491	6,04
670,941	6,08
671,391	6,07
671,84	6,05
672,29	6,2
672,74	6,11
673,189	6,1
673,638	6,08
674,088	6,17
674,537	6,12
674,986	6,17
675,435	6,19
675,883	6,24
676,332	6,34
676,781	6,33
677,229	6,39
677,678	6,33
678,126	6,59
678,574	6,55
679,022	6,61
679,47	6,54
679,918	6,75
680,366	6,83
680,814	6,83
681,261	6,84
681,709	6,96
682,156	7,15
682,604	7,26
683,051	7,18
683,498	7,31
683,945	7,29
684,392	7,6
684,839	7,65
685,286	7,76
685,732	7,92
686,179	8,02
686,625	8,12
687,071	8,33
687,518	8,5
687,964	8,72
688,41	8,85
688,856	9,12
689,301	9,22
689,747	9,43
690,193	9,77
690,638	9,94
691,084	10,22
691,529	10,56
691,974	10,99
692,419	11,25
692,864	11,59
693,309	11,88
693,754	12,28
694,199	12,6
694,643	13,04
695,088	13,48
695,532	13,74
695,977	14,19
696,421	14,52
696,865	14,89
697,309	15,47
697,753	15,83
698,197	16,3
698,64	16,45
699,084	16,78
699,527	17,35
699,971	17,73
700,414	18,19
700,857	18,6
701,3	18,84
701,743	19,24
702,186	19,52
702,629	20,03
703,072	20,32
703,515	20,79
703,957	21,1
704,399	21,53
704,842	21,73
705,284	22,03
705,726	22,33
706,168	22,58
706,61	22,97
707,052	23,4
707,494	23,51
707,935	23,72
708,377	24,06
708,818	24,45
709,26	24,61
709,701	25,05
710,142	25,31
710,583	25,32
711,024	25,75
711,465	26,05
711,905	26,17
712,346	26,44
712,787	26,61
713,227	27,09
713,667	27,09
714,108	27,28
714,548	27,77
714,988	28,23
715,428	28,14
715,868	28,05
716,307	28,6
716,747	29,07
717,186	29
717,626	29,17
718,065	29,34
718,504	29,48
718,944	29,76
719,383	29,74
719,822	30,12
720,261	30,31
720,699	30,49
721,138	30,59
721,576	31,01
722,015	30,93
722,453	30,99
722,892	31,32
723,33	31,46
723,768	31,61
724,206	31,88
724,644	32,13
725,081	31,96
725,519	31,81
725,957	32,04
726,394	32,2
726,832	32,54
727,269	32,27
727,706	32,54
728,143	32,85
728,58	32,73
729,017	32,77
729,454	32,8
729,89	32,81
730,327	33,02
730,764	33,1
731,2	33,26
731,636	33,2
732,072	33,32
732,509	33,46
732,945	33,72
733,38	33,57
733,816	33,52
734,252	33,6
734,688	33,91
735,123	33,71
735,559	33,71
735,994	34,06
736,429	33,86
736,864	34,03
737,299	34,03
737,734	34,18
738,169	34,01
738,604	34,25
739,038	34,19
739,473	34,19
739,907	34,29
740,342	34,18
740,776	34,16
741,21	34,18
741,644	34,3
742,078	34,22
742,512	34,28
742,946	34,26
743,379	34,43
743,813	34,27
744,246	34,26
744,68	34,13
745,113	34,29
745,546	34,46
745,979	34,05
746,412	34,16
746,845	34,2
747,278	34,36
747,711	34,21
748,143	34
748,576	34,51
749,008	34,21
749,441	34,22
749,873	34,11
750,305	34,01
750,737	33,87
751,169	34,04
751,601	34,11
752,032	33,88
752,464	34,04
752,896	34,08
753,327	34,18
753,758	34,05
754,19	34,1
754,621	34,1
755,052	33,82
755,483	33,87
755,914	33,77
756,344	33,75
756,775	33,85
757,206	34,05
757,636	33,77
758,066	33,9
758,497	34,02
758,927	33,92
759,357	33,82
759,787	33,99
760,217	33,68
760,647	33,5
761,076	33,71
761,506	33,71
761,935	33,84
762,365	33,7
762,794	33,55
763,223	33,57
763,653	33,76
764,082	33,59
764,51	33,46
764,939	33,5
765,368	33,69
765,797	33,31
766,225	33,64
766,654	33,4
767,082	33,55
767,51	33,36
767,938	33,49
768,367	33,18
768,795	33,09
769,222	33,55
769,65	33,33
770,078	33,3
770,505	33,15
770,933	33,3
771,36	33,04
771,788	33,39
772,215	33,27
772,642	33,27
773,069	33,26
773,496	33,22
773,923	33,18
774,349	33,25
774,776	33,09
775,203	32,92
775,629	33,19
776,055	33,16
776,482	33,1
776,908	33,07
777,334	33,38
777,76	33,03
778,186	33,1
778,611	33,06
779,037	33,1
779,463	33,08
779,888	33,01
780,314	33
780,739	32,88
781,164	33,01
781,589	33,03
782,014	32,94
782,439	33,05
782,864	33,03
783,289	33,2
783,713	33,02
784,138	32,77
784,562	32,91
784,987	32,76
785,411	32,85
785,835	33,01
786,259	32,92
786,683	32,89
787,107	32,99
787,531	33,04
787,954	32,83
788,378	32,84
788,802	32,62
789,225	32,76
789,648	32,84
790,071	32,98
790,495	32,9
790,918	32,86
791,34	32,95
791,763	32,96
792,186	32,95
792,609	32,89
793,031	32,79
793,454	32,82
793,876	32,75
794,298	32,81
794,721	32,74
795,143	32,84
795,565	32,58
795,986	32,94
796,408	32,98
796,83	32,72
797,252	32,41
797,673	32,86
798,094	32,8
798,516	32,84
798,937	32,47
799,358	32,71
799,779	32,8
800,2	32,86
800,621	32,72
801,042	32,83
801,462	32,78
801,883	32,68
802,303	32,75
802,724	32,84
803,144	32,65
803,564	32,72
803,984	32,71
804,404	32,53
804,824	32,82
805,244	32,72
805,664	32,82
806,084	32,6
806,503	32,72
806,923	32,84
807,342	32,99
807,761	32,26
808,18	32,58
808,599	32,56
809,018	32,69
809,437	32,49
809,856	32,63
810,275	32,84
810,693	32,58
811,112	32,83
811,53	32,81
811,949	32,61
812,367	32,54
812,785	32,8
813,203	32,6
813,621	32,57
814,039	32,58
814,457	32,79
814,874	32,69
815,292	32,84
815,709	32,77
816,127	32,55
816,544	32,81
816,961	32,74
817,378	32,71
817,795	32,55
818,212	32,7
818,629	32,66
819,046	32,7
819,462	32,6
819,879	32,77
820,295	32,58
820,712	32,72
821,128	32,6
821,544	32,64
821,96	32,58
822,376	32,6
822,792	32,61
823,208	32,5
823,624	32,21
824,039	32,8
824,455	32,8
824,87	32,51
825,286	32,66
825,701	32,56
826,116	32,46
826,531	32,66
826,946	32,74
827,361	32,54
827,776	32,78
828,19	32,53
828,605	32,42
829,02	32,69
829,434	32,5
829,848	32,52
830,263	32,45
830,677	32,25
831,091	32,72
831,505	32,47
831,919	32,34
832,332	32,51
832,746	32,55
833,16	32,31
833,573	32,48
833,987	32,41
834,4	32,47
834,813	32,62
835,226	32,54
835,639	32,51
836,052	32,33
836,465	32,6
836,878	32,64
837,29	32,3
837,703	32,39
838,116	32,26
838,528	32,29
838,94	32,6
839,352	32,53
839,765	32,13
840,177	32,35
840,589	32,55
841	32,36
841,412	32,39
841,824	32,53
842,235	32,6
842,647	32,38
843,058	32,42
843,47	32,42
